EEG 1,EEG 2,EEG 3,EEG 4,EEG 5,EEG 6,EEG 7,EEG 8,Accelerometer X,Accelerometer Y,Accelerometer Z,Gyroscope X,Gyroscope Y,Gyroscope Z,Battery Level,Counter,Validation Indicator
-10.259,-14.165,-18.718,-7.713,-12.698,1.790,4.002,34.920,0.008,0.985,-0.097,-0.488,-0.519,1.495,66.667,328337.000,1.000
-10.984,-15.834,-20.091,-10.261,-15.282,-3.464,-3.712,30.568,0.010,0.981,-0.095,-0.366,-0.519,1.404,66.667,328338.000,1.000
-9.866,-15.010,-19.467,-11.219,-14.918,-4.947,-9.332,26.779,0.010,0.982,-0.094,-0.397,-0.549,1.556,66.667,328339.000,1.000
-6.892,-11.683,-16.446,-9.983,-11.555,-2.267,-10.357,25.363,0.011,0.985,-0.097,-0.336,-0.519,1.648,66.667,328340.000,1.000
-2.885,-7.053,-11.833,-7.053,-6.571,2.968,-6.892,26.580,0.012,0.987,-0.097,-0.305,-0.366,1.709,66.667,328341.000,1.000
0.941,-2.516,-7.029,-3.549,-1.598,8.592,-0.438,29.585,0.012,0.988,-0.097,-0.336,-0.366,1.801,66.667,328342.000,1.000
3.664,1.151,-3.094,-0.382,2.548,13.260,7.367,33.473,0.012,0.989,-0.099,-0.488,-0.366,1.770,66.667,328343.000,1.000
5.079,3.839,-0.344,2.067,5.784,16.502,14.435,37.354,0.008,0.988,-0.096,-0.427,-0.366,1.740,66.667,328344.000,1.000
5.441,5.624,1.294,3.644,7.964,18.082,18.241,39.983,0.005,0.984,-0.096,-0.458,-0.305,1.648,66.667,328345.000,1.000
5.157,6.490,2.040,4.397,8.866,18.033,17.576,40.488,0.006,0.982,-0.094,-0.488,-0.397,1.648,66.667,328346.000,1.000
4.617,6.510,2.206,4.625,8.546,16.884,13.932,39.244,0.005,0.981,-0.096,-0.397,-0.427,1.556,66.667,328347.000,1.000
4.227,5.955,2.203,4.768,7.476,15.264,9.943,37.478,0.007,0.981,-0.097,-0.336,-0.519,1.465,66.667,328348.000,1.000
4.354,5.194,2.375,5.112,6.286,13.406,7.098,36.162,0.007,0.982,-0.098,-0.244,-0.488,1.373,66.667,328349.000,1.000
5.048,4.488,2.742,5.579,5.395,11.338,5.541,35.451,0.008,0.982,-0.099,-0.092,-0.702,1.434,66.667,328350.000,1.000
6.088,4.000,3.183,6.050,5.137,9.513,5.183,35.207,0.011,0.982,-0.097,-0.061,-0.671,1.404,66.667,328351.000,1.000
6.971,3.790,3.569,6.496,5.557,8.483,6.010,35.362,0.012,0.984,-0.099,0.031,-0.671,1.434,66.667,328352.000,1.000
7.030,3.583,3.743,6.791,6.146,7.930,7.189,35.707,0.015,0.979,-0.098,0.092,-0.671,1.434,66.667,328353.000,1.000
5.867,2.956,3.692,6.702,6.256,7.033,7.549,35.959,0.016,0.977,-0.099,0.153,-0.549,1.617,66.667,328354.000,1.000
3.635,1.765,3.634,6.064,5.691,5.691,6.994,35.969,0.018,0.975,-0.099,0.366,-0.488,1.587,66.667,328355.000,1.000
1.060,0.214,3.948,5.032,4.831,4.612,6.181,35.696,0.016,0.977,-0.097,0.519,-0.366,1.709,66.667,328356.000,1.000
-1.064,-1.413,4.804,3.904,4.016,4.237,5.341,34.931,0.015,0.974,-0.097,0.671,-0.244,1.648,66.667,328357.000,1.000
-2.204,-2.868,6.130,2.962,3.309,4.398,3.915,33.260,0.014,0.979,-0.098,0.824,-0.153,1.740,66.667,328358.000,1.000
-2.017,-3.743,7.980,2.579,2.843,5.074,1.661,30.626,0.012,0.982,-0.095,0.946,-0.183,1.801,66.667,328359.000,1.000
-0.532,-3.732,10.455,3.075,2.819,6.527,-0.473,27.724,0.011,0.985,-0.098,0.946,-0.153,1.801,66.667,328360.000,1.000
1.705,-3.073,13.389,4.427,3.266,8.677,-1.285,25.663,0.010,0.989,-0.099,0.854,-0.031,1.740,66.667,328361.000,1.000
3.715,-2.447,16.198,6.074,3.854,10.947,-0.367,25.207,0.011,0.990,-0.101,0.763,-0.092,1.678,66.667,328362.000,1.000
4.600,-2.474,18.191,7.267,4.187,12.716,1.870,26.417,0.012,0.991,-0.101,0.732,-0.122,1.709,66.667,328363.000,1.000
4.115,-3.221,19.082,7.607,4.133,13.584,4.788,28.829,0.011,0.989,-0.099,0.671,-0.092,1.709,66.667,328364.000,1.000
2.678,-4.231,19.038,7.073,3.620,13.235,7.648,31.565,0.012,0.989,-0.099,0.580,-0.153,1.740,66.667,328365.000,1.000
1.124,-4.939,18.509,5.903,2.526,11.598,9.352,33.607,0.011,0.990,-0.096,0.519,-0.122,1.648,66.667,328366.000,1.000
0.173,-5.008,17.894,4.392,0.757,9.083,9.244,34.331,0.009,0.990,-0.096,0.488,-0.183,1.587,66.667,328367.000,1.000
0.015,-4.581,17.303,2.787,-1.592,6.305,7.803,33.832,0.007,0.991,-0.096,0.366,-0.336,1.495,66.667,328368.000,1.000
0.266,-4.227,16.569,1.232,-4.281,3.627,6.081,32.639,0.005,0.991,-0.096,0.183,-0.336,1.312,66.667,328369.000,1.000
0.144,-4.590,15.407,-0.297,-7.074,1.130,4.742,31.179,0.006,0.992,-0.096,-0.061,-0.427,1.068,66.667,328370.000,1.000
-0.954,-5.888,13.830,-1.800,-9.541,-0.940,3.923,29.869,0.007,0.993,-0.095,-0.183,-0.488,0.854,66.667,328371.000,1.000
-3.168,-7.730,12.222,-3.213,-11.164,-2.061,3.836,29.255,0.007,0.992,-0.094,-0.336,-0.641,0.824,66.667,328372.000,1.000
-6.204,-9.576,11.058,-4.442,-11.712,-1.814,4.495,29.553,0.007,0.992,-0.097,-0.427,-0.763,0.854,66.667,328373.000,1.000
-9.544,-11.181,10.626,-5.383,-11.380,-0.097,5.427,30.274,0.008,0.992,-0.095,-0.580,-0.916,0.824,66.667,328374.000,1.000
-12.730,-12.574,10.920,-5.977,-10.533,2.864,6.526,30.803,0.011,0.994,-0.096,-0.702,-0.916,0.824,66.667,328375.000,1.000
-15.285,-13.666,11.922,-6.038,-9.217,6.538,8.504,31.224,0.010,0.991,-0.096,-0.732,-1.007,0.824,66.667,328376.000,1.000
-16.728,-14.132,13.695,-5.385,-7.386,10.026,11.760,31.896,0.010,0.990,-0.096,-0.916,-1.038,0.854,66.667,328377.000,1.000
-16.695,-13.753,16.239,-4.082,-5.317,12.180,14.998,32.707,0.012,0.987,-0.096,-0.946,-1.099,0.854,66.667,328378.000,1.000
-15.069,-12.582,19.394,-2.377,-3.456,12.234,16.233,33.465,0.012,0.988,-0.096,-1.038,-1.190,0.885,66.667,328379.000,1.000
-12.152,-10.863,22.813,-0.527,-2.088,10.363,14.837,34.278,0.012,0.986,-0.096,-1.160,-1.190,0.946,66.667,328380.000,1.000
-8.506,-8.879,26.193,1.356,-1.144,7.621,11.540,35.006,0.012,0.983,-0.095,-1.099,-1.221,1.068,66.667,328381.000,1.000
-4.798,-6.821,29.385,3.142,-0.448,5.269,7.454,34.964,0.011,0.983,-0.094,-1.099,-1.190,1.190,66.667,328382.000,1.000
-1.586,-4.822,32.398,4.680,0.166,4.144,3.716,33.769,0.012,0.980,-0.094,-1.038,-1.221,1.160,66.667,328383.000,1.000
0.927,-3.011,35.264,5.938,0.823,4.312,1.374,31.950,0.010,0.981,-0.096,-0.977,-1.190,1.160,66.667,328384.000,1.000
2.833,-1.599,37.794,6.919,1.426,5.048,0.924,30.337,0.011,0.981,-0.095,-0.854,-1.190,1.129,66.667,328385.000,1.000
4.504,-0.757,39.770,7.730,1.857,5.518,2.071,29.485,0.012,0.980,-0.093,-0.702,-1.251,1.099,66.667,328386.000,1.000
6.341,-0.451,41.141,8.552,2.072,5.375,4.146,29.543,0.012,0.979,-0.094,-0.702,-1.221,1.160,66.667,328387.000,1.000
8.485,-0.574,42.007,9.510,2.045,4.705,6.270,30.282,0.011,0.978,-0.094,-0.580,-1.190,1.160,66.667,328388.000,1.000
10.758,-0.941,42.616,10.645,1.874,3.960,7.857,31.289,0.011,0.976,-0.095,-0.519,-1.251,1.160,66.667,328389.000,1.000
12.747,-1.210,43.251,11.861,1.817,3.881,9.167,32.108,0.012,0.977,-0.091,-0.305,-1.282,1.190,66.667,328390.000,1.000
14.144,-1.038,44.088,12.944,2.159,4.956,10.639,32.354,0.011,0.978,-0.092,-0.122,-1.282,1.099,66.667,328391.000,1.000
14.820,-0.390,44.923,13.515,2.780,6.729,12.062,31.828,0.012,0.978,-0.092,-0.122,-1.282,1.068,66.667,328392.000,1.000
14.785,0.318,45.283,13.261,3.229,8.059,12.751,30.726,0.012,0.978,-0.093,0.031,-1.160,0.977,66.667,328393.000,1.000
14.117,0.503,44.812,12.157,3.169,8.194,12.441,29.563,0.013,0.979,-0.095,0.000,-1.160,0.885,66.667,328394.000,1.000
12.774,-0.266,43.363,10.294,2.384,7.184,11.459,28.616,0.013,0.980,-0.094,0.092,-1.099,0.793,66.667,328395.000,1.000
10.763,-2.073,41.067,7.898,0.827,5.481,10.160,27.848,0.013,0.979,-0.094,0.122,-1.099,0.702,66.667,328396.000,1.000
8.263,-4.632,38.294,5.335,-1.374,3.448,8.836,27.131,0.012,0.979,-0.094,0.183,-1.007,0.793,66.667,328397.000,1.000
5.734,-7.391,35.648,3.089,-3.829,1.317,7.630,26.290,0.012,0.979,-0.093,0.305,-0.946,0.824,66.667,328398.000,1.000
3.907,-9.564,33.935,1.706,-5.827,-0.504,6.729,25.303,0.012,0.979,-0.093,0.305,-0.916,0.854,66.667,328399.000,1.000
3.334,-10.457,33.774,1.495,-6.679,-1.405,6.753,24.564,0.012,0.982,-0.096,0.366,-0.916,0.763,66.667,328400.000,1.000
4.107,-9.902,35.255,2.355,-6.029,-0.988,8.278,24.664,0.014,0.983,-0.096,0.336,-0.854,0.824,66.667,328401.000,1.000
5.766,-8.365,37.778,3.722,-4.252,0.311,10.803,25.491,0.013,0.983,-0.097,0.305,-0.824,0.916,66.667,328402.000,1.000
7.511,-6.733,40.285,4.843,-2.401,1.209,12.431,26.007,0.012,0.984,-0.096,0.336,-0.793,1.007,66.667,328403.000,1.000
8.591,-5.842,41.827,5.204,-1.526,0.538,11.464,25.370,0.013,0.985,-0.096,0.397,-0.702,1.068,66.667,328404.000,1.000
8.507,-6.133,41.920,4.645,-2.168,-1.962,7.948,23.641,0.012,0.987,-0.098,0.305,-0.671,1.068,66.667,328405.000,1.000
7.288,-7.491,40.766,3.412,-4.117,-5.559,3.058,21.335,0.012,0.988,-0.099,0.336,-0.702,1.099,66.667,328406.000,1.000
5.463,-9.248,39.071,2.001,-6.602,-8.856,-1.793,18.937,0.011,0.990,-0.097,0.244,-0.580,1.190,66.667,328407.000,1.000
3.745,-10.621,37.585,0.832,-8.660,-10.384,-5.128,16.956,0.012,0.990,-0.097,0.153,-0.488,1.099,66.667,328408.000,1.000
2.681,-11.139,36.740,0.030,-9.574,-9.316,-5.690,15.868,0.010,0.992,-0.095,0.000,-0.488,1.190,66.667,328409.000,1.000
2.367,-10.790,36.529,-0.575,-9.312,-6.005,-3.416,15.762,0.009,0.989,-0.094,-0.153,-0.488,1.068,66.667,328410.000,1.000
2.577,-9.954,36.696,-1.185,-8.451,-1.884,-0.065,16.257,0.009,0.987,-0.095,-0.305,-0.488,0.977,66.667,328411.000,1.000
2.884,-9.237,36.854,-1.934,-7.824,1.344,2.196,16.818,0.010,0.986,-0.094,-0.336,-0.549,0.977,66.667,328412.000,1.000
2.909,-9.113,36.759,-2.691,-7.821,2.865,2.713,17.279,0.012,0.987,-0.098,-0.397,-0.549,0.977,66.667,328413.000,1.000
2.472,-9.655,36.468,-3.092,-8.254,2.864,2.095,17.708,0.013,0.987,-0.098,-0.305,-0.580,0.885,66.667,328414.000,1.000
1.367,-10.823,35.970,-3.138,-9.128,1.264,0.421,17.643,0.013,0.989,-0.099,-0.336,-0.610,1.007,66.667,328415.000,1.000
-0.433,-12.601,35.229,-3.202,-10.636,-2.387,-2.841,16.438,0.013,0.991,-0.098,-0.427,-0.549,1.099,66.667,328416.000,1.000
-2.390,-14.533,34.603,-3.458,-12.401,-7.413,-6.943,14.365,0.014,0.992,-0.094,-0.549,-0.519,1.160,66.667,328417.000,1.000
-3.364,-15.586,34.957,-3.499,-13.244,-11.504,-9.732,12.688,0.016,0.989,-0.096,-0.519,-0.488,1.129,66.667,328418.000,1.000
-2.320,-14.808,36.975,-2.802,-12.219,-12.494,-9.611,12.478,0.017,0.987,-0.098,-0.580,-0.427,1.099,66.667,328419.000,1.000
0.604,-12.280,40.223,-1.550,-9.877,-10.391,-6.947,13.515,0.018,0.987,-0.097,-0.610,-0.366,1.251,66.667,328420.000,1.000
3.988,-9.235,43.281,-0.556,-7.854,-7.127,-3.538,14.699,0.019,0.987,-0.097,-0.610,-0.214,1.312,66.667,328421.000,1.000
6.050,-7.171,44.740,-0.531,-7.482,-4.851,-0.959,15.230,0.014,0.986,-0.096,-0.549,-0.183,1.465,66.667,328422.000,1.000
5.997,-6.815,44.236,-1.412,-8.723,-4.712,0.130,15.162,0.011,0.986,-0.096,-0.580,-0.122,1.373,66.667,328423.000,1.000
4.543,-7.661,42.651,-2.411,-10.322,-6.408,-0.156,15.050,0.010,0.986,-0.094,-0.610,-0.183,1.221,66.667,328424.000,1.000
2.974,-8.564,41.241,-2.822,-11.013,-8.615,-1.245,15.250,0.006,0.987,-0.095,-0.732,-0.275,1.099,66.667,328425.000,1.000
2.126,-8.705,40.835,-2.471,-10.323,-9.981,-2.424,15.807,0.005,0.985,-0.094,-0.671,-0.305,0.946,66.667,328426.000,1.000
2.016,-7.993,41.545,-1.682,-8.655,-9.898,-2.813,16.686,0.006,0.985,-0.096,-0.702,-0.397,0.854,66.667,328427.000,1.000
2.211,-6.914,42.925,-0.977,-6.900,-8.620,-1.939,17.528,0.006,0.981,-0.096,-0.641,-0.488,0.702,66.667,328428.000,1.000
2.345,-6.144,44.240,-0.861,-6.064,-6.964,-0.535,17.338,0.008,0.982,-0.096,-0.519,-0.671,0.549,66.667,328429.000,1.000
2.263,-6.207,44.698,-1.719,-6.938,-5.876,-0.183,15.142,0.010,0.981,-0.095,-0.427,-0.702,0.519,66.667,328430.000,1.000
2.149,-7.085,44.004,-3.385,-9.414,-5.798,-1.825,11.240,0.011,0.983,-0.095,-0.336,-0.732,0.458,66.667,328431.000,1.000
2.393,-8.081,42.621,-5.083,-12.395,-6.420,-4.593,7.280,0.011,0.982,-0.094,-0.275,-0.702,0.397,66.667,328432.000,1.000
3.333,-8.314,41.510,-5.893,-14.428,-7.046,-6.578,5.081,0.012,0.983,-0.091,-0.122,-0.702,0.244,66.667,328433.000,1.000
5.000,-7.346,41.560,-5.314,-14.537,-7.040,-6.522,5.456,0.012,0.981,-0.094,0.000,-0.702,0.275,66.667,328434.000,1.000
6.979,-5.465,42.967,-3.602,-12.770,-6.210,-4.746,7.718,0.011,0.983,-0.093,-0.031,-0.702,0.397,66.667,328435.000,1.000
8.750,-3.388,45.279,-1.474,-9.884,-4.789,-2.414,10.377,0.009,0.982,-0.095,0.092,-0.793,0.427,66.667,328436.000,1.000
9.968,-1.687,47.806,0.347,-6.819,-3.127,0.121,12.328,0.010,0.982,-0.094,0.214,-0.824,0.427,66.667,328437.000,1.000
10.664,-0.581,50.064,1.521,-4.306,-1.636,3.052,13.381,0.010,0.982,-0.094,0.336,-0.885,0.519,66.667,328438.000,1.000
11.188,-0.028,51.869,2.117,-2.822,-0.999,5.554,13.744,0.011,0.983,-0.095,0.366,-1.007,0.702,66.667,328439.000,1.000
11.775,0.073,53.029,2.250,-2.751,-2.064,5.847,13.337,0.010,0.983,-0.094,0.336,-0.916,0.763,66.667,328440.000,1.000
12.392,-0.236,53.320,2.010,-4.129,-5.075,2.871,11.966,0.008,0.983,-0.097,0.397,-0.885,0.763,66.667,328441.000,1.000
12.743,-0.980,52.610,1.440,-6.568,-9.156,-2.508,9.744,0.007,0.987,-0.094,0.397,-0.977,1.007,66.667,328442.000,1.000
12.630,-2.064,51.181,0.719,-9.237,-12.638,-8.050,7.288,0.007,0.986,-0.094,0.458,-0.977,1.038,66.667,328443.000,1.000
12.301,-2.980,49.914,0.381,-10.945,-13.970,-11.247,5.691,0.008,0.986,-0.090,0.427,-0.946,1.099,66.667,328444.000,1.000
12.255,-3.048,49.784,0.992,-10.758,-12.621,-10.254,5.985,0.007,0.984,-0.093,0.366,-1.007,1.251,66.667,328445.000,1.000
12.995,-1.858,51.343,2.779,-8.441,-9.117,-4.852,8.547,0.008,0.984,-0.094,0.305,-1.038,1.251,66.667,328446.000,1.000
14.655,0.510,54.380,5.373,-4.711,-4.794,3.107,12.777,0.008,0.985,-0.094,0.336,-1.221,1.221,66.667,328447.000,1.000
16.761,3.416,57.920,7.890,-1.038,-1.513,10.228,17.190,0.009,0.985,-0.094,0.275,-1.221,1.343,66.667,328448.000,1.000
18.504,6.032,60.732,9.428,1.127,-0.520,13.621,20.111,0.009,0.986,-0.092,0.244,-1.160,1.282,66.667,328449.000,1.000
19.303,7.864,62.056,9.677,1.174,-1.405,12.774,20.678,0.011,0.986,-0.093,0.336,-1.221,1.251,66.667,328450.000,1.000
19.338,8.928,62.111,9.226,-0.322,-2.713,9.143,19.340,0.010,0.986,-0.091,0.244,-1.160,1.343,66.667,328451.000,1.000
19.194,9.437,61.625,8.847,-2.392,-3.611,4.606,17.035,0.010,0.985,-0.094,0.275,-1.160,1.282,66.667,328452.000,1.000
19.228,9.460,61.087,8.765,-4.429,-4.268,0.601,14.276,0.012,0.985,-0.094,0.275,-1.129,1.190,66.667,328453.000,1.000
19.467,9.083,60.663,8.817,-6.034,-4.746,-1.692,11.497,0.012,0.984,-0.096,0.305,-1.251,1.282,66.667,328454.000,1.000
19.834,8.576,60.449,8.902,-6.803,-4.646,-1.604,9.533,0.013,0.985,-0.095,0.275,-1.160,1.221,66.667,328455.000,1.000
20.379,8.222,60.596,9.124,-6.480,-3.818,0.203,9.087,0.014,0.984,-0.097,0.427,-1.099,1.282,66.667,328456.000,1.000
20.921,8.038,60.960,9.353,-5.465,-2.711,2.107,9.858,0.013,0.985,-0.099,0.519,-1.038,1.160,66.667,328457.000,1.000
20.902,7.746,61.019,9.157,-4.637,-1.843,2.749,10.810,0.013,0.984,-0.101,0.549,-0.977,1.099,66.667,328458.000,1.000
19.837,7.118,60.336,8.214,-4.653,-1.378,2.011,11.196,0.016,0.984,-0.097,0.549,-0.977,1.129,66.667,328459.000,1.000
17.673,6.161,58.873,6.486,-5.661,-1.401,0.827,10.872,0.015,0.985,-0.097,0.549,-0.946,1.007,66.667,328460.000,1.000
14.907,5.093,57.050,4.293,-7.267,-1.925,0.193,10.026,0.013,0.983,-0.097,0.580,-0.763,1.068,66.667,328461.000,1.000
12.243,4.266,55.443,2.124,-8.847,-2.514,0.882,8.968,0.013,0.986,-0.094,0.580,-0.824,1.099,66.667,328462.000,1.000
10.221,3.930,54.469,0.448,-9.836,-2.456,3.319,8.170,0.013,0.985,-0.094,0.549,-0.671,1.007,66.667,328463.000,1.000
9.048,4.079,54.249,-0.405,-9.925,-1.408,7.246,8.225,0.013,0.986,-0.095,0.610,-0.610,0.977,66.667,328464.000,1.000
8.448,4.346,54.444,-0.488,-9.365,0.191,11.526,9.274,0.013,0.986,-0.097,0.488,-0.519,0.916,66.667,328465.000,1.000
7.792,4.087,54.338,-0.292,-8.918,1.312,14.398,10.560,0.011,0.987,-0.097,0.427,-0.488,0.916,66.667,328466.000,1.000
6.231,2.707,53.082,-0.633,-9.534,0.846,14.394,10.752,0.011,0.986,-0.095,0.427,-0.458,0.793,66.667,328467.000,1.000
3.252,0.098,50.379,-1.974,-11.557,-1.690,11.265,9.214,0.011,0.984,-0.095,0.427,-0.427,0.702,66.667,328468.000,1.000
-0.711,-3.003,47.051,-3.815,-14.128,-5.659,6.697,6.905,0.009,0.985,-0.096,0.458,-0.519,0.702,66.667,328469.000,1.000
-4.408,-5.287,44.597,-5.044,-15.709,-9.578,3.753,5.518,0.008,0.987,-0.095,0.366,-0.549,0.641,66.667,328470.000,1.000
-6.353,-5.648,44.310,-4.695,-15.122,-11.962,4.342,5.966,0.008,0.989,-0.094,0.336,-0.580,0.702,66.667,328471.000,1.000
-5.731,-3.883,46.434,-2.708,-12.535,-12.290,7.332,7.502,0.006,0.988,-0.094,0.305,-0.641,0.641,66.667,328472.000,1.000
-2.918,-0.797,50.057,-0.050,-9.298,-11.140,9.727,8.244,0.006,0.988,-0.093,0.244,-0.702,0.580,66.667,328473.000,1.000
0.816,2.435,53.840,2.018,-6.716,-9.336,9.690,6.878,0.005,0.986,-0.093,0.153,-0.763,0.519,66.667,328474.000,1.000
4.042,5.015,56.786,2.762,-5.206,-7.266,7.643,3.755,0.007,0.986,-0.092,0.092,-0.885,0.549,66.667,328475.000,1.000
6.027,6.853,58.645,2.375,-4.282,-4.855,4.991,0.528,0.004,0.986,-0.092,0.031,-0.946,0.610,66.667,328476.000,1.000
6.811,8.350,59.594,1.532,-3.335,-2.034,3.092,-1.122,0.006,0.986,-0.094,-0.031,-0.977,0.610,66.667,328477.000,1.000
6.929,9.890,59.936,0.873,-2.150,1.035,2.764,-0.526,0.006,0.985,-0.092,-0.061,-1.038,0.702,66.667,328478.000,1.000
7.133,11.589,60.118,0.788,-0.887,4.008,4.022,1.779,0.005,0.984,-0.094,-0.031,-1.190,0.580,66.667,328479.000,1.000
7.895,13.190,60.480,1.210,-0.036,6.187,6.122,4.463,0.004,0.985,-0.093,0.000,-1.251,0.610,66.667,328480.000,1.000
9.236,14.297,61.153,1.829,0.089,6.955,8.221,6.416,0.004,0.984,-0.094,-0.092,-1.404,0.610,66.667,328481.000,1.000
10.854,14.892,62.145,2.464,-0.227,6.665,10.571,7.614,0.006,0.984,-0.092,-0.092,-1.526,0.671,66.667,328482.000,1.000
12.448,15.386,63.432,3.231,-0.261,6.469,14.023,8.810,0.006,0.985,-0.094,-0.031,-1.465,0.854,66.667,328483.000,1.000
13.817,16.124,64.840,4.283,0.468,7.126,18.167,10.397,0.005,0.986,-0.095,-0.092,-1.526,0.824,66.667,328484.000,1.000
14.734,16.935,65.940,5.499,1.799,8.347,21.095,11.880,0.004,0.986,-0.094,-0.061,-1.648,0.946,66.667,328485.000,1.000
15.202,17.323,66.495,6.724,3.397,9.379,21.319,12.676,0.007,0.985,-0.095,-0.031,-1.617,0.854,66.667,328486.000,1.000
15.515,16.993,66.660,7.886,4.975,9.615,19.174,12.754,0.009,0.985,-0.094,-0.061,-1.648,0.946,66.667,328487.000,1.000
16.035,16.030,66.745,8.876,6.158,8.695,15.931,12.362,0.007,0.983,-0.098,-0.061,-1.617,1.038,66.667,328488.000,1.000
16.964,14.796,66.937,9.481,6.458,6.516,12.583,11.556,0.007,0.986,-0.095,-0.092,-1.740,1.129,66.667,328489.000,1.000
18.214,13.733,67.211,9.461,5.482,3.380,9.665,10.097,0.007,0.985,-0.093,-0.214,-1.678,1.099,66.667,328490.000,1.000
19.680,13.300,67.650,8.943,3.502,0.273,7.346,7.922,0.009,0.985,-0.094,-0.244,-1.587,1.099,66.667,328491.000,1.000
21.268,13.823,68.397,8.416,1.364,-1.539,5.660,5.439,0.009,0.986,-0.095,-0.244,-1.587,1.251,66.667,328492.000,1.000
22.832,15.140,69.354,8.368,-0.138,-1.656,4.608,3.468,0.008,0.988,-0.096,-0.244,-1.587,1.160,66.667,328493.000,1.000
24.235,16.608,70.185,9.020,-0.654,-0.917,4.588,3.086,0.010,0.985,-0.096,-0.275,-1.495,1.129,66.667,328494.000,1.000
25.294,17.489,70.471,10.113,-0.446,-0.570,6.122,4.708,0.010,0.985,-0.095,-0.305,-1.556,1.160,66.667,328495.000,1.000
25.863,17.353,69.991,10.963,-0.255,-1.359,8.179,6.975,0.011,0.986,-0.095,-0.275,-1.556,1.251,66.667,328496.000,1.000
25.802,16.230,68.749,10.704,-1.006,-3.347,8.150,7.262,0.013,0.985,-0.093,-0.336,-1.404,1.099,66.667,328497.000,1.000
25.022,14.477,66.954,8.915,-3.062,-5.974,4.360,3.938,0.013,0.984,-0.095,-0.366,-1.312,1.160,66.667,328498.000,1.000
23.509,12.643,64.929,6.050,-5.830,-8.188,-2.113,-2.197,0.013,0.985,-0.095,-0.427,-1.343,1.190,66.667,328499.000,1.000
21.231,11.241,62.888,3.053,-8.298,-9.023,-8.377,-8.664,0.012,0.985,-0.096,-0.488,-1.221,1.190,66.667,328500.000,1.000
18.413,10.646,61.114,0.896,-9.442,-7.932,-11.596,-12.775,0.013,0.985,-0.094,-0.488,-1.099,1.190,66.667,328501.000,1.000
15.593,11.014,59.959,0.127,-8.638,-4.787,-10.075,-12.978,0.011,0.985,-0.093,-0.427,-1.129,1.251,66.667,328502.000,1.000
13.356,12.049,59.519,0.618,-6.095,-0.124,-4.423,-9.769,0.011,0.986,-0.094,-0.336,-0.977,1.160,66.667,328503.000,1.000
12.048,13.072,59.445,1.684,-2.962,4.554,2.433,-5.250,0.013,0.983,-0.093,-0.305,-0.916,1.190,66.667,328504.000,1.000
11.629,13.445,59.188,2.537,-0.751,7.307,7.510,-1.431,0.012,0.983,-0.092,-0.336,-0.763,1.068,66.667,328505.000,1.000
11.945,13.049,58.645,2.969,-0.211,7.193,9.925,1.175,0.011,0.984,-0.091,-0.336,-0.641,1.190,66.667,328506.000,1.000
12.766,12.304,58.185,3.296,-1.081,4.902,10.693,3.095,0.011,0.985,-0.094,-0.397,-0.641,1.129,66.667,328507.000,1.000
13.678,11.688,58.155,3.814,-2.565,2.073,10.911,4.614,0.010,0.985,-0.093,-0.397,-0.580,1.038,66.667,328508.000,1.000
14.141,11.410,58.520,4.440,-3.897,0.174,10.818,5.328,0.013,0.985,-0.094,-0.397,-0.519,1.068,66.667,328509.000,1.000
13.669,11.310,58.793,4.698,-4.845,-0.419,10.065,4.547,0.011,0.986,-0.095,-0.366,-0.458,1.099,66.667,328510.000,1.000
12.321,11.056,58.494,4.262,-5.547,-0.377,8.431,2.217,0.011,0.986,-0.097,-0.244,-0.427,1.099,66.667,328511.000,1.000
10.737,10.492,57.544,3.306,-6.181,-0.644,6.485,-0.676,0.010,0.987,-0.096,-0.336,-0.427,1.190,66.667,328512.000,1.000
9.808,9.731,56.348,2.418,-6.707,-1.660,5.005,-2.775,0.009,0.985,-0.093,-0.336,-0.244,1.190,66.667,328513.000,1.000
10.208,9.073,55.543,2.150,-6.874,-2.970,4.167,-3.503,0.010,0.984,-0.092,-0.275,-0.275,1.129,66.667,328514.000,1.000
11.957,8.865,55.571,2.653,-6.424,-3.498,3.867,-3.425,0.009,0.983,-0.094,-0.305,-0.275,1.190,66.667,328515.000,1.000
14.631,9.514,56.708,3.979,-4.917,-2.322,4.454,-3.187,0.009,0.984,-0.095,-0.153,-0.214,1.160,66.667,328516.000,1.000
17.520,11.234,58.868,6.068,-2.185,0.242,6.285,-3.064,0.010,0.986,-0.094,-0.153,-0.183,1.251,66.667,328517.000,1.000
19.735,13.494,61.278,8.354,0.925,2.475,8.230,-3.840,0.010,0.989,-0.089,-0.092,-0.214,1.282,66.667,328518.000,1.000
20.686,15.297,62.921,9.984,3.029,2.925,8.411,-6.593,0.010,0.990,-0.089,-0.061,-0.214,1.373,66.667,328519.000,1.000
20.484,16.070,63.363,10.517,3.540,1.949,6.718,-11.122,0.008,0.989,-0.091,-0.183,-0.183,1.434,66.667,328520.000,1.000
19.821,15.969,62.958,10.228,3.080,1.108,4.798,-15.743,0.008,0.989,-0.090,-0.214,-0.183,1.343,66.667,328521.000,1.000
19.280,15.389,62.158,9.463,2.290,1.221,3.861,-19.094,0.008,0.987,-0.090,-0.275,-0.214,1.282,66.667,328522.000,1.000
19.156,14.658,61.267,8.313,1.222,1.682,3.588,-21.097,0.006,0.986,-0.088,-0.305,-0.305,1.373,66.667,328523.000,1.000
19.756,14.229,60.775,6.999,-0.083,1.535,3.075,-22.191,0.006,0.985,-0.091,-0.305,-0.397,1.343,66.667,328524.000,1.000
21.242,14.494,61.217,6.010,-1.332,0.351,1.799,-22.675,0.006,0.985,-0.091,-0.275,-0.488,1.343,66.667,328525.000,1.000
23.407,15.357,62.708,5.842,-2.209,-1.667,-0.274,-22.661,0.005,0.988,-0.094,-0.214,-0.549,1.373,66.667,328526.000,1.000
25.559,16.272,64.628,6.470,-2.725,-3.827,-2.491,-22.174,0.007,0.988,-0.094,-0.183,-0.549,1.373,66.667,328527.000,1.000
26.862,16.685,65.971,7.312,-3.097,-5.123,-3.595,-21.148,0.010,0.988,-0.093,-0.122,-0.549,1.434,66.667,328528.000,1.000
26.833,16.476,66.025,7.691,-3.465,-4.636,-2.333,-19.427,0.013,0.989,-0.094,-0.031,-0.580,1.587,66.667,328529.000,1.000
25.507,15.921,64.663,7.182,-3.941,-2.221,1.512,-17.032,0.014,0.986,-0.095,-0.092,-0.519,1.556,66.667,328530.000,1.000
23.448,15.366,62.349,5.868,-4.579,1.164,6.516,-14.264,0.016,0.982,-0.094,-0.153,-0.458,1.556,66.667,328531.000,1.000
21.225,14.909,59.634,4.128,-5.478,3.827,10.580,-11.606,0.016,0.981,-0.097,0.000,-0.366,1.587,66.667,328532.000,1.000
18.944,14.306,56.748,2.311,-6.693,4.378,12.333,-9.505,0.015,0.977,-0.096,0.092,-0.397,1.770,66.667,328533.000,1.000
16.433,13.326,53.793,0.653,-8.011,2.773,11.974,-8.148,0.017,0.976,-0.095,0.244,-0.183,1.801,66.667,328534.000,1.000
13.672,12.026,51.008,-0.758,-9.139,0.225,10.764,-7.583,0.014,0.977,-0.095,0.458,-0.122,1.892,66.667,328535.000,1.000
11.107,10.642,48.820,-1.888,-9.938,-1.920,9.448,-7.889,0.013,0.981,-0.093,0.610,-0.031,1.862,66.667,328536.000,1.000
9.267,9.342,47.518,-2.722,-10.458,-3.262,7.954,-8.843,0.012,0.985,-0.095,0.732,-0.122,1.831,66.667,328537.000,1.000
8.272,8.131,47.099,-3.147,-10.602,-4.243,6.294,-9.548,0.012,0.988,-0.095,0.763,-0.031,1.740,66.667,328538.000,1.000
7.617,6.913,47.221,-3.138,-10.220,-5.293,4.945,-9.281,0.012,0.988,-0.093,0.671,-0.061,1.648,66.667,328539.000,1.000
6.357,5.449,47.118,-3.208,-9.692,-6.511,4.253,-8.665,0.010,0.990,-0.091,0.580,-0.153,1.740,66.667,328540.000,1.000
3.958,3.595,46.178,-3.971,-9.586,-7.696,3.934,-8.963,0.011,0.989,-0.093,0.549,-0.031,1.770,66.667,328541.000,1.000
0.777,1.722,44.546,-5.382,-9.948,-8.345,3.799,-10.461,0.012,0.991,-0.093,0.519,-0.092,1.740,66.667,328542.000,1.000
-2.190,0.591,43.042,-6.630,-10.159,-7.732,4.374,-12.018,0.009,0.991,-0.093,0.488,-0.122,1.587,66.667,328543.000,1.000
-3.963,0.724,42.457,-6.866,-9.631,-5.500,6.108,-12.109,0.005,0.991,-0.092,0.275,-0.183,1.434,66.667,328544.000,1.000
-4.241,1.830,42.807,-6.074,-8.674,-2.590,8.089,-10.329,0.005,0.992,-0.092,0.153,-0.275,1.221,66.667,328545.000,1.000
-3.429,2.962,43.463,-4.987,-8.172,-0.859,8.576,-7.645,0.004,0.994,-0.094,0.031,-0.519,1.099,66.667,328546.000,1.000
-2.373,3.340,43.758,-4.432,-8.663,-1.325,7.090,-5.433,0.006,0.992,-0.094,-0.153,-0.610,1.038,66.667,328547.000,1.000
-1.818,2.911,43.536,-4.660,-9.804,-3.201,4.720,-4.448,0.007,0.993,-0.092,-0.244,-0.732,0.763,66.667,328548.000,1.000
-1.930,2.288,43.224,-5.167,-10.635,-4.771,2.791,-4.424,0.007,0.993,-0.094,-0.397,-0.793,0.549,66.667,328549.000,1.000
-2.410,2.185,43.360,-5.247,-10.392,-4.871,1.974,-4.562,0.007,0.990,-0.095,-0.458,-1.007,0.458,66.667,328550.000,1.000
-2.775,2.901,44.158,-4.583,-8.987,-3.428,2.145,-4.442,0.006,0.990,-0.094,-0.549,-1.038,0.519,66.667,328551.000,1.000
-2.710,4.167,45.277,-3.502,-7.137,-1.115,2.869,-4.478,0.008,0.989,-0.092,-0.610,-1.129,0.488,66.667,328552.000,1.000
-2.101,5.376,46.101,-2.573,-5.806,1.121,3.582,-5.339,0.008,0.990,-0.091,-0.702,-1.282,0.519,66.667,328553.000,1.000
-0.965,6.067,46.216,-2.129,-5.537,2.277,3.583,-7.206,0.008,0.989,-0.092,-0.763,-1.373,0.580,66.667,328554.000,1.000
0.542,6.162,45.579,-2.188,-6.307,1.690,2.536,-9.621,0.009,0.989,-0.094,-0.763,-1.434,0.610,66.667,328555.000,1.000
2.436,5.944,44.638,-2.327,-7.496,-0.246,0.954,-11.590,0.009,0.990,-0.092,-0.763,-1.465,0.671,66.667,328556.000,1.000
4.887,5.802,44.021,-2.002,-8.442,-2.534,-0.308,-12.266,0.010,0.988,-0.091,-0.885,-1.465,0.793,66.667,328557.000,1.000
7.923,5.824,44.112,-0.987,-8.978,-4.775,-1.179,-11.674,0.008,0.988,-0.092,-0.854,-1.587,0.824,66.667,328558.000,1.000
11.226,5.858,44.906,0.572,-9.257,-7.036,-1.851,-10.348,0.008,0.986,-0.090,-0.885,-1.556,0.946,66.667,328559.000,1.000
14.105,5.840,46.059,2.338,-9.324,-8.900,-1.624,-8.559,0.010,0.986,-0.087,-0.824,-1.587,1.099,66.667,328560.000,1.000
15.911,5.897,47.178,4.031,-8.976,-9.575,0.135,-6.394,0.009,0.986,-0.090,-0.854,-1.587,1.038,66.667,328561.000,1.000
16.282,6.074,47.867,5.248,-8.398,-9.080,2.268,-4.712,0.009,0.985,-0.091,-0.916,-1.648,1.099,66.667,328562.000,1.000
15.322,6.171,47.833,5.527,-8.268,-8.461,2.327,-4.967,0.009,0.986,-0.092,-0.977,-1.740,1.282,66.667,328563.000,1.000
13.726,6.153,47.263,4.895,-8.872,-8.530,-0.716,-7.515,0.010,0.986,-0.090,-0.946,-1.709,1.251,66.667,328564.000,1.000
12.357,6.326,46.743,3.947,-9.767,-9.226,-5.400,-11.109,0.010,0.984,-0.089,-0.977,-1.709,1.343,66.667,328565.000,1.000
11.761,6.987,46.871,3.408,-10.190,-10.035,-9.340,-14.157,0.009,0.986,-0.091,-0.916,-1.770,1.312,66.667,328566.000,1.000
11.935,8.262,47.926,3.665,-9.535,-10.139,-10.292,-15.614,0.010,0.986,-0.089,-0.885,-1.709,1.190,66.667,328567.000,1.000
12.578,10.161,49.890,4.783,-7.423,-8.440,-6.835,-14.868,0.010,0.982,-0.092,-0.885,-1.648,1.251,66.667,328568.000,1.000
13.315,12.501,52.449,6.543,-3.996,-4.468,0.196,-12.082,0.012,0.980,-0.087,-0.854,-1.526,1.221,66.667,328569.000,1.000
13.624,14.745,54.847,8.345,-0.299,0.690,7.276,-8.724,0.013,0.980,-0.088,-0.763,-1.495,1.190,66.667,328570.000,1.000
13.144,16.346,56.338,9.641,2.457,5.171,10.621,-6.524,0.013,0.979,-0.092,-0.702,-1.404,1.190,66.667,328571.000,1.000
11.823,17.204,56.619,10.203,3.758,7.908,9.519,-5.973,0.013,0.979,-0.093,-0.610,-1.251,1.221,66.667,328572.000,1.000
9.883,17.558,55.860,10.043,3.924,9.124,6.321,-6.274,0.015,0.980,-0.094,-0.580,-1.251,1.099,66.667,328573.000,1.000
7.765,17.692,54.524,9.337,3.656,9.642,3.756,-6.338,0.014,0.980,-0.091,-0.305,-1.221,1.038,66.667,328574.000,1.000
5.894,17.683,53.000,8.297,3.405,9.853,2.886,-5.616,0.014,0.981,-0.089,-0.275,-1.038,1.068,66.667,328575.000,1.000
4.505,17.386,51.433,7.102,3.221,9.502,2.972,-4.332,0.015,0.980,-0.091,-0.153,-0.885,1.068,66.667,328576.000,1.000
3.533,16.678,49.729,5.807,2.865,8.376,2.833,-3.279,0.016,0.980,-0.090,-0.031,-0.824,1.007,66.667,328577.000,1.000
2.904,15.622,47.858,4.490,2.163,6.669,1.849,-3.144,0.015,0.979,-0.093,0.153,-0.671,1.068,66.667,328578.000,1.000
2.782,14.442,46.040,3.349,1.213,4.593,0.146,-4.006,0.014,0.980,-0.091,0.214,-0.610,1.068,66.667,328579.000,1.000
3.223,13.312,44.454,2.464,0.161,2.220,-1.563,-5.505,0.014,0.981,-0.091,0.275,-0.519,1.099,66.667,328580.000,1.000
3.999,12.261,43.132,1.805,-0.777,-0.053,-2.419,-6.999,0.015,0.982,-0.092,0.397,-0.427,1.129,66.667,328581.000,1.000
4.725,11.273,41.979,1.229,-1.459,-1.537,-1.885,-7.916,0.014,0.984,-0.091,0.427,-0.275,1.190,66.667,328582.000,1.000
5.216,10.351,40.888,0.550,-1.973,-1.895,-0.246,-8.356,0.013,0.987,-0.090,0.488,-0.183,1.221,66.667,328583.000,1.000
5.604,9.580,39.873,-0.293,-2.581,-1.358,1.728,-9.102,0.011,0.988,-0.089,0.458,-0.061,1.221,66.667,328584.000,1.000
6.125,9.155,39.092,-1.127,-3.463,-0.283,3.648,-10.847,0.009,0.991,-0.088,0.427,-0.061,1.343,66.667,328585.000,1.000
7.184,9.436,39.005,-1.373,-4.257,1.234,5.584,-13.278,0.009,0.995,-0.089,0.336,-0.153,1.312,66.667,328586.000,1.000
9.170,10.809,40.123,-0.371,-4.373,2.994,7.480,-15.303,0.008,0.992,-0.090,0.122,-0.183,1.221,66.667,328587.000,1.000
12.230,13.335,42.639,2.152,-3.532,4.373,8.658,-16.156,0.005,0.989,-0.089,-0.031,-0.305,1.343,66.667,328588.000,1.000
16.256,16.685,46.363,5.892,-1.835,4.871,8.576,-15.927,0.005,0.989,-0.091,-0.122,-0.397,1.221,66.667,328589.000,1.000
20.901,20.360,50.799,10.069,0.433,4.711,7.934,-15.121,0.006,0.986,-0.091,-0.122,-0.305,1.190,66.667,328590.000,1.000
25.776,23.967,55.434,13.949,3.045,4.672,8.104,-13.928,0.009,0.986,-0.091,-0.153,-0.305,1.251,66.667,328591.000,1.000
30.270,27.106,59.657,17.009,5.492,5.051,9.364,-12.454,0.011,0.987,-0.093,-0.153,-0.305,1.221,66.667,328592.000,1.000
33.457,29.072,62.657,18.849,6.897,5.111,10.230,-11.309,0.010,0.992,-0.092,-0.244,-0.458,1.282,66.667,328593.000,1.000
34.625,29.340,63.852,19.366,6.763,4.075,9.483,-10.992,0.011,0.993,-0.089,-0.275,-0.366,1.404,66.667,328594.000,1.000
33.835,28.218,63.387,18.925,5.548,2.260,7.889,-11.024,0.010,0.993,-0.089,-0.488,-0.488,1.373,66.667,328595.000,1.000
32.014,26.659,62.165,18.204,4.289,0.811,6.811,-10.517,0.010,0.989,-0.090,-0.580,-0.427,1.404,66.667,328596.000,1.000
30.228,25.497,61.111,17.578,3.547,0.393,6.403,-9.408,0.012,0.988,-0.094,-0.580,-0.519,1.495,66.667,328597.000,1.000
29.072,24.997,60.625,16.975,3.230,0.668,5.936,-8.377,0.015,0.987,-0.091,-0.549,-0.519,1.526,66.667,328598.000,1.000
28.596,24.963,60.572,16.218,3.097,1.029,5.033,-7.977,0.018,0.985,-0.089,-0.549,-0.519,1.648,66.667,328599.000,1.000
28.419,24.952,60.430,15.190,2.874,1.150,3.698,-8.381,0.014,0.986,-0.088,-0.519,-0.397,1.770,66.667,328600.000,1.000
28.212,24.615,59.760,14.025,2.481,1.049,2.073,-9.258,0.009,0.987,-0.086,-0.580,-0.397,1.740,66.667,328601.000,1.000
27.821,23.919,58.414,12.992,2.069,0.989,0.985,-9.811,0.006,0.988,-0.086,-0.641,-0.366,1.648,66.667,328602.000,1.000
27.124,22.886,56.385,12.177,1.747,1.204,1.408,-9.514,0.007,0.985,-0.088,-0.671,-0.519,1.465,66.667,328603.000,1.000
26.001,21.457,53.669,11.342,1.292,1.549,3.177,-8.804,0.006,0.983,-0.092,-0.671,-0.580,1.434,66.667,328604.000,1.000
24.334,19.633,50.272,10.081,0.271,1.496,5.022,-8.668,0.005,0.982,-0.092,-0.610,-0.793,1.160,66.667,328605.000,1.000
22.172,17.627,46.474,8.296,-1.297,0.712,5.848,-9.557,0.006,0.981,-0.091,-0.366,-0.946,0.977,66.667,328606.000,1.000
19.650,15.790,42.764,6.224,-2.969,-0.590,5.706,-11.259,0.007,0.980,-0.091,-0.336,-0.977,0.854,66.667,328607.000,1.000
17.027,14.380,39.691,4.261,-4.351,-1.908,5.131,-13.425,0.010,0.982,-0.091,-0.275,-0.946,0.732,66.667,328608.000,1.000
14.791,13.496,37.773,2.857,-5.312,-2.810,4.161,-15.711,0.011,0.983,-0.089,-0.214,-1.129,0.610,66.667,328609.000,1.000
13.315,12.974,37.149,2.249,-5.959,-3.176,2.436,-17.853,0.012,0.984,-0.091,-0.183,-1.129,0.641,66.667,328610.000,1.000
12.557,12.406,37.454,2.349,-6.344,-3.088,-0.051,-19.750,0.012,0.985,-0.092,-0.153,-1.099,0.549,66.667,328611.000,1.000
12.100,11.492,38.043,2.781,-6.467,-2.624,-2.498,-21.462,0.010,0.986,-0.091,0.000,-1.099,0.763,66.667,328612.000,1.000
11.678,10.378,38.498,3.221,-6.346,-1.805,-3.950,-22.952,0.011,0.986,-0.091,0.031,-1.068,0.854,66.667,328613.000,1.000
11.421,9.589,38.804,3.593,-6.093,-0.771,-4.017,-23.971,0.012,0.988,-0.092,0.031,-1.038,0.763,66.667,328614.000,1.000
11.425,9.540,38.967,3.806,-6.042,0.150,-2.872,-24.462,0.011,0.988,-0.091,0.031,-1.038,0.702,66.667,328615.000,1.000
11.673,10.357,39.021,3.807,-6.346,0.940,-0.810,-24.613,0.012,0.988,-0.090,0.031,-1.099,0.977,66.667,328616.000,1.000
12.177,12.028,39.179,3.748,-6.714,2.115,2.207,-24.441,0.011,0.987,-0.089,0.031,-1.038,0.977,66.667,328617.000,1.000
13.059,14.370,39.812,4.009,-6.551,4.058,6.144,-23.583,0.010,0.987,-0.088,-0.031,-0.946,1.129,66.667,328618.000,1.000
14.389,16.996,41.162,4.885,-5.475,6.372,10.293,-21.722,0.010,0.988,-0.087,-0.061,-1.068,1.221,66.667,328619.000,1.000
15.922,19.349,42.963,6.133,-3.859,7.979,13.273,-19.321,0.009,0.989,-0.090,-0.092,-1.007,1.251,66.667,328620.000,1.000
17.324,20.920,44.621,7.139,-2.502,7.888,13.732,-17.430,0.010,0.985,-0.090,-0.031,-0.977,1.343,66.667,328621.000,1.000
18.411,21.554,45.613,7.437,-2.003,5.893,11.434,-16.741,0.010,0.986,-0.088,-0.031,-1.007,1.404,66.667,328622.000,1.000
19.295,21.583,45.860,7.164,-2.271,2.776,7.266,-16.989,0.011,0.984,-0.087,-0.031,-1.007,1.434,66.667,328623.000,1.000
20.279,21.701,45.753,6.913,-2.642,-0.097,2.597,-17.345,0.009,0.985,-0.090,-0.031,-0.977,1.434,66.667,328624.000,1.000
21.452,22.463,45.668,7.096,-2.565,-1.632,-1.233,-17.310,0.011,0.984,-0.090,0.031,-0.977,1.465,66.667,328625.000,1.000
22.642,23.821,45.637,7.697,-1.909,-1.586,-3.386,-16.889,0.009,0.987,-0.089,0.031,-1.038,1.404,66.667,328626.000,1.000
23.448,25.099,45.207,8.245,-1.063,-0.679,-3.710,-16.290,0.010,0.986,-0.091,0.061,-1.099,1.373,66.667,328627.000,1.000
23.508,25.431,43.789,8.142,-0.591,-0.018,-2.661,-15.631,0.010,0.984,-0.093,0.031,-1.068,1.434,66.667,328628.000,1.000
22.825,24.396,41.295,7.194,-0.743,-0.137,-0.816,-14.834,0.011,0.983,-0.092,0.031,-1.007,1.434,66.667,328629.000,1.000
21.677,22.149,38.236,5.654,-1.527,-0.958,1.251,-13.925,0.011,0.983,-0.090,0.061,-1.038,1.343,66.667,328630.000,1.000
20.468,19.207,35.453,3.991,-2.832,-2.425,2.674,-13.230,0.014,0.984,-0.092,0.122,-0.977,1.373,66.667,328631.000,1.000
19.413,16.291,33.634,2.506,-4.520,-4.587,2.796,-13.206,0.013,0.985,-0.092,0.183,-1.007,1.251,66.667,328632.000,1.000
18.494,14.106,33.079,1.345,-6.237,-7.064,1.701,-13.986,0.012,0.985,-0.091,0.214,-1.007,1.312,66.667,328633.000,1.000
17.723,13.137,33.804,0.802,-7.326,-8.924,0.255,-15.017,0.013,0.983,-0.091,0.183,-0.916,1.282,66.667,328634.000,1.000
17.174,13.444,35.528,1.194,-7.256,-9.375,-0.344,-15.447,0.012,0.983,-0.090,0.183,-0.854,1.251,66.667,328635.000,1.000
16.973,14.725,37.808,2.599,-5.937,-8.336,0.550,-14.779,0.013,0.983,-0.088,0.244,-0.763,1.068,66.667,328636.000,1.000
17.026,16.492,40.092,4.610,-3.888,-6.475,2.547,-13.295,0.013,0.983,-0.090,0.244,-0.793,1.129,66.667,328637.000,1.000
16.924,18.084,41.797,6.462,-2.054,-4.868,4.261,-11.966,0.013,0.982,-0.089,0.305,-0.732,1.129,66.667,328638.000,1.000
16.324,18.923,42.562,7.516,-1.279,-4.427,4.252,-11.720,0.012,0.984,-0.090,0.397,-0.671,1.099,66.667,328639.000,1.000
15.376,18.918,42.467,7.636,-1.855,-5.435,2.179,-12.671,0.012,0.984,-0.091,0.397,-0.671,1.099,66.667,328640.000,1.000
14.766,18.494,42.063,7.304,-3.305,-7.375,-1.162,-14.044,0.012,0.985,-0.092,0.366,-0.641,1.038,66.667,328641.000,1.000
14.995,18.184,41.816,7.085,-4.887,-9.302,-4.416,-14.895,0.012,0.985,-0.093,0.366,-0.671,0.916,66.667,328642.000,1.000
15.958,18.256,41.764,7.206,-5.984,-10.353,-6.231,-14.638,0.011,0.988,-0.090,0.275,-0.610,1.068,66.667,328643.000,1.000
17.203,18.782,41.752,7.578,-6.125,-10.060,-5.545,-13.037,0.011,0.988,-0.088,0.336,-0.671,0.916,66.667,328644.000,1.000
18.252,19.744,41.687,7.983,-5.140,-8.566,-2.033,-10.202,0.010,0.987,-0.088,0.183,-0.641,1.007,66.667,328645.000,1.000
18.919,20.990,41.681,8.326,-3.243,-6.433,3.341,-6.669,0.010,0.988,-0.089,0.244,-0.610,0.946,66.667,328646.000,1.000
19.208,22.135,41.707,8.493,-1.182,-4.322,8.847,-3.431,0.011,0.988,-0.090,0.153,-0.580,0.946,66.667,328647.000,1.000
19.227,22.702,41.477,8.311,0.113,-2.767,12.777,-1.504,0.011,0.987,-0.089,0.153,-0.671,0.946,66.667,328648.000,1.000
19.168,22.475,40.713,7.697,0.096,-2.133,13.717,-1.424,0.008,0.987,-0.091,0.092,-0.641,0.946,66.667,328649.000,1.000
19.033,21.508,39.223,6.575,-1.350,-2.671,11.009,-3.264,0.007,0.989,-0.090,0.031,-0.763,0.916,66.667,328650.000,1.000
18.686,20.044,36.990,4.976,-3.753,-4.005,5.753,-6.360,0.005,0.990,-0.091,-0.031,-0.610,0.885,66.667,328651.000,1.000
17.955,18.508,34.177,3.093,-6.185,-4.884,0.895,-9.203,0.006,0.986,-0.092,-0.061,-0.641,0.885,66.667,328652.000,1.000
16.679,17.210,30.995,1.138,-7.917,-4.401,-1.208,-10.578,0.008,0.988,-0.094,-0.122,-0.671,0.854,66.667,328653.000,1.000
14.634,16.005,27.525,-0.929,-9.069,-3.377,-0.829,-10.869,0.006,0.987,-0.093,-0.153,-0.641,0.885,66.667,328654.000,1.000
11.571,14.402,23.715,-3.377,-10.435,-3.769,0.035,-11.572,0.007,0.987,-0.090,-0.214,-0.732,1.007,66.667,328655.000,1.000
7.766,12.178,19.837,-6.130,-12.481,-6.709,-0.455,-13.580,0.007,0.988,-0.088,-0.122,-0.763,1.038,66.667,328656.000,1.000
4.135,9.756,16.579,-8.579,-15.008,-11.636,-2.867,-16.567,0.008,0.984,-0.091,-0.275,-0.732,0.916,66.667,328657.000,1.000
1.796,7.905,14.758,-9.899,-17.337,-16.877,-6.351,-19.476,0.007,0.985,-0.093,-0.336,-0.763,1.099,66.667,328658.000,1.000
1.319,7.173,14.836,-9.608,-18.708,-20.615,-9.082,-21.234,0.006,0.987,-0.090,-0.366,-0.824,1.129,66.667,328659.000,1.000
2.157,7.448,16.394,-8.085,-18.887,-21.904,-9.500,-21.398,0.007,0.986,-0.088,-0.336,-0.824,1.190,66.667,328660.000,1.000
3.162,8.142,18.435,-6.250,-18.176,-21.110,-7.658,-20.224,0.006,0.988,-0.087,-0.275,-0.885,1.251,66.667,328661.000,1.000
3.478,8.827,20.134,-4.904,-17.030,-19.332,-4.821,-18.311,0.006,0.985,-0.091,-0.244,-0.946,1.251,66.667,328662.000,1.000
3.150,9.613,21.385,-4.195,-15.546,-17.229,-2.025,-16.025,0.006,0.985,-0.089,-0.336,-0.977,1.282,66.667,328663.000,1.000
2.986,10.994,22.689,-3.605,-13.484,-14.530,0.735,-13.219,0.007,0.986,-0.089,-0.397,-0.946,1.312,66.667,328664.000,1.000
3.718,13.238,24.476,-2.535,-10.905,-10.895,3.832,-9.764,0.007,0.986,-0.087,-0.366,-1.007,1.373,66.667,328665.000,1.000
5.452,16.013,26.727,-0.789,-8.348,-6.766,6.886,-6.149,0.007,0.986,-0.089,-0.397,-0.977,1.282,66.667,328666.000,1.000
7.582,18.606,28.964,1.249,-6.555,-3.066,9.088,-3.330,0.006,0.986,-0.090,-0.366,-1.038,1.434,66.667,328667.000,1.000
9.288,20.362,30.584,2.996,-5.911,-0.350,10.194,-1.894,0.007,0.988,-0.088,-0.397,-0.977,1.343,66.667,328668.000,1.000
9.966,20.912,31.071,3.979,-6.402,1.237,10.630,-1.705,0.010,0.986,-0.087,-0.458,-0.916,1.495,66.667,328669.000,1.000
9.169,20.030,29.894,3.682,-8.142,1.354,10.577,-2.487,0.010,0.986,-0.091,-0.427,-0.854,1.678,66.667,328670.000,1.000
6.814,17.684,26.811,1.808,-11.180,-0.309,9.452,-4.156,0.011,0.985,-0.088,-0.427,-0.977,1.587,66.667,328671.000,1.000
3.327,14.221,22.108,-1.440,-15.164,-3.550,6.620,-6.743,0.012,0.986,-0.090,-0.519,-0.854,1.465,66.667,328672.000,1.000
-0.383,10.200,16.547,-5.378,-19.438,-7.967,1.906,-10.300,0.013,0.986,-0.088,-0.488,-0.885,1.617,66.667,328673.000,1.000
-3.140,6.296,11.232,-9.053,-23.253,-13.184,-4.133,-14.606,0.012,0.986,-0.088,-0.580,-0.763,1.526,66.667,328674.000,1.000
-3.962,3.307,7.368,-11.537,-25.896,-18.505,-10.100,-18.840,0.012,0.986,-0.091,-0.519,-0.671,1.526,66.667,328675.000,1.000
-2.400,1.948,5.944,-12.168,-26.730,-22.905,-14.535,-21.775,0.011,0.985,-0.088,-0.580,-0.610,1.526,66.667,328676.000,1.000
1.068,2.396,7.165,-11.004,-25.668,-25.721,-16.689,-22.720,0.013,0.985,-0.089,-0.580,-0.488,1.526,66.667,328677.000,1.000
5.156,4.142,10.292,-8.834,-23.227,-26.856,-16.585,-22.002,0.012,0.984,-0.089,-0.641,-0.488,1.556,66.667,328678.000,1.000
8.432,6.380,14.094,-6.651,-20.103,-26.431,-14.678,-20.542,0.013,0.987,-0.089,-0.580,-0.519,1.648,66.667,328679.000,1.000
9.935,8.372,17.352,-5.201,-17.012,-24.781,-11.874,-19.365,0.013,0.985,-0.092,-0.702,-0.397,1.556,66.667,328680.000,1.000
9.632,9.618,19.377,-4.686,-14.541,-22.638,-9.546,-19.103,0.014,0.986,-0.088,-0.610,-0.397,1.648,66.667,328681.000,1.000
8.187,9.927,20.089,-4.915,-13.133,-21.103,-8.762,-19.648,0.013,0.986,-0.089,-0.519,-0.366,1.648,66.667,328682.000,1.000
6.576,9.500,19.979,-5.451,-12.799,-20.943,-9.637,-20.274,0.012,0.986,-0.090,-0.610,-0.183,1.526,66.667,328683.000,1.000
5.770,8.966,19.928,-5.696,-12.909,-21.777,-11.172,-20.190,0.013,0.987,-0.088,-0.610,-0.122,1.526,66.667,328684.000,1.000
6.253,8.968,20.588,-5.270,-12.714,-22.377,-11.882,-19.213,0.014,0.985,-0.088,-0.580,-0.031,1.495,66.667,328685.000,1.000
7.956,9.811,22.089,-4.125,-11.818,-21.585,-10.996,-17.864,0.013,0.984,-0.089,-0.519,0.000,1.434,66.667,328686.000,1.000
10.449,11.528,24.178,-2.466,-10.367,-18.950,-8.752,-16.894,0.012,0.986,-0.090,-0.519,0.000,1.434,66.667,328687.000,1.000
13.168,13.930,26.478,-0.588,-8.812,-14.988,-6.008,-16.634,0.011,0.986,-0.088,-0.458,0.000,1.373,66.667,328688.000,1.000
15.379,16.488,28.443,1.105,-7.694,-11.040,-3.785,-16.931,0.013,0.987,-0.088,-0.458,0.000,1.282,66.667,328689.000,1.000
16.181,18.332,29.251,2.005,-7.607,-8.644,-2.880,-17.678,0.013,0.985,-0.088,-0.366,0.061,1.312,66.667,328690.000,1.000
15.200,18.703,28.396,1.773,-8.767,-8.650,-3.375,-18.844,0.012,0.985,-0.085,-0.336,0.183,1.282,66.667,328691.000,1.000
12.866,17.453,26.104,0.598,-10.897,-10.877,-4.551,-20.257,0.010,0.987,-0.088,-0.336,0.244,1.190,66.667,328692.000,1.000
10.111,15.092,23.185,-0.961,-13.371,-14.298,-5.832,-21.578,0.010,0.987,-0.088,-0.214,0.214,1.251,66.667,328693.000,1.000
7.967,12.609,20.664,-2.228,-15.362,-17.374,-7.020,-22.254,0.010,0.985,-0.087,-0.244,0.122,1.160,66.667,328694.000,1.000
7.171,11.145,19.409,-2.649,-16.117,-18.615,-7.510,-21.639,0.010,0.987,-0.083,-0.336,0.092,1.312,66.667,328695.000,1.000
8.054,11.606,19.985,-1.794,-15.067,-17.099,-6.116,-19.297,0.012,0.987,-0.085,-0.244,0.122,1.373,66.667,328696.000,1.000
10.259,14.192,22.273,0.336,-12.283,-12.997,-1.976,-15.534,0.012,0.988,-0.088,-0.122,0.092,1.343,66.667,328697.000,1.000
12.748,18.033,25.278,3.046,-8.773,-7.860,3.987,-11.617,0.010,0.987,-0.088,-0.214,0.061,1.221,66.667,328698.000,1.000
14.465,21.674,27.736,5.364,-5.831,-3.763,9.471,-8.785,0.009,0.987,-0.089,-0.214,0.061,1.251,66.667,328699.000,1.000
15.047,24.145,29.047,6.876,-3.900,-1.694,12.926,-6.929,0.010,0.988,-0.087,-0.214,-0.092,1.251,66.667,328700.000,1.000
14.984,25.428,29.609,8.040,-2.323,-1.131,14.106,-4.985,0.009,0.989,-0.089,-0.183,-0.122,1.434,66.667,328701.000,1.000
14.794,25.866,29.954,9.227,-0.699,-1.490,12.926,-3.030,0.009,0.987,-0.084,-0.244,-0.183,1.465,66.667,328702.000,1.000
14.668,25.688,30.241,10.231,0.588,-2.805,9.316,-2.540,0.009,0.984,-0.086,-0.183,-0.214,1.526,66.667,328703.000,1.000
14.837,25.355,30.698,10.933,1.371,-4.551,4.660,-4.207,0.006,0.985,-0.087,-0.122,-0.214,1.404,66.667,328704.000,1.000
15.503,25.511,31.623,11.539,2.004,-5.407,1.389,-7.136,0.009,0.985,-0.088,-0.214,-0.366,1.465,66.667,328705.000,1.000
16.648,26.446,33.060,12.263,2.823,-4.612,0.660,-9.947,0.009,0.984,-0.087,-0.122,-0.488,1.465,66.667,328706.000,1.000
18.076,28.002,34.746,13.115,3.829,-2.685,2.053,-11.555,0.010,0.986,-0.087,-0.061,-0.549,1.526,66.667,328707.000,1.000
19.724,29.874,36.421,14.090,4.991,-0.570,4.692,-11.294,0.011,0.985,-0.089,-0.092,-0.580,1.556,66.667,328708.000,1.000
21.646,31.777,37.939,15.164,6.276,1.296,7.653,-9.368,0.012,0.987,-0.087,-0.061,-0.549,1.556,66.667,328709.000,1.000
23.617,33.326,39.025,15.997,7.296,2.805,9.983,-7.109,0.010,0.988,-0.088,0.061,-0.580,1.648,66.667,328710.000,1.000
25.285,34.142,39.417,16.174,7.583,3.830,11.054,-5.995,0.010,0.989,-0.086,0.000,-0.549,1.556,66.667,328711.000,1.000
26.491,34.199,39.109,15.618,6.985,4.365,11.003,-6.478,0.010,0.987,-0.086,-0.092,-0.519,1.678,66.667,328712.000,1.000
27.451,33.899,38.490,14.787,5.801,4.546,10.302,-7.886,0.009,0.987,-0.086,-0.061,-0.702,1.648,66.667,328713.000,1.000
28.583,33.803,38.118,14.353,4.515,4.404,9.401,-9.193,0.010,0.984,-0.087,-0.214,-0.732,1.587,66.667,328714.000,1.000
30.072,34.266,38.249,14.598,3.472,3.899,9.006,-9.730,0.012,0.983,-0.088,-0.092,-0.854,1.617,66.667,328715.000,1.000
31.879,35.360,38.870,15.431,3.091,3.329,9.901,-9.150,0.013,0.985,-0.089,-0.061,-0.885,1.587,66.667,328716.000,1.000
33.721,36.899,39.785,16.545,3.720,3.147,12.127,-7.519,0.014,0.986,-0.087,0.000,-0.885,1.495,66.667,328717.000,1.000
35.188,38.502,40.731,17.626,5.360,3.534,14.621,-5.322,0.018,0.988,-0.086,0.122,-0.854,1.587,66.667,328718.000,1.000
35.998,39.844,41.495,18.517,7.630,4.424,16.339,-3.002,0.018,0.987,-0.088,0.122,-0.732,1.617,66.667,328719.000,1.000
35.894,40.589,41.691,18.948,9.568,5.333,16.733,-1.230,0.018,0.984,-0.088,0.031,-0.702,1.617,66.667,328720.000,1.000
34.714,40.335,40.831,18.510,9.988,5.421,14.972,-1.232,0.020,0.983,-0.088,-0.031,-0.610,1.617,66.667,328721.000,1.000
32.602,39.073,38.807,17.111,8.466,4.421,10.889,-3.553,0.021,0.980,-0.088,-0.031,-0.580,1.740,66.667,328722.000,1.000
30.173,37.507,36.296,15.388,6.010,3.150,6.123,-6.870,0.021,0.977,-0.091,0.092,-0.488,1.740,66.667,328723.000,1.000
28.166,36.571,34.324,14.240,4.150,2.450,2.708,-9.231,0.019,0.976,-0.093,0.336,-0.427,1.678,66.667,328724.000,1.000
26.944,36.681,33.428,14.061,3.559,2.134,1.259,-9.943,0.021,0.978,-0.089,0.397,-0.214,1.556,66.667,328725.000,1.000
26.667,37.691,33.632,14.851,4.149,1.745,1.498,-9.372,0.020,0.981,-0.088,0.519,-0.244,1.648,66.667,328726.000,1.000
27.348,39.236,34.655,16.412,5.586,1.481,3.447,-8.014,0.018,0.984,-0.090,0.549,-0.092,1.556,66.667,328727.000,1.000
28.730,40.823,36.007,18.335,7.410,1.721,6.609,-6.456,0.016,0.987,-0.091,0.549,0.061,1.587,66.667,328728.000,1.000
30.327,41.986,37.168,20.096,9.152,2.404,9.534,-5.369,0.017,0.990,-0.091,0.519,0.092,1.495,66.667,328729.000,1.000
31.616,42.591,37.845,21.307,10.629,3.240,11.296,-4.905,0.018,0.991,-0.088,0.488,0.031,1.434,66.667,328730.000,1.000
32.430,42.949,38.213,22.011,12.136,4.106,12.308,-4.398,0.017,0.989,-0.089,0.427,0.061,1.465,66.667,328731.000,1.000
32.806,43.515,38.575,22.399,13.886,4.954,13.478,-3.264,0.017,0.989,-0.084,0.366,0.000,1.343,66.667,328732.000,1.000
32.773,44.469,39.027,22.511,15.702,5.786,15.062,-1.814,0.016,0.991,-0.087,0.244,0.153,1.251,66.667,328733.000,1.000
32.395,45.709,39.458,22.317,17.215,6.745,16.614,-0.868,0.012,0.991,-0.086,0.122,0.031,1.129,66.667,328734.000,1.000
31.704,46.874,39.520,21.741,17.893,7.816,17.458,-1.060,0.008,0.993,-0.085,0.000,-0.061,0.946,66.667,328735.000,1.000
30.776,47.395,38.819,20.788,17.267,8.617,17.010,-2.452,0.005,0.993,-0.084,-0.153,-0.244,0.732,66.667,328736.000,1.000
29.690,46.696,37.125,19.558,15.163,8.404,15.374,-4.506,0.003,0.994,-0.084,-0.244,-0.366,0.519,66.667,328737.000,1.000
28.592,44.543,34.617,18.328,12.039,6.571,13.518,-6.202,0.004,0.993,-0.085,-0.336,-0.519,0.275,66.667,328738.000,1.000
27.782,41.459,31.985,17.544,9.058,3.597,12.809,-6.506,0.005,0.992,-0.087,-0.458,-0.916,0.153,66.667,328739.000,1.000
27.507,38.596,30.029,17.437,7.408,1.089,13.986,-5.327,0.006,0.991,-0.086,-0.641,-0.916,0.183,66.667,328740.000,1.000
27.867,37.052,29.261,17.904,7.644,0.632,16.539,-3.661,0.009,0.990,-0.086,-0.671,-1.038,0.153,66.667,328741.000,1.000
28.640,37.195,29.570,18.571,9.325,2.536,19.453,-2.676,0.006,0.990,-0.087,-0.671,-1.160,0.183,66.667,328742.000,1.000
29.348,38.474,30.320,19.067,11.284,5.660,21.685,-2.883,0.006,0.990,-0.086,-0.580,-1.343,0.275,66.667,328743.000,1.000
29.508,39.881,30.809,19.259,12.322,8.281,22.132,-4.111,0.008,0.988,-0.085,-0.610,-1.434,0.366,66.667,328744.000,1.000
28.830,40.579,30.612,19.238,11.845,9.141,20.222,-5.801,0.008,0.985,-0.083,-0.549,-1.617,0.427,66.667,328745.000,1.000
27.464,40.294,29.781,19.284,10.267,8.102,16.564,-7.102,0.007,0.985,-0.086,-0.519,-1.678,0.427,66.667,328746.000,1.000
25.742,39.216,28.548,19.476,8.462,5.934,12.638,-7.382,0.005,0.985,-0.083,-0.366,-1.709,0.702,66.667,328747.000,1.000
23.960,37.632,27.114,19.555,7.058,3.549,9.540,-6.846,0.007,0.984,-0.081,-0.488,-1.923,0.824,66.667,328748.000,1.000
22.527,35.896,25.799,19.309,6.318,1.530,7.547,-6.240,0.007,0.984,-0.084,-0.397,-1.923,0.885,66.667,328749.000,1.000
21.899,34.426,24.999,18.817,6.263,0.152,6.742,-5.982,0.007,0.983,-0.083,-0.397,-1.984,1.099,66.667,328750.000,1.000
22.336,33.601,25.033,18.425,6.941,-0.201,7.488,-5.660,0.008,0.984,-0.083,-0.397,-2.045,1.282,66.667,328751.000,1.000
23.552,33.624,25.813,18.290,8.241,0.907,10.068,-4.674,0.009,0.985,-0.085,-0.427,-2.045,1.312,66.667,328752.000,1.000
24.901,34.355,26.850,18.185,9.707,3.252,13.638,-3.137,0.009,0.985,-0.082,-0.366,-2.167,1.404,66.667,328753.000,1.000
25.910,35.426,27.666,17.791,10.754,5.758,16.570,-1.721,0.010,0.985,-0.081,-0.244,-2.106,1.373,66.667,328754.000,1.000
26.459,36.501,28.089,17.021,10.974,7.279,17.818,-0.917,0.010,0.986,-0.083,-0.214,-2.167,1.404,66.667,328755.000,1.000
26.832,37.492,28.372,16.217,10.495,7.539,17.297,-0.632,0.011,0.985,-0.085,-0.153,-2.258,1.495,66.667,328756.000,1.000
27.391,38.532,28.834,15.844,9.839,7.204,15.808,-0.337,0.014,0.985,-0.081,-0.244,-2.136,1.648,66.667,328757.000,1.000
28.266,39.667,29.486,16.115,9.542,7.107,14.585,0.519,0.014,0.984,-0.079,-0.275,-2.075,1.526,66.667,328758.000,1.000
29.181,40.579,29.909,16.768,9.716,7.416,14.495,1.952,0.017,0.981,-0.083,-0.214,-2.014,1.465,66.667,328759.000,1.000
29.511,40.658,29.381,17.084,9.866,7.556,15.524,3.228,0.017,0.981,-0.083,-0.214,-1.862,1.465,66.667,328760.000,1.000
28.976,39.660,27.674,16.548,9.627,7.238,17.115,3.544,0.018,0.981,-0.082,0.031,-1.648,1.373,66.667,328761.000,1.000
27.994,38.254,25.527,15.347,9.313,7.313,19.165,2.743,0.018,0.979,-0.084,0.122,-1.465,1.312,66.667,328762.000,1.000
27.386,37.476,24.136,14.261,9.580,8.923,21.754,1.345,0.017,0.979,-0.085,0.305,-1.465,1.282,66.667,328763.000,1.000
27.742,37.717,24.143,14.028,10.540,11.716,24.070,0.025,0.018,0.978,-0.084,0.366,-1.343,1.160,66.667,328764.000,1.000
28.931,38.339,25.139,14.714,11.405,13.498,24.505,-0.934,0.017,0.979,-0.085,0.427,-1.251,1.129,66.667,328765.000,1.000
30.369,38.262,26.201,15.826,11.170,11.900,21.902,-1.662,0.017,0.978,-0.084,0.641,-1.068,1.160,66.667,328766.000,1.000
31.444,36.796,26.483,16.647,9.224,6.235,16.572,-2.553,0.019,0.979,-0.086,0.763,-0.885,1.221,66.667,328767.000,1.000
31.957,34.123,25.661,16.711,5.769,-1.677,9.975,-4.011,0.018,0.978,-0.087,0.854,-0.671,1.251,66.667,328768.000,1.000
32.318,31.276,24.084,16.115,1.888,-8.277,4.113,-6.030,0.020,0.979,-0.084,1.007,-0.580,1.099,66.667,328769.000,1.000
33.220,29.481,22.460,15.377,-1.059,-10.600,0.985,-8.000,0.019,0.981,-0.084,1.160,-0.427,1.129,66.667,328770.000,1.000
35.411,29.510,21.634,15.275,-1.950,-8.137,1.482,-8.861,0.019,0.981,-0.085,1.221,-0.244,1.190,66.667,328771.000,1.000
39.294,31.466,22.257,16.410,-0.433,-2.827,4.799,-7.934,0.017,0.983,-0.085,1.343,-0.031,1.251,66.667,328772.000,1.000
44.608,34.812,24.454,18.825,2.912,2.407,8.958,-5.663,0.017,0.984,-0.088,1.404,0.000,1.190,66.667,328773.000,1.000
50.543,38.752,27.847,22.048,7.055,5.577,12.278,-3.230,0.013,0.988,-0.085,1.373,0.061,1.160,66.667,328774.000,1.000
56.168,42.610,31.779,25.363,11.011,6.577,14.178,-1.706,0.014,0.991,-0.084,1.343,0.122,1.129,66.667,328775.000,1.000
60.969,45.945,35.588,28.146,14.059,6.475,14.474,-1.624,0.013,0.992,-0.087,1.251,0.183,1.190,66.667,328776.000,1.000
64.820,48.498,38.572,29.962,15.688,6.130,13.326,-2.791,0.010,0.995,-0.086,1.160,0.275,1.221,66.667,328777.000,1.000
67.854,50.187,40.231,30.769,16.007,6.005,11.963,-4.105,0.008,0.995,-0.084,0.946,0.305,1.190,66.667,328778.000,1.000
70.374,51.251,40.662,31.019,15.923,6.778,12.357,-4.129,0.006,0.994,-0.083,0.854,0.244,1.160,66.667,328779.000,1.000
72.598,52.196,40.477,31.382,16.489,9.027,15.789,-2.074,0.006,0.990,-0.086,0.732,0.153,1.068,66.667,328780.000,1.000
74.661,53.524,40.478,32.538,18.345,12.486,21.938,2.000,0.007,0.988,-0.084,0.671,0.000,1.190,66.667,328781.000,1.000
76.510,55.352,41.091,34.715,21.233,16.048,29.033,7.176,0.008,0.989,-0.085,0.580,-0.031,1.099,66.667,328782.000,1.000
78.036,57.358,42.199,37.509,24.176,18.655,34.473,11.926,0.010,0.988,-0.088,0.427,0.031,1.282,66.667,328783.000,1.000
79.418,59.253,43.557,40.288,26.319,19.983,36.395,15.127,0.011,0.990,-0.087,0.458,-0.031,1.282,66.667,328784.000,1.000
80.980,60.934,44.931,42.518,27.341,20.097,34.783,16.685,0.012,0.992,-0.089,0.519,-0.122,1.373,66.667,328785.000,1.000
82.745,62.122,45.936,43.809,27.235,18.914,30.728,16.991,0.010,0.993,-0.087,0.458,-0.153,1.495,66.667,328786.000,1.000
84.081,62.244,45.862,43.713,25.827,16.308,25.525,15.983,0.011,0.991,-0.083,0.366,-0.061,1.617,66.667,328787.000,1.000
84.292,61.026,44.317,42.118,23.188,12.841,20.564,13.403,0.011,0.990,-0.085,0.366,-0.153,1.526,66.667,328788.000,1.000
83.511,59.157,41.959,39.725,20.216,10.028,17.216,9.651,0.015,0.987,-0.087,0.366,-0.244,1.709,66.667,328789.000,1.000
82.627,57.955,40.098,37.654,18.172,9.347,15.918,5.660,0.018,0.986,-0.087,0.427,-0.336,1.831,66.667,328790.000,1.000
82.592,58.463,39.812,36.825,18.020,11.318,15.994,2.494,0.016,0.985,-0.088,0.488,-0.275,1.892,66.667,328791.000,1.000
83.606,60.837,41.277,37.476,19.917,15.447,17.037,1.100,0.012,0.986,-0.087,0.549,-0.214,1.923,66.667,328792.000,1.000
85.176,64.334,43.851,39.227,23.187,20.423,19.369,1.997,0.010,0.986,-0.085,0.641,-0.336,1.770,66.667,328793.000,1.000
86.868,67.914,46.743,41.528,26.737,24.427,23.135,5.031,0.007,0.985,-0.086,0.610,-0.397,1.678,66.667,328794.000,1.000
88.657,70.838,49.477,43.948,29.543,25.912,27.499,9.304,0.004,0.983,-0.089,0.763,-0.427,1.465,66.667,328795.000,1.000
90.852,72.850,52.063,46.347,31.197,24.629,30.800,13.589,0.004,0.982,-0.087,0.946,-0.519,1.343,66.667,328796.000,1.000
93.571,73.968,54.500,48.578,31.773,21.825,31.742,16.725,0.005,0.979,-0.087,1.007,-0.763,1.282,66.667,328797.000,1.000
96.330,74.125,56.307,50.208,31.474,19.294,30.116,17.882,0.006,0.979,-0.086,1.221,-0.946,1.190,66.667,328798.000,1.000
98.109,73.087,56.651,50.612,30.433,17.929,26.563,16.771,0.008,0.980,-0.087,1.373,-1.068,0.977,66.667,328799.000,1.000
97.938,70.708,54.929,49.377,28.710,17.163,22.037,13.671,0.010,0.981,-0.086,1.434,-1.068,0.916,66.667,328800.000,1.000
95.858,67.441,51.525,46.906,26.741,16.030,17.567,9.566,0.011,0.982,-0.088,1.556,-1.099,0.763,66.667,328801.000,1.000
92.996,64.440,47.803,44.319,25.302,14.185,14.222,5.982,0.010,0.984,-0.087,1.617,-1.129,0.854,66.667,328802.000,1.000
90.918,62.920,45.412,42.828,25.046,11.917,12.496,4.227,0.012,0.984,-0.087,1.770,-1.251,0.916,66.667,328803.000,1.000
90.447,63.094,45.043,42.792,25.717,9.461,11.855,4.309,0.013,0.983,-0.086,1.953,-1.343,0.916,66.667,328804.000,1.000
90.743,63.653,45.589,43.127,25.802,6.594,11.057,4.598,0.013,0.984,-0.087,2.075,-1.312,1.007,66.667,328805.000,1.000
90.499,63.142,45.523,42.532,24.027,3.569,9.127,3.415,0.014,0.985,-0.087,2.167,-1.251,1.068,66.667,328806.000,1.000
89.660,61.738,44.752,41.016,20.865,1.724,6.472,0.813,0.013,0.988,-0.088,2.258,-1.282,1.190,66.667,328807.000,1.000
89.379,60.961,44.496,39.786,18.200,2.618,5.006,-1.378,0.011,0.988,-0.084,2.289,-1.251,1.221,66.667,328808.000,1.000
90.397,61.937,45.579,39.814,17.650,6.968,7.335,-1.032,0.009,0.987,-0.082,2.289,-1.343,1.343,66.667,328809.000,1.000
92.019,64.247,47.323,40.831,19.147,13.632,14.401,2.389,0.010,0.988,-0.079,2.289,-1.373,1.465,66.667,328810.000,1.000
93.010,66.420,48.358,41.848,21.141,19.400,22.886,7.062,0.009,0.986,-0.081,2.258,-1.465,1.648,66.667,328811.000,1.000
92.539,67.065,47.671,41.870,21.597,20.631,26.653,9.768,0.008,0.984,-0.083,2.258,-1.526,1.770,66.667,328812.000,1.000
90.446,65.545,45.050,40.357,19.294,15.866,21.737,8.247,0.007,0.981,-0.085,2.350,-1.465,1.862,66.667,328813.000,1.000
87.488,62.452,41.360,37.708,14.810,7.179,9.669,3.007,0.008,0.981,-0.085,2.563,-1.709,1.740,66.667,328814.000,1.000
85.018,59.328,38.169,35.044,10.110,-1.116,-3.931,-3.359,0.008,0.979,-0.086,2.716,-1.770,1.617,66.667,328815.000,1.000
83.954,57.444,36.645,33.296,7.143,-5.356,-13.154,-8.097,0.013,0.980,-0.087,2.899,-1.831,1.526,66.667,328816.000,1.000
84.031,56.938,36.689,32.550,6.614,-4.698,-14.517,-9.583,0.017,0.983,-0.086,2.960,-1.740,1.404,66.667,328817.000,1.000
84.477,57.230,37.498,32.574,8.205,-0.946,-8.189,-7.459,0.019,0.983,-0.086,3.021,-1.556,1.465,66.667,328818.000,1.000
84.865,57.875,38.503,33.370,11.195,3.241,2.400,-2.610,0.021,0.985,-0.090,3.052,-1.495,1.404,66.667,328819.000,1.000
84.968,58.712,39.408,34.767,14.491,5.972,12.455,2.691,0.021,0.985,-0.093,3.174,-1.404,1.434,66.667,328820.000,1.000
84.481,59.514,39.901,36.153,16.867,6.826,18.216,5.688,0.020,0.986,-0.091,3.265,-1.282,1.373,66.667,328821.000,1.000
82.900,59.743,39.427,36.589,17.300,6.330,18.650,4.681,0.018,0.987,-0.092,3.387,-1.343,1.312,66.667,328822.000,1.000
80.147,58.956,37.697,35.555,15.525,4.886,14.715,-0.133,0.017,0.987,-0.090,3.387,-1.129,1.282,66.667,328823.000,1.000
77.364,57.527,35.501,33.703,12.419,2.298,7.823,-6.893,0.018,0.987,-0.090,3.479,-1.099,1.160,66.667,328824.000,1.000
76.349,56.465,34.318,32.444,9.506,-1.586,-0.073,-12.986,0.017,0.984,-0.091,3.448,-1.068,1.007,66.667,328825.000,1.000
78.102,56.476,35.098,32.775,8.102,-5.826,-5.995,-16.178,0.018,0.981,-0.092,3.510,-0.854,0.916,66.667,328826.000,1.000
81.826,57.351,37.360,34.338,8.441,-8.665,-7.142,-15.793,0.019,0.981,-0.092,3.601,-0.763,0.885,66.667,328827.000,1.000
85.506,58.199,39.623,35.756,9.661,-8.857,-3.208,-12.920,0.018,0.983,-0.096,3.723,-0.702,0.763,66.667,328828.000,1.000
87.363,58.269,40.622,35.835,10.609,-6.367,3.147,-9.377,0.018,0.982,-0.096,3.784,-0.763,0.732,66.667,328829.000,1.000
86.712,57.407,39.961,34.314,10.494,-2.212,8.147,-6.627,0.018,0.983,-0.091,3.937,-0.549,0.671,66.667,328830.000,1.000
84.017,55.959,38.062,31.866,9.285,2.182,9.432,-5.123,0.017,0.984,-0.092,3.967,-0.549,0.580,66.667,328831.000,1.000
80.378,54.547,35.729,29.613,7.666,5.747,7.826,-4.191,0.016,0.984,-0.091,3.998,-0.549,0.580,66.667,328832.000,1.000
77.058,53.757,33.795,28.616,6.635,8.165,6.011,-2.856,0.016,0.983,-0.095,4.089,-0.549,0.610,66.667,328833.000,1.000
74.913,53.707,32.647,29.210,6.620,9.537,5.508,-1.132,0.014,0.981,-0.094,4.120,-0.427,0.580,66.667,328834.000,1.000
73.876,53.795,31.834,30.571,6.907,9.737,5.785,-0.292,0.012,0.980,-0.098,4.181,-0.488,0.580,66.667,328835.000,1.000
73.156,52.965,30.405,31.215,6.169,8.031,5.359,-1.806,0.012,0.981,-0.095,4.181,-0.519,0.488,66.667,328836.000,1.000
71.923,50.429,27.626,29.945,3.279,3.182,2.755,-6.294,0.011,0.981,-0.093,4.303,-0.610,0.336,66.667,328837.000,1.000
70.185,46.395,23.790,26.788,-1.834,-5.468,-3.008,-13.077,0.009,0.980,-0.092,4.364,-0.671,0.366,66.667,328838.000,1.000
68.815,42.153,20.190,22.992,-7.925,-16.564,-11.253,-20.386,0.010,0.982,-0.095,4.333,-0.763,0.488,66.667,328839.000,1.000
68.781,39.446,18.236,20.171,-12.972,-26.550,-18.765,-25.934,0.008,0.984,-0.095,4.486,-0.854,0.427,66.667,328840.000,1.000
70.762,39.702,18.894,19.667,-14.907,-31.412,-21.439,-27.716,0.006,0.985,-0.093,4.608,-1.038,0.397,66.667,328841.000,1.000
74.659,43.129,22.113,21.682,-13.092,-29.816,-17.753,-25.668,0.005,0.983,-0.094,4.517,-1.068,0.366,66.667,328842.000,1.000
79.326,48.197,26.625,24.898,-9.054,-24.559,-10.522,-22.261,0.007,0.983,-0.094,4.547,-1.190,0.366,66.667,328843.000,1.000
83.052,52.415,30.557,27.264,-5.430,-20.410,-4.662,-20.669,0.007,0.985,-0.093,4.578,-1.373,0.610,66.667,328844.000,1.000
84.434,53.792,32.400,27.210,-4.205,-20.651,-3.554,-22.506,0.008,0.986,-0.093,4.639,-1.465,0.702,66.667,328845.000,1.000
83.195,51.998,31.930,24.664,-5.371,-25.039,-7.219,-26.886,0.006,0.987,-0.094,4.578,-1.465,0.854,66.667,328846.000,1.000
79.953,48.317,29.999,20.850,-7.332,-30.436,-12.901,-31.437,0.008,0.987,-0.096,4.425,-1.465,0.946,66.667,328847.000,1.000
75.533,44.532,27.568,17.304,-8.288,-33.065,-17.206,-34.048,0.007,0.986,-0.099,4.395,-1.587,0.854,66.667,328848.000,1.000
70.503,41.820,24.997,15.012,-7.311,-30.694,-17.576,-33.636,0.009,0.988,-0.096,4.395,-1.770,0.977,66.667,328849.000,1.000
65.068,40.343,22.006,14.078,-4.720,-23.869,-13.114,-30.158,0.008,0.990,-0.094,4.364,-1.862,0.885,66.667,328850.000,1.000
59.687,39.781,18.542,14.248,-1.450,-15.223,-5.281,-24.365,0.009,0.990,-0.094,4.242,-1.831,0.977,66.667,328851.000,1.000
55.153,39.818,15.120,15.256,1.554,-7.459,3.034,-17.514,0.010,0.989,-0.097,4.059,-1.953,1.099,66.667,328852.000,1.000
51.845,39.809,12.142,16.590,3.446,-2.015,9.109,-11.099,0.012,0.988,-0.099,3.784,-1.862,1.068,66.667,328853.000,1.000
49.184,38.724,9.325,17.308,3.402,0.637,11.054,-6.756,0.013,0.984,-0.098,3.876,-1.953,1.099,66.667,328854.000,1.000
46.252,35.982,6.183,16.588,0.967,0.314,8.162,-5.701,0.015,0.983,-0.099,3.784,-1.953,1.068,66.667,328855.000,1.000
43.075,32.295,3.066,14.737,-3.165,-2.590,1.456,-7.612,0.013,0.981,-0.102,3.845,-1.892,1.038,66.667,328856.000,1.000
40.536,29.136,0.912,12.890,-7.554,-6.999,-6.435,-10.796,0.014,0.979,-0.102,4.028,-1.892,1.038,66.667,328857.000,1.000
39.353,27.426,0.280,11.892,-11.005,-11.690,-12.564,-13.534,0.013,0.980,-0.099,4.028,-1.923,1.038,66.667,328858.000,1.000
39.583,27.149,1.071,11.795,-12.989,-15.569,-14.949,-15.035,0.013,0.983,-0.101,4.120,-1.862,1.038,66.667,328859.000,1.000
40.708,27.673,2.695,12.000,-13.792,-18.122,-13.594,-15.765,0.015,0.985,-0.100,4.089,-1.770,0.946,66.667,328860.000,1.000
42.027,28.076,4.360,11.727,-14.356,-20.031,-10.656,-17.130,0.013,0.985,-0.100,4.059,-1.770,0.885,66.667,328861.000,1.000
42.980,27.566,5.364,10.411,-15.862,-22.807,-8.853,-20.828,0.013,0.987,-0.098,4.089,-1.740,0.854,66.667,328862.000,1.000
43.544,25.949,5.576,8.203,-18.934,-27.430,-10.035,-28.010,0.013,0.986,-0.097,4.028,-1.648,0.854,66.667,328863.000,1.000
44.142,23.641,5.459,6.004,-23.275,-33.773,-14.879,-38.329,0.014,0.988,-0.098,3.876,-1.556,0.824,66.667,328864.000,1.000
45.126,21.300,5.542,4.851,-27.957,-40.876,-22.584,-49.561,0.014,0.986,-0.099,3.754,-1.465,0.702,66.667,328865.000,1.000
46.582,19.514,6.085,5.326,-31.786,-47.064,-30.869,-58.539,0.013,0.987,-0.100,3.784,-1.465,0.610,66.667,328866.000,1.000
47.864,18.347,6.586,6.816,-34.235,-50.799,-37.172,-63.244,0.014,0.985,-0.101,3.723,-1.434,0.702,66.667,328867.000,1.000
47.656,17.184,5.888,7.713,-35.736,-51.797,-40.145,-63.781,0.014,0.985,-0.103,3.723,-1.404,0.641,66.667,328868.000,1.000
45.115,15.543,3.331,6.820,-36.790,-50.718,-39.547,-61.434,0.015,0.984,-0.102,3.662,-1.282,0.610,66.667,328869.000,1.000
40.769,13.838,-0.409,4.372,-37.223,-48.112,-35.650,-57.595,0.014,0.983,-0.103,3.601,-1.221,0.549,66.667,328870.000,1.000
36.286,13.147,-3.645,1.824,-36.283,-44.196,-29.581,-53.280,0.012,0.983,-0.105,3.632,-1.190,0.580,66.667,328871.000,1.000
33.005,14.137,-5.104,0.442,-33.726,-39.622,-23.489,-49.204,0.013,0.983,-0.105,3.601,-1.221,0.702,66.667,328872.000,1.000
31.011,16.322,-4.869,0.285,-30.389,-35.655,-19.748,-45.962,0.013,0.984,-0.104,3.571,-1.221,0.854,66.667,328873.000,1.000
29.584,18.551,-3.921,0.531,-27.435,-33.053,-19.067,-43.667,0.014,0.985,-0.104,3.571,-1.129,0.885,66.667,328874.000,1.000
27.927,19.733,-3.356,0.339,-25.470,-31.259,-19.551,-41.594,0.015,0.984,-0.103,3.571,-1.129,0.885,66.667,328875.000,1.000
25.642,19.178,-3.847,-0.486,-24.287,-29.015,-18.376,-38.583,0.012,0.986,-0.106,3.662,-1.038,0.824,66.667,328876.000,1.000
22.899,17.045,-5.380,-1.432,-23.290,-25.445,-14.123,-34.207,0.011,0.985,-0.107,3.540,-0.916,0.854,66.667,328877.000,1.000
20.491,14.504,-7.182,-1.581,-21.903,-20.536,-8.035,-29.460,0.012,0.986,-0.104,3.510,-1.007,0.885,66.667,328878.000,1.000
19.298,12.919,-8.265,-0.326,-20.032,-15.305,-3.083,-26.212,0.011,0.986,-0.105,3.540,-0.916,1.007,66.667,328879.000,1.000
19.508,12.783,-8.229,2.058,-18.328,-11.649,-1.689,-25.964,0.013,0.985,-0.104,3.540,-0.854,1.129,66.667,328880.000,1.000
20.595,13.509,-7.390,4.646,-17.756,-11.405,-4.579,-29.007,0.010,0.985,-0.106,3.357,-0.916,1.099,66.667,328881.000,1.000
21.674,13.928,-6.564,6.273,-19.187,-15.277,-10.862,-34.691,0.009,0.988,-0.106,3.387,-0.885,1.129,66.667,328882.000,1.000
22.284,13.237,-6.341,6.289,-22.668,-22.072,-18.364,-41.816,0.010,0.986,-0.106,3.357,-0.916,1.190,66.667,328883.000,1.000
22.698,11.640,-6.630,4.987,-27.155,-29.283,-24.466,-48.890,0.011,0.984,-0.107,3.418,-0.854,1.099,66.667,328884.000,1.000
23.133,9.706,-7.251,2.924,-31.637,-35.426,-28.173,-55.076,0.010,0.982,-0.105,3.479,-0.916,1.007,66.667,328885.000,1.000
23.609,7.849,-8.019,0.560,-35.624,-40.975,-30.923,-60.483,0.010,0.981,-0.105,3.540,-0.885,1.038,66.667,328886.000,1.000
24.549,6.870,-8.119,-1.327,-38.443,-46.471,-34.088,-64.996,0.011,0.981,-0.106,3.540,-0.916,1.007,66.667,328887.000,1.000
26.727,7.829,-6.331,-1.684,-39.064,-51.318,-37.382,-67.702,0.010,0.982,-0.108,3.571,-0.885,0.916,66.667,328888.000,1.000
30.266,10.817,-2.344,-0.210,-37.238,-54.969,-40.077,-68.076,0.010,0.983,-0.108,3.540,-0.885,1.007,66.667,328889.000,1.000
34.139,14.429,2.603,2.029,-34.158,-57.834,-42.285,-67.157,0.009,0.984,-0.107,3.693,-1.038,0.854,66.667,328890.000,1.000
36.928,16.735,6.631,3.445,-31.488,-60.426,-44.818,-66.859,0.009,0.985,-0.111,3.723,-1.007,0.854,66.667,328891.000,1.000
37.667,16.673,8.393,3.088,-30.152,-62.391,-47.678,-67.983,0.008,0.988,-0.109,3.693,-1.129,1.038,66.667,328892.000,1.000
36.363,14.718,7.807,1.330,-29.653,-62.402,-49.040,-68.871,0.010,0.986,-0.107,3.632,-1.160,1.038,66.667,328893.000,1.000
33.832,12.441,5.838,-0.538,-28.596,-58.855,-46.171,-66.570,0.011,0.986,-0.105,3.571,-1.251,0.946,66.667,328894.000,1.000
30.807,11.218,3.403,-1.587,-26.232,-51.169,-37.973,-59.862,0.012,0.985,-0.108,3.510,-1.251,0.946,66.667,328895.000,1.000
27.502,11.302,0.742,-1.915,-23.244,-40.608,-26.817,-50.753,0.015,0.983,-0.108,3.510,-1.160,0.977,66.667,328896.000,1.000
23.872,12.033,-2.327,-2.250,-21.156,-29.918,-17.050,-42.643,0.015,0.982,-0.104,3.601,-1.068,0.977,66.667,328897.000,1.000
20.269,12.685,-5.651,-2.917,-20.909,-21.903,-11.758,-37.305,0.014,0.981,-0.110,3.601,-1.007,0.977,66.667,328898.000,1.000
17.425,13.022,-8.630,-3.606,-22.335,-17.888,-11.215,-34.371,0.014,0.979,-0.112,3.571,-0.977,0.946,66.667,328899.000,1.000
15.613,13.094,-10.910,-4.142,-24.902,-17.231,-13.880,-33.188,0.013,0.980,-0.109,3.418,-0.916,0.977,66.667,328900.000,1.000
14.331,12.755,-12.720,-4.788,-28.174,-18.207,-17.931,-33.590,0.015,0.979,-0.111,3.448,-0.854,1.068,66.667,328901.000,1.000
12.654,11.493,-14.708,-5.994,-31.897,-19.573,-21.771,-35.280,0.014,0.978,-0.113,3.601,-0.854,1.160,66.667,328902.000,1.000
9.937,8.701,-17.485,-8.007,-35.837,-21.460,-24.482,-37.627,0.013,0.979,-0.110,3.601,-0.824,1.129,66.667,328903.000,1.000
6.323,4.397,-21.016,-10.531,-39.429,-24.577,-25.961,-39.864,0.011,0.980,-0.112,3.723,-0.824,1.099,66.667,328904.000,1.000
3.011,-0.007,-24.062,-12.366,-41.357,-28.459,-26.244,-40.882,0.011,0.983,-0.112,3.662,-0.824,1.038,66.667,328905.000,1.000
1.814,-2.198,-24.617,-11.789,-39.940,-31.247,-25.264,-39.464,0.011,0.986,-0.111,3.510,-0.824,1.129,66.667,328906.000,1.000
3.302,-1.069,-21.999,-8.376,-35.062,-31.924,-23.461,-35.763,0.010,0.986,-0.113,3.448,-0.854,1.099,66.667,328907.000,1.000
6.176,2.269,-17.710,-3.700,-28.821,-31.485,-22.137,-31.852,0.010,0.982,-0.114,3.326,-0.824,1.129,66.667,328908.000,1.000
8.853,5.964,-13.827,0.246,-23.701,-31.375,-22.297,-30.039,0.011,0.980,-0.115,3.265,-0.916,1.099,66.667,328909.000,1.000
10.640,8.813,-11.548,2.375,-20.962,-32.042,-23.485,-31.094,0.011,0.981,-0.116,3.326,-0.946,1.129,66.667,328910.000,1.000
11.693,10.443,-10.898,2.647,-20.300,-32.902,-24.180,-34.016,0.011,0.980,-0.117,3.357,-0.946,1.160,66.667,328911.000,1.000
12.610,11.327,-10.964,1.727,-20.426,-32.858,-23.010,-37.156,0.011,0.980,-0.117,3.326,-0.946,1.160,66.667,328912.000,1.000
14.006,12.386,-10.454,0.541,-20.015,-31.177,-20.156,-39.613,0.010,0.982,-0.120,3.357,-0.977,1.221,66.667,328913.000,1.000
15.880,14.027,-8.664,-0.412,-18.681,-28.463,-17.322,-41.684,0.012,0.984,-0.120,3.235,-0.977,1.312,66.667,328914.000,1.000
17.661,15.955,-5.814,-1.070,-16.931,-26.252,-15.797,-43.797,0.014,0.989,-0.117,3.204,-0.916,1.343,66.667,328915.000,1.000
19.217,18.043,-2.219,-0.943,-14.966,-25.329,-15.078,-45.133,0.014,0.991,-0.115,3.021,-0.885,1.312,66.667,328916.000,1.000
20.652,20.281,1.658,0.496,-12.806,-25.446,-14.071,-44.544,0.011,0.992,-0.115,2.930,-0.824,1.404,66.667,328917.000,1.000
21.344,21.824,4.510,2.673,-11.199,-26.307,-13.135,-42.493,0.010,0.992,-0.115,2.686,-0.854,1.312,66.667,328918.000,1.000
20.264,21.455,4.775,4.238,-11.112,-27.526,-13.278,-40.543,0.008,0.987,-0.116,2.502,-0.793,1.190,66.667,328919.000,1.000
16.930,18.739,1.782,4.181,-12.770,-28.438,-14.458,-39.616,0.007,0.985,-0.120,2.380,-0.854,1.160,66.667,328920.000,1.000
11.583,14.006,-4.114,2.127,-15.784,-28.784,-16.055,-39.769,0.006,0.984,-0.121,2.258,-0.885,1.007,66.667,328921.000,1.000
4.726,7.979,-12.009,-1.902,-19.690,-28.792,-17.284,-40.812,0.008,0.984,-0.118,2.258,-1.038,1.099,66.667,328922.000,1.000
-2.596,2.123,-20.210,-6.979,-23.460,-28.074,-16.748,-41.947,0.007,0.985,-0.118,2.197,-1.068,0.916,66.667,328923.000,1.000
-8.723,-1.456,-26.346,-11.168,-25.403,-25.464,-13.122,-41.568,0.009,0.982,-0.119,2.075,-1.099,0.946,66.667,328924.000,1.000
-12.692,-1.612,-29.017,-13.029,-24.674,-20.648,-7.167,-38.818,0.010,0.983,-0.120,2.014,-1.129,0.946,66.667,328925.000,1.000
-15.228,0.562,-29.004,-12.875,-22.230,-15.163,-1.937,-34.874,0.012,0.981,-0.119,1.923,-1.007,0.977,66.667,328926.000,1.000
-18.033,2.628,-28.458,-12.242,-19.928,-11.373,0.134,-31.780,0.012,0.977,-0.117,1.923,-1.007,1.099,66.667,328927.000,1.000
-21.970,2.849,-28.861,-12.213,-18.770,-10.665,-0.944,-30.345,0.014,0.973,-0.118,1.862,-1.007,1.190,66.667,328928.000,1.000
-26.510,1.052,-30.313,-12.905,-18.666,-12.730,-3.913,-30.077,0.013,0.969,-0.120,1.892,-1.038,1.099,66.667,328929.000,1.000
-30.890,-2.115,-32.495,-14.292,-19.545,-16.323,-7.856,-30.644,0.013,0.968,-0.123,1.984,-0.916,1.282,66.667,328930.000,1.000
-34.886,-5.935,-35.205,-16.524,-21.571,-20.058,-12.352,-32.263,0.013,0.971,-0.124,2.075,-0.885,1.282,66.667,328931.000,1.000
-38.875,-9.826,-38.372,-19.765,-24.782,-22.893,-16.793,-35.113,0.014,0.974,-0.123,2.258,-0.854,1.404,66.667,328932.000,1.000
-43.280,-13.356,-41.851,-23.874,-28.735,-24.416,-20.252,-38.736,0.010,0.980,-0.124,2.350,-0.854,1.373,66.667,328933.000,1.000
-47.883,-16.052,-45.144,-28.223,-32.491,-24.775,-21.630,-41.992,0.010,0.987,-0.123,2.380,-0.793,1.373,66.667,328934.000,1.000
-51.883,-17.550,-47.629,-32.071,-35.289,-24.646,-20.386,-43.990,0.012,0.989,-0.125,2.197,-0.885,1.465,66.667,328935.000,1.000
-54.443,-18.037,-49.009,-35.072,-37.171,-25.189,-17.733,-45.195,0.013,0.987,-0.123,1.984,-0.793,1.495,66.667,328936.000,1.000
-55.267,-18.139,-49.442,-37.411,-38.886,-27.387,-16.099,-47.286,0.011,0.982,-0.127,1.770,-0.732,1.648,66.667,328937.000,1.000
-54.400,-18.203,-48.915,-39.085,-40.804,-31.221,-17.172,-51.433,0.010,0.977,-0.127,1.617,-0.702,1.587,66.667,328938.000,1.000
-52.066,-18.109,-47.120,-39.594,-42.536,-36.155,-20.925,-57.161,0.010,0.974,-0.126,1.862,-0.671,1.587,66.667,328939.000,1.000
-49.061,-17.873,-44.253,-38.676,-43.749,-42.008,-26.109,-63.011,0.008,0.976,-0.126,2.136,-0.732,1.404,66.667,328940.000,1.000
-46.432,-17.636,-41.061,-36.544,-44.268,-48.211,-30.780,-67.278,0.007,0.982,-0.125,2.319,-0.732,1.251,66.667,328941.000,1.000
-44.866,-17.232,-38.287,-33.654,-43.906,-52.957,-32.821,-68.598,0.006,0.991,-0.120,2.472,-0.854,0.946,66.667,328942.000,1.000
-44.651,-16.534,-36.527,-30.697,-42.803,-54.197,-31.532,-66.978,0.005,0.997,-0.115,2.167,-0.946,0.885,66.667,328943.000,1.000
-46.111,-16.037,-36.458,-28.718,-41.704,-51.489,-28.272,-64.102,0.005,0.999,-0.115,1.709,-0.977,0.977,66.667,328944.000,1.000
-49.504,-16.456,-38.497,-28.546,-41.223,-46.463,-24.872,-61.741,0.006,0.997,-0.120,1.251,-1.038,0.946,66.667,328945.000,1.000
-54.176,-17.680,-41.936,-29.825,-40.727,-41.341,-22.101,-59.952,0.007,0.991,-0.121,1.038,-1.190,0.977,66.667,328946.000,1.000
-58.743,-18.719,-45.298,-31.358,-38.917,-37.445,-19.824,-57.626,0.006,0.989,-0.119,0.946,-1.343,1.007,66.667,328947.000,1.000
-62.158,-18.748,-47.536,-32.239,-35.131,-34.760,-17.912,-54.143,0.008,0.991,-0.118,0.885,-1.556,1.038,66.667,328948.000,1.000
-64.348,-17.679,-48.579,-32.354,-29.776,-32.151,-16.115,-49.875,0.009,0.992,-0.117,0.732,-1.526,1.007,66.667,328949.000,1.000
-65.902,-15.897,-48.982,-32.049,-23.942,-28.254,-13.867,-45.589,0.009,0.994,-0.115,0.488,-1.556,1.007,66.667,328950.000,1.000
-67.259,-13.867,-49.254,-31.575,-18.752,-22.609,-10.933,-41.693,0.010,0.990,-0.115,0.214,-1.587,1.129,66.667,328951.000,1.000
-68.590,-12.060,-49.706,-31.144,-15.113,-15.976,-7.276,-38.134,0.009,0.987,-0.117,0.031,-1.648,1.221,66.667,328952.000,1.000
-69.851,-10.742,-50.326,-30.934,-13.358,-9.518,-2.805,-34.659,0.010,0.985,-0.118,-0.031,-1.678,1.251,66.667,328953.000,1.000
-70.844,-9.846,-50.794,-31.038,-13.303,-4.327,1.626,-31.471,0.010,0.981,-0.117,0.061,-1.709,1.251,66.667,328954.000,1.000
-71.643,-9.425,-51.034,-31.743,-14.813,-1.585,3.945,-29.743,0.011,0.978,-0.116,-0.031,-1.678,1.221,66.667,328955.000,1.000
-72.494,-9.716,-51.199,-33.280,-17.504,-1.879,2.937,-30.607,0.012,0.974,-0.117,0.031,-1.678,1.282,66.667,328956.000,1.000
-73.555,-10.734,-51.442,-35.471,-20.563,-4.662,-0.305,-34.125,0.012,0.973,-0.118,0.122,-1.801,1.129,66.667,328957.000,1.000
-74.889,-12.305,-51.922,-37.852,-23.254,-8.854,-4.045,-39.706,0.013,0.974,-0.117,0.305,-1.709,1.221,66.667,328958.000,1.000
-76.548,-14.267,-52.820,-40.032,-25.338,-13.514,-7.449,-46.671,0.012,0.973,-0.114,0.366,-1.617,1.190,66.667,328959.000,1.000
-78.373,-16.357,-54.076,-41.749,-26.852,-17.933,-10.228,-54.048,0.011,0.969,-0.115,0.305,-1.617,1.190,66.667,328960.000,1.000
-79.506,-17.994,-54.965,-42.519,-27.536,-21.653,-12.307,-60.466,0.011,0.970,-0.115,0.427,-1.617,1.190,66.667,328961.000,1.000
-78.977,-18.718,-54.668,-41.979,-27.257,-25.209,-14.238,-65.243,0.010,0.971,-0.116,0.702,-1.465,1.160,66.667,328962.000,1.000
-76.667,-18.885,-53.140,-40.444,-26.495,-30.342,-17.244,-69.094,0.011,0.974,-0.117,0.854,-1.526,1.099,66.667,328963.000,1.000
-73.231,-19.266,-50.940,-38.561,-25.715,-38.178,-21.674,-72.916,0.011,0.975,-0.117,1.068,-1.556,1.038,66.667,328964.000,1.000
-69.331,-20.053,-48.436,-36.558,-24.647,-47.377,-25.989,-76.415,0.011,0.978,-0.116,1.190,-1.495,0.885,66.667,328965.000,1.000
-65.272,-20.643,-45.527,-34.074,-22.556,-54.724,-28.103,-78.409,0.013,0.980,-0.117,1.282,-1.404,0.763,66.667,328966.000,1.000
-61.541,-20.370,-42.332,-30.920,-19.348,-57.595,-26.958,-78.014,0.012,0.980,-0.116,1.282,-1.251,0.854,66.667,328967.000,1.000
-58.980,-19.208,-39.540,-27.525,-15.806,-55.626,-22.841,-74.957,0.012,0.978,-0.115,1.251,-1.251,0.977,66.667,328968.000,1.000
-58.332,-17.704,-37.988,-24.722,-12.974,-50.447,-16.796,-69.346,0.013,0.978,-0.115,1.251,-1.251,0.885,66.667,328969.000,1.000
-59.929,-16.553,-38.221,-23.395,-11.581,-44.100,-10.076,-61.850,0.011,0.979,-0.117,1.251,-1.129,0.946,66.667,328970.000,1.000
-63.428,-16.046,-40.103,-23.898,-11.459,-37.314,-3.713,-53.543,0.013,0.980,-0.115,1.251,-1.068,0.977,66.667,328971.000,1.000
-67.770,-15.704,-42.757,-25.691,-11.627,-29.440,1.886,-45.264,0.012,0.980,-0.116,1.282,-1.068,0.977,66.667,328972.000,1.000
-71.449,-14.687,-44.935,-27.578,-10.990,-20.023,6.554,-37.339,0.011,0.981,-0.116,1.221,-1.038,0.977,66.667,328973.000,1.000
-73.507,-12.789,-46.012,-28.737,-9.288,-9.919,10.272,-30.020,0.012,0.980,-0.117,1.282,-0.977,0.977,66.667,328974.000,1.000
-74.310,-10.749,-46.521,-29.396,-7.306,-0.749,13.572,-23.936,0.013,0.982,-0.118,1.282,-1.038,1.068,66.667,328975.000,1.000
-74.666,-9.257,-47.183,-30.037,-5.777,6.413,16.972,-19.656,0.011,0.984,-0.119,1.251,-0.977,1.190,66.667,328976.000,1.000
-74.907,-8.215,-48.099,-30.672,-4.762,11.392,20.183,-17.247,0.012,0.983,-0.119,1.312,-0.946,1.221,66.667,328977.000,1.000
-74.981,-7.214,-48.962,-31.005,-3.894,14.514,22.246,-16.369,0.011,0.984,-0.118,1.251,-0.916,1.251,66.667,328978.000,1.000
-74.966,-6.252,-49.610,-30.922,-2.984,15.992,22.290,-16.695,0.012,0.985,-0.121,1.190,-0.885,1.221,66.667,328979.000,1.000
-75.158,-5.841,-50.209,-30.636,-2.415,15.323,19.868,-18.170,0.013,0.985,-0.120,1.282,-0.763,1.282,66.667,328980.000,1.000
-75.629,-6.519,-50.868,-30.325,-2.651,11.788,15.338,-20.512,0.012,0.987,-0.122,1.190,-0.732,1.251,66.667,328981.000,1.000
-76.359,-8.486,-51.689,-30.210,-3.924,5.453,10.232,-23.069,0.013,0.987,-0.121,1.068,-0.885,1.221,66.667,328982.000,1.000
-77.238,-11.408,-52.734,-30.570,-6.122,-2.443,5.915,-25.588,0.012,0.988,-0.123,0.977,-0.885,1.404,66.667,328983.000,1.000
-77.724,-14.229,-53.657,-31.392,-8.645,-9.787,2.647,-28.533,0.009,0.986,-0.120,0.916,-0.824,1.434,66.667,328984.000,1.000
-77.157,-15.776,-53.878,-32.346,-10.732,-14.678,0.406,-32.340,0.008,0.985,-0.118,0.854,-0.824,1.312,66.667,328985.000,1.000
-75.203,-15.570,-52.991,-32.907,-11.810,-16.535,-0.745,-36.602,0.008,0.982,-0.119,0.763,-0.824,1.343,66.667,328986.000,1.000
-72.047,-13.876,-50.993,-32.545,-11.699,-16.196,-0.882,-40.198,0.011,0.980,-0.122,0.854,-0.854,1.251,66.667,328987.000,1.000
-68.184,-11.313,-48.164,-30.915,-10.460,-14.960,-0.303,-41.918,0.014,0.980,-0.122,0.793,-0.824,1.373,66.667,328988.000,1.000
-64.278,-8.658,-45.014,-28.216,-8.480,-13.930,0.309,-41.371,0.014,0.980,-0.125,0.885,-0.793,1.343,66.667,328989.000,1.000
-61.232,-6.885,-42.433,-25.460,-6.773,-14.117,-0.229,-39.624,0.017,0.981,-0.122,0.977,-0.854,1.434,66.667,328990.000,1.000
-59.872,-6.811,-41.319,-23.945,-6.393,-15.888,-2.762,-38.507,0.014,0.984,-0.120,1.099,-0.732,1.343,66.667,328991.000,1.000
-60.391,-8.323,-41.898,-24.395,-7.540,-18.082,-6.454,-39.119,0.014,0.984,-0.123,1.007,-0.732,1.373,66.667,328992.000,1.000
-61.918,-10.168,-43.316,-26.286,-9.226,-18.792,-9.319,-40.857,0.014,0.983,-0.123,0.885,-0.671,1.526,66.667,328993.000,1.000
-63.100,-10.801,-44.248,-28.180,-10.050,-17.299,-9.825,-41.798,0.015,0.982,-0.125,0.946,-0.641,1.434,66.667,328994.000,1.000
-63.208,-9.492,-43.997,-28.878,-9.309,-14.428,-7.644,-40.299,0.017,0.981,-0.126,0.854,-0.519,1.556,66.667,328995.000,1.000
-62.368,-6.646,-42.794,-28.104,-7.316,-11.324,-3.890,-36.447,0.017,0.983,-0.122,0.946,-0.488,1.678,66.667,328996.000,1.000
-61.274,-3.466,-41.550,-26.543,-5.246,-8.888,-0.498,-31.979,0.013,0.981,-0.122,0.916,-0.397,1.648,66.667,328997.000,1.000
-60.625,-1.299,-41.190,-25.123,-4.203,-7.567,1.549,-28.394,0.008,0.983,-0.124,0.885,-0.397,1.373,66.667,328998.000,1.000
-60.913,-1.160,-42.303,-24.520,-4.609,-7.129,2.857,-26.031,0.008,0.982,-0.124,0.885,-0.519,1.343,66.667,328999.000,1.000
-62.507,-3.539,-45.209,-25.258,-6.619,-7.285,3.625,-25.352,0.006,0.982,-0.123,0.793,-0.488,1.251,66.667,329000.000,1.000
-65.037,-7.830,-49.399,-27.196,-9.924,-7.966,2.793,-27.153,0.007,0.981,-0.121,0.732,-0.610,1.007,66.667,329001.000,1.000
-67.407,-12.345,-53.525,-29.378,-13.515,-8.941,0.039,-31.167,0.007,0.979,-0.120,0.702,-0.610,0.854,66.667,329002.000,1.000
-68.806,-15.652,-56.468,-30.910,-16.382,-9.990,-3.779,-35.884,0.009,0.977,-0.122,0.671,-0.732,0.793,66.667,329003.000,1.000
-69.316,-17.433,-58.046,-31.678,-18.191,-11.123,-7.615,-39.669,0.011,0.977,-0.122,0.702,-0.824,0.824,66.667,329004.000,1.000
-69.517,-18.043,-58.657,-32.080,-19.052,-12.206,-10.261,-41.413,0.012,0.978,-0.124,0.732,-0.732,0.732,66.667,329005.000,1.000
-69.957,-18.102,-58.801,-32.492,-19.203,-13.162,-10.950,-40.820,0.011,0.979,-0.121,0.824,-0.793,0.702,66.667,329006.000,1.000
-71.239,-18.574,-59.235,-33.374,-19.376,-14.620,-10.299,-38.881,0.009,0.978,-0.121,0.763,-0.916,0.671,66.667,329007.000,1.000
-73.461,-20.064,-60.418,-34.807,-20.089,-16.917,-9.480,-37.084,0.007,0.980,-0.124,0.854,-0.916,0.610,66.667,329008.000,1.000
-75.637,-21.893,-61.751,-35.934,-20.641,-18.949,-8.486,-35.853,0.009,0.980,-0.124,0.885,-0.946,0.488,66.667,329009.000,1.000
-76.706,-22.925,-62.355,-35.862,-20.085,-19.504,-6.642,-34.693,0.009,0.981,-0.128,0.793,-0.946,0.519,66.667,329010.000,1.000
-76.666,-22.966,-62.186,-34.817,-18.658,-18.882,-4.353,-33.484,0.008,0.981,-0.125,0.732,-0.946,0.610,66.667,329011.000,1.000
-76.413,-22.694,-61.994,-34.013,-17.680,-18.299,-2.606,-32.787,0.009,0.981,-0.122,0.671,-0.916,0.732,66.667,329012.000,1.000
-76.620,-22.639,-62.325,-34.380,-18.058,-18.278,-1.719,-32.988,0.011,0.982,-0.121,0.488,-0.977,0.763,66.667,329013.000,1.000
-77.335,-22.748,-63.161,-35.987,-19.702,-18.396,-1.725,-34.049,0.011,0.982,-0.122,0.549,-1.007,0.763,66.667,329014.000,1.000
-78.493,-22.890,-64.492,-38.526,-22.247,-18.435,-3.178,-36.018,0.013,0.982,-0.125,0.458,-1.038,0.824,66.667,329015.000,1.000
-80.016,-23.181,-66.426,-41.569,-25.344,-18.858,-6.522,-38.852,0.013,0.982,-0.121,0.488,-1.068,0.824,66.667,329016.000,1.000
-81.872,-23.914,-69.081,-44.788,-28.666,-20.078,-10.783,-42.082,0.012,0.982,-0.121,0.458,-1.038,0.854,66.667,329017.000,1.000
-83.881,-25.179,-72.253,-47.848,-31.608,-21.415,-13.416,-44.694,0.011,0.980,-0.120,0.366,-0.885,0.946,66.667,329018.000,1.000
-85.314,-26.325,-74.984,-49.922,-32.987,-21.020,-11.439,-45.118,0.012,0.980,-0.118,0.214,-0.824,1.038,66.667,329019.000,1.000
-85.290,-26.346,-76.078,-49.999,-31.890,-17.727,-4.188,-42.478,0.012,0.980,-0.119,0.183,-0.854,1.129,66.667,329020.000,1.000
-83.343,-24.738,-74.899,-47.636,-28.554,-12.730,4.886,-37.875,0.010,0.979,-0.121,0.153,-0.854,1.099,66.667,329021.000,1.000
-79.831,-21.837,-71.859,-43.475,-24.374,-8.817,10.568,-33.780,0.011,0.980,-0.122,0.153,-0.824,1.160,66.667,329022.000,1.000
-76.108,-18.910,-68.494,-39.219,-21.345,-8.423,9.224,-32.682,0.011,0.981,-0.121,0.122,-0.854,1.129,66.667,329023.000,1.000
-73.989,-17.623,-66.811,-36.905,-21.191,-12.200,0.748,-35.963,0.011,0.981,-0.120,0.183,-0.732,1.068,66.667,329024.000,1.000
-74.516,-18.862,-67.992,-37.660,-24.258,-18.472,-10.905,-42.821,0.012,0.980,-0.119,0.244,-0.702,1.099,66.667,329025.000,1.000
-77.083,-22.084,-71.522,-40.880,-29.041,-24.075,-19.852,-50.319,0.010,0.981,-0.120,0.214,-0.641,1.068,66.667,329026.000,1.000
-80.015,-25.806,-75.692,-44.820,-33.359,-26.589,-22.229,-55.464,0.011,0.980,-0.118,0.214,-0.610,1.251,66.667,329027.000,1.000
-81.560,-28.403,-78.525,-47.565,-35.564,-25.621,-18.514,-57.071,0.011,0.979,-0.121,0.275,-0.702,1.251,66.667,329028.000,1.000
-80.521,-28.421,-78.422,-47.619,-34.712,-21.781,-11.607,-55.463,0.011,0.978,-0.119,0.305,-0.610,1.068,66.667,329029.000,1.000
-76.761,-25.069,-74.882,-44.483,-30.644,-15.692,-3.699,-51.372,0.009,0.980,-0.121,0.183,-0.610,0.977,66.667,329030.000,1.000
-71.431,-19.078,-68.984,-39.064,-24.342,-8.664,4.131,-45.708,0.010,0.978,-0.122,0.122,-0.610,0.916,66.667,329031.000,1.000
-66.716,-12.755,-63.111,-33.472,-18.022,-3.199,10.807,-39.910,0.011,0.979,-0.123,0.305,-0.580,0.793,66.667,329032.000,1.000
-64.648,-8.737,-59.625,-29.890,-14.115,-1.725,14.551,-35.785,0.011,0.980,-0.119,0.336,-0.549,0.763,66.667,329033.000,1.000
-65.913,-8.374,-59.573,-29.451,-13.988,-4.839,13.644,-34.778,0.012,0.982,-0.120,0.275,-0.458,0.732,66.667,329034.000,1.000
-69.483,-10.928,-62.178,-31.697,-17.204,-10.701,8.245,-37.043,0.010,0.983,-0.119,0.336,-0.427,0.763,66.667,329035.000,1.000
-73.346,-14.320,-65.445,-34.911,-21.709,-16.148,0.846,-41.115,0.011,0.984,-0.118,0.336,-0.458,0.702,66.667,329036.000,1.000
-76.326,-17.060,-67.988,-37.713,-25.573,-19.028,-5.235,-45.135,0.011,0.984,-0.119,0.153,-0.488,0.671,66.667,329037.000,1.000
-78.509,-19.011,-69.703,-39.759,-28.036,-19.316,-7.822,-47.948,0.010,0.984,-0.118,0.214,-0.458,0.610,66.667,329038.000,1.000
-79.883,-20.277,-70.646,-40.833,-28.965,-18.129,-6.623,-48.820,0.010,0.982,-0.117,0.153,-0.427,0.610,66.667,329039.000,1.000
-79.777,-20.479,-70.463,-40.453,-28.388,-16.422,-2.929,-47.287,0.008,0.981,-0.122,0.092,-0.366,0.671,66.667,329040.000,1.000
-77.723,-19.342,-69.017,-38.538,-26.691,-14.627,0.847,-43.952,0.010,0.980,-0.121,0.092,-0.366,0.610,66.667,329041.000,1.000
-74.531,-17.451,-67.175,-36.081,-25.056,-13.198,2.130,-40.893,0.009,0.980,-0.124,0.031,-0.366,0.702,66.667,329042.000,1.000
-71.976,-16.202,-66.459,-34.639,-25.007,-12.944,-0.471,-40.372,0.008,0.980,-0.123,0.183,-0.397,0.519,66.667,329043.000,1.000
-71.612,-16.950,-68.008,-35.340,-27.479,-14.740,-6.300,-43.239,0.007,0.981,-0.122,0.214,-0.397,0.458,66.667,329044.000,1.000
-73.924,-20.125,-71.889,-38.360,-32.281,-18.786,-13.271,-48.515,0.006,0.982,-0.121,0.122,-0.580,0.427,66.667,329045.000,1.000
-77.747,-24.552,-76.657,-42.506,-37.629,-23.598,-18.941,-53.534,0.006,0.983,-0.123,0.092,-0.427,0.519,66.667,329046.000,1.000
-80.597,-27.579,-79.771,-45.487,-40.673,-26.234,-20.930,-55.069,0.005,0.984,-0.119,0.122,-0.519,0.488,66.667,329047.000,1.000
-80.303,-26.919,-79.259,-45.437,-39.405,-24.534,-18.295,-51.727,0.005,0.981,-0.121,0.183,-0.519,0.519,66.667,329048.000,1.000
-76.810,-22.668,-75.388,-42.503,-34.412,-19.211,-12.701,-45.341,0.005,0.979,-0.124,0.183,-0.519,0.458,66.667,329049.000,1.000
-71.884,-16.924,-70.181,-38.382,-28.229,-13.236,-7.119,-39.213,0.005,0.978,-0.122,0.244,-0.671,0.549,66.667,329050.000,1.000
-67.073,-11.723,-65.335,-34.414,-22.941,-9.335,-3.515,-35.129,0.004,0.980,-0.123,0.336,-0.854,0.549,66.667,329051.000,1.000
-63.001,-8.037,-61.542,-31.086,-19.349,-8.520,-2.118,-32.892,0.003,0.979,-0.122,0.366,-0.732,0.702,66.667,329052.000,1.000
-59.851,-6.099,-59.009,-28.625,-17.496,-10.143,-2.633,-31.952,0.002,0.980,-0.124,0.366,-0.885,0.793,66.667,329053.000,1.000
-57.854,-5.869,-57.928,-27.408,-17.275,-12.791,-5.019,-32.463,0.003,0.978,-0.125,0.488,-0.946,0.763,66.667,329054.000,1.000
-57.453,-7.284,-58.601,-27.954,-18.712,-15.460,-8.928,-34.831,0.003,0.978,-0.128,0.519,-1.129,0.946,66.667,329055.000,1.000
-58.505,-9.710,-60.657,-30.024,-21.147,-17.391,-12.685,-38.121,0.001,0.977,-0.125,0.519,-1.160,0.946,66.667,329056.000,1.000
-59.829,-11.537,-62.641,-32.165,-22.838,-17.367,-13.178,-39.641,0.000,0.977,-0.126,0.641,-1.312,1.038,66.667,329057.000,1.000
-60.198,-11.487,-63.217,-32.891,-22.432,-14.909,-8.837,-37.478,0.002,0.978,-0.127,0.763,-1.434,1.129,66.667,329058.000,1.000
-59.540,-9.961,-62.526,-32.179,-20.604,-11.644,-2.345,-33.139,0.001,0.980,-0.124,0.854,-1.526,1.099,66.667,329059.000,1.000
-58.565,-8.274,-61.648,-31.121,-19.165,-9.672,1.819,-30.077,0.001,0.981,-0.120,0.824,-1.648,1.129,66.667,329060.000,1.000
-57.761,-7.327,-61.287,-30.603,-19.047,-9.341,1.685,-30.190,0.002,0.982,-0.123,0.824,-1.740,1.282,66.667,329061.000,1.000
-57.602,-7.600,-61.875,-31.233,-20.357,-9.999,-1.656,-33.207,0.002,0.984,-0.122,0.732,-1.801,1.312,66.667,329062.000,1.000
-58.587,-9.374,-63.773,-33.427,-23.038,-11.572,-6.419,-37.893,0.003,0.985,-0.120,0.671,-1.953,1.404,66.667,329063.000,1.000
-60.558,-12.233,-66.700,-36.784,-26.523,-14.074,-10.840,-42.296,0.004,0.984,-0.121,0.580,-1.892,1.404,66.667,329064.000,1.000
-62.577,-14.886,-69.575,-39.892,-29.425,-16.309,-12.508,-43.912,0.005,0.982,-0.121,0.366,-1.923,1.587,66.667,329065.000,1.000
-63.721,-16.133,-71.347,-41.266,-30.414,-16.502,-9.883,-41.344,0.007,0.982,-0.124,0.366,-1.953,1.587,66.667,329066.000,1.000
-64.053,-16.015,-72.079,-40.709,-29.740,-14.467,-4.550,-35.998,0.008,0.982,-0.127,0.366,-1.923,1.770,66.667,329067.000,1.000
-64.099,-15.482,-72.475,-39.065,-28.767,-11.963,-0.276,-30.850,0.008,0.982,-0.126,0.183,-1.923,1.801,66.667,329068.000,1.000
-64.093,-15.301,-72.969,-37.274,-28.534,-11.130,0.312,-28.000,0.008,0.980,-0.126,0.061,-1.953,1.770,66.667,329069.000,1.000
-64.466,-16.022,-74.006,-36.414,-29.698,-13.299,-3.022,-28.343,0.009,0.979,-0.123,-0.031,-2.014,1.801,66.667,329070.000,1.000
-65.738,-17.872,-75.888,-37.309,-32.385,-17.944,-8.857,-31.871,0.010,0.978,-0.126,-0.061,-1.892,1.892,66.667,329071.000,1.000
-67.564,-19.952,-77.895,-39.569,-35.567,-22.331,-14.402,-37.124,0.010,0.976,-0.127,-0.061,-1.770,1.923,66.667,329072.000,1.000
-68.599,-20.541,-78.376,-41.570,-37.328,-23.536,-16.706,-41.474,0.012,0.978,-0.128,0.031,-1.648,1.801,66.667,329073.000,1.000
-67.631,-18.567,-76.139,-41.752,-36.301,-20.813,-14.499,-42.843,0.011,0.978,-0.130,0.092,-1.587,1.831,66.667,329074.000,1.000
-64.581,-14.350,-71.428,-39.740,-32.555,-15.306,-8.484,-41.074,0.014,0.979,-0.129,0.122,-1.495,1.801,66.667,329075.000,1.000
-60.490,-9.295,-65.676,-36.371,-27.323,-8.720,-0.862,-37.869,0.013,0.980,-0.127,0.122,-1.373,1.862,66.667,329076.000,1.000
-57.258,-5.442,-61.040,-33.363,-22.717,-3.363,5.143,-35.855,0.015,0.980,-0.127,0.061,-1.190,1.862,66.667,329077.000,1.000
-56.546,-4.489,-59.291,-32.203,-20.510,-1.501,6.963,-36.573,0.017,0.981,-0.125,0.031,-1.038,1.831,66.667,329078.000,1.000
-58.498,-6.468,-60.558,-32.908,-20.615,-3.551,5.057,-38.787,0.017,0.981,-0.126,-0.122,-0.854,1.892,66.667,329079.000,1.000
-61.830,-9.814,-63.487,-34.228,-21.499,-8.015,2.157,-39.745,0.016,0.981,-0.125,-0.153,-0.641,2.014,66.667,329080.000,1.000
-64.830,-12.702,-66.381,-34.845,-21.861,-12.977,-0.131,-38.245,0.016,0.979,-0.124,-0.214,-0.519,1.984,66.667,329081.000,1.000
-66.451,-14.133,-68.284,-34.392,-21.676,-16.878,-2.050,-35.758,0.017,0.978,-0.126,-0.153,-0.366,1.984,66.667,329082.000,1.000
-66.536,-14.035,-69.024,-33.234,-21.504,-18.265,-3.593,-34.269,0.019,0.978,-0.125,-0.153,-0.214,1.953,66.667,329083.000,1.000
-65.369,-12.785,-68.676,-31.762,-21.526,-16.166,-3.643,-34.129,0.016,0.978,-0.124,-0.214,-0.031,1.953,66.667,329084.000,1.000
-63.413,-11.002,-67.423,-30.289,-21.679,-11.403,-1.582,-34.556,0.017,0.980,-0.127,-0.183,0.092,2.014,66.667,329085.000,1.000
-61.221,-9.499,-65.648,-29.226,-22.084,-6.730,1.343,-35.045,0.015,0.979,-0.124,-0.214,0.336,1.923,66.667,329086.000,1.000
-59.558,-9.024,-64.107,-29.211,-23.294,-5.096,2.836,-35.875,0.016,0.981,-0.125,-0.275,0.397,2.014,66.667,329087.000,1.000
-58.888,-9.734,-63.422,-30.555,-25.655,-7.561,1.247,-37.546,0.013,0.980,-0.122,-0.366,0.580,1.862,66.667,329088.000,1.000
-58.664,-10.801,-63.287,-32.546,-28.457,-12.600,-3.047,-39.834,0.011,0.978,-0.123,-0.397,0.641,1.831,66.667,329089.000,1.000
-57.676,-10.944,-62.720,-33.794,-30.260,-17.389,-7.914,-41.668,0.012,0.979,-0.123,-0.458,0.763,1.709,66.667,329090.000,1.000
-55.198,-9.646,-61.224,-33.365,-30.114,-19.888,-11.396,-42.048,0.016,0.980,-0.123,-0.549,0.854,1.526,66.667,329091.000,1.000
-51.838,-7.632,-59.562,-31.594,-28.395,-19.722,-12.551,-40.881,0.014,0.982,-0.120,-0.519,0.885,1.465,66.667,329092.000,1.000
-48.848,-5.907,-58.918,-29.535,-26.102,-17.287,-11.126,-38.680,0.015,0.981,-0.123,-0.732,1.038,1.373,66.667,329093.000,1.000
-47.096,-4.759,-59.739,-28.079,-23.926,-12.953,-7.484,-36.103,0.015,0.981,-0.124,-0.580,1.190,1.251,66.667,329094.000,1.000
-46.956,-3.971,-61.723,-27.751,-22.243,-7.480,-2.738,-33.973,0.018,0.981,-0.123,-0.702,1.343,1.282,66.667,329095.000,1.000
-48.274,-3.404,-64.193,-28.621,-21.237,-2.385,1.585,-33.101,0.014,0.986,-0.121,-0.641,1.434,1.282,66.667,329096.000,1.000
-50.311,-3.035,-66.346,-30.242,-20.935,0.704,4.583,-33.863,0.013,0.986,-0.126,-0.854,1.495,1.404,66.667,329097.000,1.000
-51.778,-2.651,-67.185,-31.603,-20.946,1.281,6.348,-35.748,0.011,0.985,-0.122,-0.763,1.373,1.465,66.667,329098.000,1.000
-51.572,-1.975,-65.994,-31.734,-20.748,0.177,7.147,-37.738,0.012,0.982,-0.124,-0.946,1.495,1.404,66.667,329099.000,1.000
-49.630,-1.186,-63.113,-30.546,-20.374,-1.542,6.753,-39.185,0.009,0.980,-0.121,-0.977,1.434,1.434,66.667,329100.000,1.000
-46.554,-0.722,-59.579,-28.609,-20.156,-3.428,4.926,-39.744,0.009,0.982,-0.126,-1.129,1.434,1.587,66.667,329101.000,1.000
-43.179,-0.868,-56.540,-26.774,-20.524,-5.763,1.853,-39.384,0.007,0.982,-0.121,-0.946,1.373,1.587,66.667,329102.000,1.000
-40.466,-1.878,-55.012,-25.992,-22.051,-9.015,-2.579,-38.845,0.009,0.983,-0.118,-0.977,1.190,1.709,66.667,329103.000,1.000
-39.069,-3.944,-55.475,-26.775,-25.043,-13.147,-8.549,-39.202,0.008,0.984,-0.120,-1.099,1.221,1.892,66.667,329104.000,1.000
-38.971,-6.938,-57.605,-28.743,-29.080,-17.545,-15.060,-40.796,0.008,0.982,-0.119,-1.129,0.977,2.014,66.667,329105.000,1.000
-39.571,-10.317,-60.421,-30.777,-33.005,-21.322,-20.101,-42.801,0.010,0.980,-0.123,-1.312,0.946,2.075,66.667,329106.000,1.000
-40.182,-13.160,-62.810,-31.715,-35.525,-23.725,-21.927,-43.790,0.008,0.982,-0.119,-1.099,0.732,2.167,66.667,329107.000,1.000
-40.363,-14.603,-64.033,-30.905,-35.816,-24.539,-20.260,-42.730,0.010,0.980,-0.123,-1.251,0.671,2.075,66.667,329108.000,1.000
-40.404,-14.611,-64.364,-28.821,-34.286,-24.257,-16.659,-40.273,0.006,0.979,-0.116,-1.038,0.549,2.106,66.667,329109.000,1.000
-41.374,-14.187,-65.118,-27.154,-32.761,-23.994,-13.929,-38.965,0.007,0.974,-0.120,-1.282,0.427,2.075,66.667,329110.000,1.000
-43.842,-14.362,-67.260,-27.405,-32.960,-24.812,-14.532,-40.996,0.004,0.973,-0.117,-0.916,0.427,2.136,66.667,329111.000,1.000
-46.993,-15.155,-70.371,-29.640,-35.052,-26.628,-18.475,-46.106,0.008,0.969,-0.119,-0.793,0.031,2.075,66.667,329112.000,1.000
-48.960,-15.500,-72.836,-32.454,-37.542,-27.748,-23.093,-51.879,0.010,0.968,-0.122,-0.641,-0.031,2.045,66.667,329113.000,1.000
-47.982,-13.984,-72.896,-33.954,-38.399,-26.113,-25.102,-55.481,0.010,0.968,-0.118,-0.244,-0.153,1.984,66.667,329114.000,1.000
-43.721,-10.030,-69.988,-33.122,-36.657,-21.234,-23.012,-55.437,0.017,0.968,-0.125,-0.366,-0.214,1.892,66.667,329115.000,1.000
-37.523,-4.545,-65.189,-30.394,-32.963,-14.534,-17.913,-52.324,0.016,0.970,-0.120,0.214,-0.305,1.953,66.667,329116.000,1.000
-31.629,0.634,-60.520,-27.240,-29.027,-8.343,-12.122,-48.038,0.021,0.968,-0.122,0.092,-0.366,1.984,66.667,329117.000,1.000
-27.848,3.909,-57.630,-25.057,-26.407,-4.750,-7.573,-44.356,0.021,0.966,-0.121,0.519,-0.122,2.075,66.667,329118.000,1.000
-26.803,4.690,-57.005,-24.465,-25.699,-4.696,-4.961,-42.166,0.021,0.963,-0.120,0.641,-0.153,1.953,66.667,329119.000,1.000
-27.984,3.508,-58.002,-25.255,-26.468,-7.322,-3.797,-41.540,0.022,0.963,-0.126,0.854,0.061,2.045,66.667,329120.000,1.000
-30.017,1.777,-59.148,-26.446,-27.364,-10.036,-3.212,-41.824,0.021,0.966,-0.120,1.465,0.122,1.953,66.667,329121.000,1.000
-31.580,0.926,-59.182,-27.049,-27.160,-10.497,-2.798,-42.246,0.024,0.970,-0.125,1.617,0.183,1.923,66.667,329122.000,1.000
-32.008,1.476,-57.806,-26.696,-25.584,-8.753,-2.934,-42.424,0.024,0.979,-0.119,2.228,0.336,1.862,66.667,329123.000,1.000
-30.979,3.271,-55.277,-25.388,-23.038,-6.722,-4.075,-42.135,0.024,0.984,-0.125,1.953,0.427,1.953,66.667,329124.000,1.000
-28.320,6.005,-51.957,-23.264,-20.143,-6.078,-6.103,-41.266,0.022,0.988,-0.119,2.045,0.549,1.923,66.667,329125.000,1.000
-24.121,9.292,-48.223,-20.573,-17.319,-6.806,-8.167,-39.886,0.024,0.985,-0.121,1.740,0.610,1.923,66.667,329126.000,1.000
-18.933,12.623,-44.556,-17.730,-14.741,-7.453,-8.657,-38.127,0.022,0.986,-0.121,1.678,0.824,1.831,66.667,329127.000,1.000
-13.599,15.395,-41.489,-15.256,-12.579,-6.804,-6.698,-36.300,0.020,0.985,-0.121,1.678,0.854,1.770,66.667,329128.000,1.000
-8.943,17.049,-39.508,-13.698,-11.315,-5.255,-3.618,-35.096,0.020,0.987,-0.125,1.617,0.946,1.709,66.667,329129.000,1.000
-5.417,17.473,-38.776,-13.330,-11.360,-4.087,-1.495,-35.017,0.016,0.991,-0.116,1.770,0.916,1.617,66.667,329130.000,1.000
-2.607,17.513,-38.552,-13.553,-12.018,-3.463,-0.419,-35.314,0.014,0.997,-0.118,1.373,0.885,1.465,66.667,329131.000,1.000
0.468,18.661,-37.474,-13.143,-11.765,-2.202,1.432,-34.457,0.011,1.000,-0.112,1.129,0.580,1.282,66.667,329132.000,1.000
4.597,21.844,-34.592,-11.154,-9.646,0.475,4.601,-31.885,0.014,1.000,-0.119,0.549,0.458,0.977,66.667,329133.000,1.000
9.735,26.540,-30.242,-7.675,-6.253,3.645,7.063,-28.754,0.010,1.001,-0.115,0.427,0.519,0.916,66.667,329134.000,1.000
14.896,31.005,-25.978,-3.807,-3.340,5.207,6.435,-26.847,0.011,0.996,-0.117,-0.061,0.275,0.916,66.667,329135.000,1.000
19.071,33.611,-23.212,-0.615,-2.232,3.776,2.262,-26.972,0.012,0.994,-0.117,-0.336,0.214,0.732,66.667,329136.000,1.000
21.966,34.040,-22.201,1.593,-2.913,0.052,-3.399,-28.627,0.012,0.989,-0.115,-0.519,0.031,0.610,66.667,329137.000,1.000
24.071,33.232,-22.118,3.237,-4.145,-3.495,-6.994,-30.386,0.014,0.990,-0.115,-0.671,0.061,0.549,66.667,329138.000,1.000
26.224,32.519,-21.761,4.991,-4.338,-4.449,-5.654,-30.634,0.012,0.989,-0.113,-0.580,-0.244,0.610,66.667,329139.000,1.000
28.950,32.674,-20.438,7.136,-2.871,-2.556,0.142,-28.963,0.010,0.987,-0.119,-0.763,-0.336,0.580,66.667,329140.000,1.000
32.220,33.614,-18.282,9.429,-0.462,0.133,6.158,-26.658,0.009,0.988,-0.115,-0.549,-0.488,0.549,66.667,329141.000,1.000
35.489,34.801,-16.021,11.349,1.547,1.157,7.795,-25.517,0.011,0.987,-0.117,-0.763,-0.519,0.519,66.667,329142.000,1.000
38.280,35.924,-14.188,12.696,2.529,-0.127,3.941,-26.138,0.011,0.989,-0.114,-0.732,-0.610,0.763,66.667,329143.000,1.000
40.702,37.319,-12.554,13.923,3.203,-1.836,-2.076,-27.295,0.012,0.987,-0.113,-0.977,-0.702,0.702,66.667,329144.000,1.000
43.034,39.385,-10.717,15.536,4.558,-1.650,-5.606,-27.291,0.011,0.988,-0.112,-1.068,-0.763,0.854,66.667,329145.000,1.000
45.230,41.743,-8.845,17.424,6.569,0.422,-5.049,-25.774,0.013,0.986,-0.111,-1.068,-0.977,0.885,66.667,329146.000,1.000
46.992,43.433,-7.605,18.917,8.228,2.346,-2.332,-23.901,0.014,0.985,-0.107,-1.160,-0.916,0.946,66.667,329147.000,1.000
48.364,43.926,-7.269,19.637,8.907,2.899,0.042,-22.813,0.014,0.985,-0.110,-1.099,-1.068,0.977,66.667,329148.000,1.000
49.643,43.518,-7.459,19.801,8.894,2.716,1.129,-22.621,0.017,0.984,-0.112,-1.251,-1.068,1.068,66.667,329149.000,1.000
50.766,42.782,-7.715,19.688,8.655,2.752,1.370,-22.755,0.016,0.984,-0.108,-1.099,-1.160,1.007,66.667,329150.000,1.000
51.581,42.168,-7.615,19.589,8.544,3.258,1.851,-22.308,0.017,0.983,-0.113,-1.434,-1.099,1.251,66.667,329151.000,1.000
52.151,41.978,-6.839,19.802,8.714,3.916,3.666,-20.556,0.015,0.982,-0.108,-1.160,-1.190,1.343,66.667,329152.000,1.000
52.591,42.190,-5.431,20.373,8.935,4.202,6.378,-17.939,0.018,0.979,-0.113,-1.343,-1.282,1.434,66.667,329153.000,1.000
52.760,42.392,-3.975,20.853,8.504,3.588,7.665,-16.242,0.015,0.981,-0.111,-1.190,-1.160,1.465,66.667,329154.000,1.000
52.154,41.916,-3.489,20.448,6.454,1.521,5.232,-17.206,0.014,0.979,-0.113,-1.251,-1.251,1.495,66.667,329155.000,1.000
50.266,40.176,-4.832,18.646,2.336,-2.379,-1.338,-20.883,0.014,0.978,-0.113,-1.068,-1.190,1.556,66.667,329156.000,1.000
46.885,37.071,-8.208,15.517,-3.383,-7.997,-10.397,-25.839,0.014,0.977,-0.107,-0.885,-1.221,1.587,66.667,329157.000,1.000
42.442,33.242,-12.882,11.712,-9.386,-14.422,-19.449,-30.639,0.017,0.976,-0.109,-0.885,-1.099,1.678,66.667,329158.000,1.000
37.973,29.930,-17.385,8.236,-14.000,-19.888,-25.948,-34.468,0.017,0.979,-0.109,-0.580,-1.221,1.862,66.667,329159.000,1.000
34.510,28.247,-20.301,6.031,-16.031,-22.594,-28.016,-36.747,0.019,0.978,-0.113,-0.702,-1.129,1.923,66.667,329160.000,1.000
32.677,28.558,-20.875,5.721,-15.232,-22.023,-25.884,-37.038,0.018,0.978,-0.110,-0.458,-1.221,1.923,66.667,329161.000,1.000
32.324,30.350,-19.385,7.225,-12.485,-19.398,-21.912,-35.501,0.020,0.977,-0.115,-0.458,-1.129,1.984,66.667,329162.000,1.000
32.624,32.509,-16.897,9.778,-9.237,-16.623,-18.760,-32.790,0.019,0.977,-0.113,-0.244,-1.129,1.892,66.667,329163.000,1.000
32.636,33.873,-14.665,12.357,-6.674,-14.905,-17.487,-29.540,0.018,0.977,-0.114,-0.366,-1.251,2.014,66.667,329164.000,1.000
31.839,33.824,-13.593,14.148,-5.303,-14.266,-17.096,-26.273,0.016,0.978,-0.111,-0.214,-1.129,2.014,66.667,329165.000,1.000
30.517,32.637,-13.709,15.000,-4.844,-13.822,-16.015,-23.595,0.018,0.978,-0.115,-0.153,-1.190,1.953,66.667,329166.000,1.000
29.360,31.136,-14.381,15.162,-4.881,-12.706,-13.898,-22.364,0.019,0.979,-0.113,-0.031,-1.068,1.984,66.667,329167.000,1.000
28.939,30.076,-14.794,15.042,-5.121,-10.765,-11.663,-22.969,0.019,0.978,-0.108,0.092,-1.068,1.923,66.667,329168.000,1.000
29.481,29.845,-14.331,15.175,-5.186,-8.544,-10.108,-24.695,0.020,0.979,-0.113,0.031,-0.946,1.831,66.667,329169.000,1.000
30.588,30.141,-13.157,15.703,-5.009,-7.137,-9.806,-26.770,0.019,0.981,-0.111,0.183,-0.916,1.801,66.667,329170.000,1.000
31.390,30.068,-12.181,16.073,-5.025,-7.512,-11.500,-29.334,0.020,0.981,-0.113,0.031,-0.916,1.770,66.667,329171.000,1.000
30.991,28.871,-12.397,15.430,-5.821,-9.786,-14.875,-32.761,0.019,0.985,-0.109,0.153,-0.763,1.648,66.667,329172.000,1.000
29.095,26.406,-14.149,13.420,-7.652,-13.474,-18.156,-36.605,0.020,0.988,-0.114,-0.092,-0.793,1.678,66.667,329173.000,1.000
26.244,23.040,-16.991,10.481,-10.407,-18.067,-19.657,-39.765,0.017,0.991,-0.107,-0.092,-0.702,1.526,66.667,329174.000,1.000
23.507,19.510,-19.956,7.488,-13.699,-22.835,-19.187,-41.536,0.015,0.990,-0.110,-0.366,-0.641,1.343,66.667,329175.000,1.000
22.088,16.886,-21.803,5.386,-16.737,-26.568,-17.914,-42.189,0.014,0.989,-0.108,-0.397,-0.488,1.160,66.667,329176.000,1.000
22.500,15.929,-21.932,4.488,-19.038,-28.549,-17.341,-42.919,0.014,0.987,-0.115,-0.702,-0.641,1.099,66.667,329177.000,1.000
24.024,16.245,-21.110,4.163,-21.004,-29.283,-18.673,-45.035,0.017,0.986,-0.115,-0.763,-0.702,1.068,66.667,329178.000,1.000
25.073,16.521,-20.979,3.371,-23.433,-29.675,-22.087,-48.756,0.018,0.988,-0.113,-0.854,-0.671,1.160,66.667,329179.000,1.000
24.132,15.551,-22.833,1.496,-26.738,-30.186,-26.482,-52.878,0.019,0.994,-0.112,-1.007,-0.641,1.160,66.667,329180.000,1.000
20.848,13.028,-26.619,-1.101,-30.451,-30.852,-30.230,-55.521,0.020,0.997,-0.107,-1.068,-0.580,1.221,66.667,329181.000,1.000
16.202,9.628,-31.126,-3.425,-33.539,-31.510,-32.076,-55.373,0.020,1.000,-0.110,-1.465,-0.549,1.282,66.667,329182.000,1.000
11.882,6.496,-34.799,-4.540,-34.980,-31.861,-32.141,-52.433,0.019,1.003,-0.109,-1.740,-0.397,1.373,66.667,329183.000,1.000
9.291,4.704,-36.509,-4.097,-34.163,-31.468,-31.589,-47.781,0.021,1.001,-0.114,-2.167,-0.366,1.617,66.667,329184.000,1.000
8.922,4.999,-35.867,-2.344,-30.920,-29.547,-30.678,-42.589,0.021,0.999,-0.113,-2.411,-0.183,1.678,66.667,329185.000,1.000
10.769,7.842,-32.862,0.474,-25.138,-24.772,-27.818,-37.096,0.022,0.993,-0.117,-2.655,-0.183,1.617,66.667,329186.000,1.000
14.430,13.053,-28.008,4.058,-17.222,-16.358,-21.183,-31.002,0.019,0.992,-0.113,-2.808,-0.061,1.770,66.667,329187.000,1.000
18.905,19.269,-22.656,7.613,-8.716,-5.691,-11.530,-24.783,0.016,0.987,-0.114,-2.838,-0.122,1.648,66.667,329188.000,1.000
22.767,24.349,-18.598,9.945,-1.891,3.859,-2.300,-19.919,0.013,0.986,-0.114,-3.021,0.061,1.556,66.667,329189.000,1.000
24.650,26.419,-17.340,10.018,1.316,8.854,3.191,-17.935,0.012,0.986,-0.112,-3.021,0.031,1.434,66.667,329190.000,1.000
23.934,24.746,-19.351,7.651,0.296,7.574,3.727,-19.448,0.013,0.984,-0.114,-3.082,0.061,1.221,66.667,329191.000,1.000
21.026,20.148,-23.761,3.692,-4.052,0.755,0.161,-24.015,0.012,0.979,-0.115,-2.960,-0.092,1.099,66.667,329192.000,1.000
17.210,14.625,-28.642,-0.366,-9.766,-8.868,-5.681,-30.389,0.011,0.975,-0.118,-2.930,-0.092,0.916,66.667,329193.000,1.000
14.016,10.329,-32.023,-3.196,-14.879,-18.154,-12.083,-37.250,0.011,0.971,-0.117,-2.563,-0.305,1.007,66.667,329194.000,1.000
12.549,8.626,-32.854,-4.266,-18.455,-25.119,-18.237,-44.073,0.012,0.966,-0.120,-2.350,-0.397,0.854,66.667,329195.000,1.000
13.322,9.764,-31.105,-3.650,-20.526,-29.289,-24.112,-50.796,0.011,0.968,-0.116,-1.953,-0.519,0.854,66.667,329196.000,1.000
15.934,12.798,-27.760,-1.903,-21.810,-31.333,-29.360,-57.018,0.011,0.967,-0.122,-1.770,-0.488,0.793,66.667,329197.000,1.000
19.203,16.063,-24.402,0.099,-23.224,-32.348,-33.178,-61.967,0.009,0.968,-0.120,-1.282,-0.519,0.763,66.667,329198.000,1.000
21.895,18.224,-22.344,1.541,-25.246,-33.026,-34.967,-65.025,0.008,0.964,-0.117,-1.038,-0.549,0.732,66.667,329199.000,1.000
23.264,18.887,-22.150,1.928,-27.727,-33.291,-34.698,-66.013,0.012,0.963,-0.118,-0.610,-0.732,0.671,66.667,329200.000,1.000
23.292,18.485,-23.556,1.342,-29.946,-32.397,-32.780,-64.907,0.014,0.967,-0.117,-0.092,-0.793,0.549,66.667,329201.000,1.000
22.363,17.744,-25.855,0.240,-31.233,-29.728,-29.732,-61.817,0.015,0.972,-0.116,0.305,-0.763,0.671,66.667,329202.000,1.000
20.974,17.107,-28.219,-0.786,-31.418,-25.744,-26.367,-57.252,0.011,0.974,-0.115,0.610,-0.885,0.854,66.667,329203.000,1.000
19.557,16.668,-29.897,-1.181,-30.715,-21.829,-23.604,-52.044,0.013,0.973,-0.115,0.732,-0.946,1.160,66.667,329204.000,1.000
18.242,16.406,-30.504,-0.653,-29.298,-18.992,-21.688,-46.919,0.010,0.972,-0.110,1.038,-1.068,1.404,66.667,329205.000,1.000
16.977,16.375,-30.022,0.835,-26.811,-16.788,-19.814,-41.980,0.012,0.968,-0.114,1.160,-1.251,1.526,66.667,329206.000,1.000
15.577,16.634,-28.849,2.978,-22.748,-13.909,-16.504,-36.875,0.009,0.965,-0.111,1.648,-1.373,1.740,66.667,329207.000,1.000
13.969,17.151,-27.577,5.283,-17.061,-9.630,-10.988,-31.417,0.010,0.970,-0.111,2.136,-1.587,1.831,66.667,329208.000,1.000
12.420,17.824,-26.684,7.296,-10.468,-4.472,-4.228,-26.118,0.008,0.976,-0.109,2.380,-1.892,1.923,66.667,329209.000,1.000
11.315,18.377,-26.525,8.582,-4.397,0.253,1.604,-22.227,0.008,0.978,-0.110,2.380,-2.014,1.984,66.667,329210.000,1.000
11.114,18.541,-27.049,8.999,-0.084,3.505,4.735,-20.764,0.010,0.980,-0.108,2.533,-2.075,1.862,66.667,329211.000,1.000
12.136,18.353,-27.778,8.806,2.052,5.020,5.132,-21.661,0.012,0.983,-0.105,2.411,-2.289,1.770,66.667,329212.000,1.000
14.282,17.980,-28.232,8.405,2.303,4.925,3.953,-24.034,0.012,0.984,-0.105,2.350,-2.411,1.678,66.667,329213.000,1.000
16.880,17.295,-28.458,7.871,1.036,3.133,2.141,-27.064,0.013,0.982,-0.109,2.411,-2.472,1.587,66.667,329214.000,1.000
18.936,15.903,-29.061,6.786,-1.738,-0.758,-0.184,-30.496,0.013,0.981,-0.109,2.380,-2.625,1.648,66.667,329215.000,1.000
20.003,13.767,-30.376,4.858,-5.939,-6.864,-3.580,-34.398,0.016,0.980,-0.110,2.533,-2.563,1.556,66.667,329216.000,1.000
20.504,11.621,-31.975,2.364,-11.056,-14.445,-8.342,-38.821,0.018,0.982,-0.113,2.411,-2.686,1.526,66.667,329217.000,1.000
21.478,10.727,-32.745,0.213,-15.932,-21.628,-13.341,-43.272,0.019,0.984,-0.113,2.441,-2.686,1.373,66.667,329218.000,1.000
23.893,12.149,-31.565,-0.494,-19.138,-25.911,-15.939,-46.564,0.021,0.986,-0.111,2.441,-2.686,1.282,66.667,329219.000,1.000
27.824,15.794,-28.305,0.625,-20.097,-25.929,-14.265,-47.965,0.020,0.988,-0.114,2.289,-2.625,1.160,66.667,329220.000,1.000
32.402,20.161,-24.024,2.900,-19.569,-23.008,-9.728,-48.295,0.021,0.987,-0.117,2.167,-2.502,1.068,66.667,329221.000,1.000
36.153,23.113,-20.432,4.948,-19.244,-20.806,-6.382,-49.373,0.021,0.984,-0.118,1.984,-2.350,0.885,66.667,329222.000,1.000
37.780,23.078,-18.923,5.546,-20.649,-22.979,-8.379,-52.526,0.023,0.986,-0.119,2.014,-2.289,0.732,66.667,329223.000,1.000
36.973,20.063,-19.757,4.392,-24.162,-30.501,-17.355,-57.793,0.024,0.985,-0.117,1.801,-2.167,0.458,66.667,329224.000,1.000
34.579,15.822,-21.909,2.239,-28.612,-40.549,-30.780,-63.732,0.023,0.986,-0.118,1.770,-2.075,0.366,66.667,329225.000,1.000
32.223,13.009,-23.506,0.601,-31.512,-47.723,-42.933,-67.531,0.023,0.983,-0.118,1.770,-2.014,0.366,66.667,329226.000,1.000
31.276,13.588,-23.055,0.790,-30.486,-47.284,-48.115,-66.412,0.023,0.982,-0.119,1.678,-1.953,0.275,66.667,329227.000,1.000
32.084,17.588,-20.414,3.166,-24.710,-38.108,-43.873,-59.407,0.022,0.981,-0.117,1.678,-1.770,-0.031,66.667,329228.000,1.000
33.910,23.188,-16.789,7.052,-15.350,-23.097,-31.808,-47.855,0.021,0.983,-0.120,1.617,-1.709,0.000,66.667,329229.000,1.000
35.361,27.786,-14.035,11.097,-5.047,-7.338,-16.256,-34.595,0.019,0.983,-0.119,1.678,-1.526,-0.031,66.667,329230.000,1.000
35.238,29.254,-13.627,13.984,3.395,4.509,-2.386,-22.666,0.019,0.983,-0.119,1.587,-1.373,-0.214,66.667,329231.000,1.000
33.043,26.875,-16.088,14.860,8.133,10.202,6.197,-14.261,0.019,0.983,-0.118,1.587,-1.343,-0.275,66.667,329232.000,1.000
29.381,21.827,-20.583,13.856,9.249,10.813,9.377,-9.703,0.016,0.983,-0.117,1.648,-1.373,-0.275,66.667,329233.000,1.000
25.838,16.767,-25.077,12.224,8.658,9.691,10.180,-7.343,0.015,0.983,-0.120,1.648,-1.221,-0.397,66.667,329234.000,1.000
23.803,13.960,-27.834,11.212,8.142,9.237,11.407,-5.515,0.013,0.982,-0.123,1.495,-1.190,-0.458,66.667,329235.000,1.000
23.416,13.513,-28.850,10.788,7.589,8.704,12.724,-4.574,0.011,0.981,-0.122,1.526,-1.160,-0.488,66.667,329236.000,1.000
23.555,13.685,-29.703,9.625,5.360,5.924,12.296,-6.401,0.011,0.982,-0.123,1.556,-1.251,-0.458,66.667,329237.000,1.000
23.040,12.834,-31.797,6.614,0.428,0.410,9.882,-11.863,0.009,0.981,-0.122,1.556,-1.373,-0.458,66.667,329238.000,1.000
21.612,10.797,-35.118,1.999,-6.564,-6.549,6.747,-19.635,0.009,0.981,-0.120,1.526,-1.373,-0.488,66.667,329239.000,1.000
19.837,8.662,-38.482,-2.947,-14.046,-13.734,3.642,-27.378,0.008,0.982,-0.117,1.587,-1.526,-0.519,66.667,329240.000,1.000
18.705,7.907,-40.268,-6.633,-20.215,-20.213,0.431,-33.104,0.007,0.980,-0.119,1.465,-1.556,-0.427,66.667,329241.000,1.000
18.766,9.403,-39.618,-8.137,-23.922,-25.009,-3.210,-36.272,0.008,0.979,-0.118,1.465,-1.770,-0.427,66.667,329242.000,1.000
19.651,12.695,-37.182,-7.770,-25.348,-27.845,-7.902,-38.162,0.007,0.981,-0.119,1.434,-1.862,-0.458,66.667,329243.000,1.000
20.560,16.457,-34.426,-6.562,-25.462,-29.322,-13.835,-40.643,0.007,0.980,-0.120,1.404,-1.892,-0.488,66.667,329244.000,1.000
20.928,19.606,-32.366,-5.254,-24.825,-29.892,-19.443,-44.234,0.006,0.979,-0.122,1.373,-2.106,-0.366,66.667,329245.000,1.000
20.703,21.905,-30.951,-3.774,-22.985,-29.139,-21.940,-47.353,0.006,0.979,-0.120,1.373,-2.228,-0.214,66.667,329246.000,1.000
19.930,23.655,-29.661,-1.830,-19.389,-26.579,-19.712,-47.898,0.007,0.978,-0.119,1.373,-2.319,-0.061,66.667,329247.000,1.000
18.565,25.094,-28.156,0.487,-14.331,-22.599,-14.243,-45.333,0.006,0.976,-0.119,1.373,-2.289,0.031,66.667,329248.000,1.000
16.561,26.255,-26.458,2.648,-8.855,-18.099,-8.904,-40.950,0.005,0.977,-0.120,1.404,-2.472,0.000,66.667,329249.000,1.000
13.894,27.191,-24.826,4.045,-4.004,-13.535,-5.911,-36.469,0.005,0.977,-0.122,1.526,-2.502,0.092,66.667,329250.000,1.000
10.786,28.232,-23.324,4.609,0.012,-8.555,-4.863,-32.617,0.005,0.977,-0.123,1.587,-2.716,0.092,66.667,329251.000,1.000
7.456,29.600,-22.001,4.619,3.452,-2.842,-3.737,-29.177,0.008,0.980,-0.120,1.526,-2.838,0.153,66.667,329252.000,1.000
3.849,30.746,-21.309,4.167,6.247,2.821,-1.248,-25.911,0.009,0.978,-0.118,1.495,-2.869,0.275,66.667,329253.000,1.000
-0.235,30.467,-22.036,3.036,7.798,6.778,2.074,-23.088,0.009,0.979,-0.123,1.526,-2.930,0.305,66.667,329254.000,1.000
-4.893,27.787,-24.827,0.977,7.436,7.860,4.802,-21.242,0.011,0.976,-0.123,1.556,-3.052,0.397,66.667,329255.000,1.000
-9.907,22.723,-29.650,-1.882,5.073,6.287,5.935,-20.547,0.009,0.975,-0.123,1.587,-2.930,0.458,66.667,329256.000,1.000
-15.077,16.169,-35.953,-5.265,1.035,3.138,5.588,-20.814,0.012,0.976,-0.121,1.709,-2.930,0.610,66.667,329257.000,1.000
-20.209,9.311,-42.847,-8.833,-4.092,-0.462,4.613,-21.716,0.013,0.979,-0.119,1.678,-2.899,0.702,66.667,329258.000,1.000
-24.783,3.212,-49.139,-12.050,-9.504,-3.747,3.967,-22.833,0.015,0.982,-0.121,1.648,-2.777,0.793,66.667,329259.000,1.000
-28.134,-1.601,-53.821,-14.483,-14.679,-6.632,4.204,-24.017,0.014,0.981,-0.120,1.648,-2.808,0.885,66.667,329260.000,1.000
-29.900,-5.335,-56.585,-16.139,-19.704,-9.758,4.690,-25.831,0.014,0.982,-0.119,1.434,-2.686,0.916,66.667,329261.000,1.000
-30.516,-8.738,-58.153,-17.707,-25.298,-14.246,3.377,-29.569,0.015,0.983,-0.122,1.404,-2.563,0.977,66.667,329262.000,1.000
-30.938,-12.430,-59.772,-20.043,-31.908,-20.840,-1.683,-36.092,0.017,0.983,-0.123,1.373,-2.380,0.885,66.667,329263.000,1.000
-31.870,-16.137,-62.163,-23.276,-38.689,-28.854,-9.911,-44.421,0.016,0.982,-0.123,1.373,-2.289,1.038,66.667,329264.000,1.000
-33.480,-18.770,-65.074,-26.650,-43.859,-36.401,-18.329,-52.081,0.017,0.982,-0.121,1.373,-2.167,1.007,66.667,329265.000,1.000
-35.459,-19.286,-67.489,-28.987,-45.881,-41.750,-24.248,-56.737,0.016,0.981,-0.118,1.251,-2.106,1.129,66.667,329266.000,1.000
-37.466,-17.476,-68.412,-29.523,-44.567,-44.422,-26.843,-57.691,0.016,0.981,-0.118,1.373,-2.014,1.038,66.667,329267.000,1.000
-39.193,-13.940,-67.292,-28.165,-40.857,-44.873,-26.776,-56.017,0.015,0.983,-0.123,1.282,-1.892,1.038,66.667,329268.000,1.000
-40.211,-9.342,-63.936,-25.145,-35.684,-43.238,-24.800,-53.189,0.016,0.985,-0.120,1.251,-1.770,0.977,66.667,329269.000,1.000
-40.168,-3.985,-58.474,-20.803,-29.328,-38.938,-21.051,-49.771,0.015,0.984,-0.121,1.221,-1.556,1.038,66.667,329270.000,1.000
-38.924,1.955,-51.343,-15.554,-21.582,-31.538,-15.821,-45.324,0.014,0.984,-0.125,1.129,-1.495,0.885,66.667,329271.000,1.000
-36.773,8.010,-43.433,-10.037,-12.563,-21.697,-9.905,-39.222,0.015,0.983,-0.123,1.068,-1.282,0.763,66.667,329272.000,1.000
-34.316,13.471,-35.854,-4.842,-2.878,-10.848,-3.955,-31.112,0.017,0.983,-0.122,1.068,-1.160,0.732,66.667,329273.000,1.000
-32.293,17.695,-29.634,-0.434,6.551,-0.469,1.713,-21.324,0.016,0.983,-0.125,0.946,-1.068,0.641,66.667,329274.000,1.000
-31.631,20.074,-25.723,2.489,14.437,7.898,6.382,-11.374,0.015,0.982,-0.124,0.977,-0.946,0.580,66.667,329275.000,1.000
-32.911,20.278,-24.560,3.366,19.790,13.151,9.260,-3.203,0.015,0.984,-0.125,1.068,-0.854,0.519,66.667,329276.000,1.000
-35.928,18.734,-25.728,2.323,22.577,15.592,10.961,2.170,0.013,0.983,-0.123,1.068,-0.641,0.519,66.667,329277.000,1.000
-39.763,16.526,-28.145,0.140,23.628,16.796,13.129,4.961,0.014,0.983,-0.122,1.190,-0.610,0.458,66.667,329278.000,1.000
-43.284,14.738,-30.684,-2.322,23.871,18.304,16.625,5.915,0.014,0.980,-0.120,1.129,-0.580,0.458,66.667,329279.000,1.000
-45.630,13.852,-32.714,-4.544,23.688,20.465,20.814,5.621,0.014,0.981,-0.123,1.099,-0.458,0.397,66.667,329280.000,1.000
-46.261,13.693,-34.050,-6.215,23.047,22.422,24.303,4.433,0.011,0.980,-0.122,1.068,-0.427,0.427,66.667,329281.000,1.000
-45.177,13.758,-34.870,-7.359,21.576,22.751,26.042,2.391,0.010,0.983,-0.119,1.099,-0.397,0.336,66.667,329282.000,1.000
-42.918,13.529,-35.485,-8.379,18.893,20.287,25.482,-0.691,0.010,0.984,-0.121,1.038,-0.488,0.397,66.667,329283.000,1.000
-40.453,12.504,-36.259,-9.889,14.898,14.697,22.445,-5.043,0.009,0.984,-0.122,0.977,-0.519,0.397,66.667,329284.000,1.000
-38.950,10.237,-37.679,-12.409,9.857,6.665,17.525,-10.820,0.008,0.983,-0.120,0.977,-0.488,0.488,66.667,329285.000,1.000
-38.966,6.911,-39.809,-15.612,4.843,-2.012,12.557,-17.471,0.007,0.985,-0.120,0.946,-0.488,0.580,66.667,329286.000,1.000
-40.282,3.507,-42.134,-18.396,1.366,-9.083,9.824,-23.585,0.007,0.982,-0.121,0.946,-0.580,0.519,66.667,329287.000,1.000
-42.319,1.001,-43.997,-19.733,0.369,-13.051,9.877,-27.857,0.007,0.980,-0.119,0.946,-0.702,0.519,66.667,329288.000,1.000
-44.543,-0.325,-45.080,-19.381,1.571,-13.907,10.985,-30.186,0.010,0.979,-0.123,1.007,-0.763,0.610,66.667,329289.000,1.000
-46.731,-0.883,-45.665,-18.018,3.623,-12.941,11.004,-31.550,0.010,0.979,-0.123,1.038,-0.854,0.732,66.667,329290.000,1.000
-48.731,-1.249,-46.243,-16.539,5.152,-11.544,9.196,-32.498,0.007,0.982,-0.121,1.007,-0.885,0.763,66.667,329291.000,1.000
-50.335,-1.705,-47.139,-15.462,5.401,-10.161,6.535,-32.335,0.008,0.980,-0.124,0.977,-0.885,0.793,66.667,329292.000,1.000
-51.309,-2.087,-48.283,-14.740,4.487,-8.053,4.808,-29.940,0.005,0.979,-0.121,0.885,-0.916,0.824,66.667,329293.000,1.000
-51.663,-1.890,-49.302,-14.121,3.314,-3.686,6.101,-24.778,0.007,0.979,-0.121,0.916,-1.068,0.946,66.667,329294.000,1.000
-52.009,-0.861,-50.031,-13.758,2.832,4.002,11.946,-17.279,0.008,0.979,-0.121,0.885,-1.160,0.977,66.667,329295.000,1.000
-53.267,0.452,-50.786,-14.157,3.197,13.885,21.124,-9.023,0.007,0.977,-0.122,0.854,-1.221,1.068,66.667,329296.000,1.000
-56.065,1.012,-52.137,-15.721,3.602,22.436,29.300,-2.450,0.010,0.979,-0.123,0.763,-1.221,1.068,66.667,329297.000,1.000
-60.112,0.312,-54.121,-18.101,3.457,26.383,32.318,0.913,0.008,0.979,-0.125,0.793,-1.312,1.038,66.667,329298.000,1.000
-64.299,-1.100,-55.997,-20.190,3.256,25.329,29.659,1.785,0.009,0.978,-0.125,0.824,-1.221,1.099,66.667,329299.000,1.000
-67.488,-2.184,-57.004,-21.082,3.857,21.448,24.046,2.022,0.010,0.976,-0.124,0.946,-1.282,1.068,66.667,329300.000,1.000
-69.026,-2.218,-56.990,-20.923,5.587,17.632,18.688,2.793,0.009,0.976,-0.126,1.038,-1.251,0.946,66.667,329301.000,1.000
-69.050,-1.241,-56.540,-20.829,8.006,15.942,15.850,4.147,0.009,0.975,-0.123,1.068,-1.251,0.916,66.667,329302.000,1.000
-68.188,0.117,-56.321,-21.605,10.670,17.080,16.698,5.979,0.011,0.977,-0.126,1.099,-1.343,1.068,66.667,329303.000,1.000
-67.141,1.081,-56.563,-23.039,13.510,20.443,21.083,8.380,0.011,0.977,-0.128,1.038,-1.343,1.038,66.667,329304.000,1.000
-66.604,0.970,-57.233,-24.578,16.311,24.237,27.147,10.927,0.010,0.980,-0.129,1.129,-1.343,1.099,66.667,329305.000,1.000
-66.824,-0.384,-57.978,-25.803,18.814,26.571,32.232,12.809,0.012,0.980,-0.130,1.251,-1.251,1.099,66.667,329306.000,1.000
-67.453,-2.251,-58.152,-26.432,21.130,27.011,35.120,13.547,0.012,0.980,-0.126,1.282,-1.282,1.312,66.667,329307.000,1.000
-67.803,-3.379,-57.088,-26.116,23.754,26.665,36.478,13.186,0.014,0.980,-0.125,1.282,-1.312,1.312,66.667,329308.000,1.000
-67.288,-2.883,-54.470,-24.492,26.954,26.603,37.218,12.051,0.014,0.978,-0.127,1.312,-1.251,1.373,66.667,329309.000,1.000
-65.734,-0.755,-50.529,-21.419,30.306,26.717,37.300,10.568,0.015,0.977,-0.125,1.312,-1.251,1.495,66.667,329310.000,1.000
-63.267,2.375,-45.827,-16.979,33.177,26.233,36.224,9.306,0.015,0.973,-0.128,1.343,-1.251,1.526,66.667,329311.000,1.000
-60.495,5.510,-41.284,-11.786,34.966,24.343,33.977,8.705,0.015,0.970,-0.131,1.465,-1.160,1.556,66.667,329312.000,1.000
-58.384,7.524,-37.981,-7.006,35.150,20.501,30.755,8.772,0.015,0.972,-0.129,1.495,-1.099,1.648,66.667,329313.000,1.000
-57.864,7.632,-36.719,-3.953,33.355,14.946,26.610,9.094,0.014,0.976,-0.132,1.678,-0.946,1.648,66.667,329314.000,1.000
-59.450,5.826,-37.702,-3.427,29.688,9.237,22.143,9.319,0.014,0.980,-0.129,1.709,-0.946,1.587,66.667,329315.000,1.000
-62.678,3.038,-40.190,-4.917,25.340,6.056,19.113,9.784,0.013,0.986,-0.125,1.709,-0.885,1.587,66.667,329316.000,1.000
-66.430,0.468,-43.083,-7.175,21.790,7.198,19.150,10.889,0.014,0.988,-0.124,1.434,-0.824,1.556,66.667,329317.000,1.000
-69.608,-1.235,-45.650,-9.310,19.651,11.816,21.531,12.268,0.013,0.989,-0.125,1.282,-0.763,1.556,66.667,329318.000,1.000
-71.390,-1.888,-47.541,-10.997,18.782,17.555,23.923,13.273,0.010,0.990,-0.127,1.160,-0.732,1.526,66.667,329319.000,1.000
-71.566,-1.564,-48.736,-12.295,18.795,22.675,24.934,13.778,0.010,0.988,-0.129,0.946,-0.763,1.556,66.667,329320.000,1.000
-70.548,-0.538,-49.385,-13.320,19.368,26.611,24.750,14.311,0.010,0.986,-0.131,0.793,-0.824,1.465,66.667,329321.000,1.000
-69.064,0.843,-49.696,-14.150,20.147,29.351,24.321,15.277,0.008,0.985,-0.131,0.671,-0.824,1.373,66.667,329322.000,1.000
-67.799,2.117,-49.938,-14.979,20.700,30.874,24.269,16.187,0.012,0.980,-0.133,0.549,-0.916,1.282,66.667,329323.000,1.000
-67.261,2.755,-50.528,-16.199,20.583,31.128,24.510,16.089,0.010,0.975,-0.134,0.458,-1.007,1.190,66.667,329324.000,1.000
-67.591,2.602,-51.766,-18.004,19.652,30.454,24.851,14.780,0.008,0.975,-0.135,0.488,-1.007,1.099,66.667,329325.000,1.000
-68.315,2.161,-53.340,-19.865,18.423,29.620,25.420,13.345,0.003,0.978,-0.133,0.580,-1.129,0.946,66.667,329326.000,1.000
-68.954,2.136,-54.605,-20.970,17.565,29.107,26.689,13.376,0.001,0.985,-0.131,0.671,-1.312,0.824,66.667,329327.000,1.000
-69.558,2.748,-55.223,-21.015,17.256,28.768,28.798,15.551,0.000,0.988,-0.127,0.610,-1.648,0.763,66.667,329328.000,1.000
-70.751,3.274,-55.752,-20.787,16.635,27.565,30.353,18.351,0.000,0.990,-0.127,0.458,-1.801,0.671,66.667,329329.000,1.000
-73.554,2.108,-57.648,-21.959,13.858,23.428,28.262,18.418,0.002,0.990,-0.124,0.214,-1.953,0.519,66.667,329330.000,1.000
-78.504,-1.994,-61.914,-25.534,7.839,15.088,20.243,13.305,0.004,0.987,-0.127,0.092,-2.045,0.671,66.667,329331.000,1.000
