EEG 1,EEG 2,EEG 3,EEG 4,EEG 5,EEG 6,EEG 7,EEG 8,Accelerometer X,Accelerometer Y,Accelerometer Z,Gyroscope X,Gyroscope Y,Gyroscope Z,Battery Level,Counter,Validation Indicator
40.651,64.450,52.976,51.274,51.790,57.954,45.614,45.739,0.000,0.986,-0.077,-1.007,-3.296,1.404,66.667,274273.000,1.000
34.011,57.555,47.382,45.248,46.030,50.674,40.493,39.272,0.001,0.981,-0.083,-1.068,-3.235,1.343,66.667,274274.000,1.000
29.688,51.512,42.543,39.541,39.890,42.173,33.279,32.113,0.005,0.979,-0.083,-0.885,-3.174,1.221,66.667,274275.000,1.000
29.938,49.033,40.865,36.683,36.237,36.027,27.375,27.230,0.007,0.980,-0.085,-0.549,-2.930,1.221,66.667,274276.000,1.000
33.647,49.862,42.055,36.707,35.546,33.827,25.178,25.653,0.007,0.982,-0.086,-0.488,-2.930,1.099,66.667,274277.000,1.000
38.035,52.097,44.287,38.104,36.506,34.861,26.911,26.620,0.008,0.982,-0.084,-0.458,-2.838,1.129,66.667,274278.000,1.000
40.414,53.439,45.448,38.949,36.828,36.321,29.588,27.993,0.008,0.980,-0.085,-0.397,-2.563,1.007,66.667,274279.000,1.000
39.031,51.976,43.889,37.653,34.322,34.977,28.918,27.477,0.009,0.981,-0.084,-0.244,-2.319,0.977,66.667,274280.000,1.000
34.405,47.879,39.825,34.311,28.926,30.240,23.755,24.829,0.010,0.983,-0.084,-0.061,-2.136,0.916,66.667,274281.000,1.000
29.823,43.983,35.920,31.283,23.491,25.155,17.313,22.422,0.013,0.986,-0.088,0.061,-1.923,0.854,66.667,274282.000,1.000
28.578,43.169,34.885,31.009,21.165,23.412,13.846,22.797,0.010,0.988,-0.086,0.092,-1.617,0.824,66.667,274283.000,1.000
30.954,45.496,36.886,33.615,22.565,25.974,14.952,26.169,0.010,0.989,-0.084,0.031,-1.282,0.916,66.667,274284.000,1.000
34.426,48.499,39.749,37.041,25.739,30.820,19.021,30.351,0.008,0.990,-0.083,-0.122,-1.038,0.916,66.667,274285.000,1.000
35.854,49.405,40.845,38.767,27.880,34.672,23.000,32.493,0.005,0.990,-0.081,-0.153,-0.946,0.763,66.667,274286.000,1.000
33.763,47.044,39.010,37.670,27.442,35.155,24.557,31.491,0.004,0.993,-0.083,-0.244,-0.793,0.641,66.667,274287.000,1.000
29.268,42.619,35.319,34.752,25.168,32.567,23.803,29.011,0.004,0.995,-0.084,-0.275,-0.671,0.580,66.667,274288.000,1.000
24.827,38.365,31.857,31.957,22.920,29.173,22.467,27.522,0.001,0.998,-0.083,-0.458,-0.397,0.671,66.667,274289.000,1.000
21.912,35.282,29.583,30.186,21.452,26.331,21.450,27.606,-0.001,0.997,-0.078,-0.702,-0.336,0.458,66.667,274290.000,1.000
20.363,32.860,27.962,29.003,20.120,23.501,20.431,28.082,-0.001,0.994,-0.081,-0.916,-0.275,0.458,66.667,274291.000,1.000
19.692,30.635,26.461,27.996,18.509,20.077,18.967,27.881,-0.004,0.992,-0.081,-1.038,-0.336,0.458,66.667,274292.000,1.000
19.632,28.821,25.133,27.142,16.762,16.450,16.595,26.436,-0.002,0.992,-0.080,-1.190,-0.397,0.427,66.667,274293.000,1.000
20.146,27.964,24.426,26.599,15.221,13.637,12.963,23.676,-0.001,0.994,-0.080,-1.404,-0.366,0.366,66.667,274294.000,1.000
21.846,29.059,25.313,27.023,14.747,13.030,9.071,20.814,0.000,0.998,-0.081,-1.465,-0.275,0.427,66.667,274295.000,1.000
25.369,32.855,28.530,29.049,16.143,15.601,6.746,19.619,0.000,1.002,-0.080,-1.678,-0.305,0.427,66.667,274296.000,1.000
30.082,38.449,33.349,32.192,19.055,20.920,6.836,20.726,-0.001,1.002,-0.078,-1.923,-0.366,0.366,66.667,274297.000,1.000
33.962,43.442,37.641,34.780,21.985,27.224,9.205,23.359,0.001,1.002,-0.077,-2.258,-0.183,0.397,66.667,274298.000,1.000
35.096,45.586,39.344,35.168,23.390,31.979,12.923,26.003,0.001,0.998,-0.076,-2.502,-0.092,0.397,66.667,274299.000,1.000
33.227,44.323,37.884,32.918,22.630,32.798,16.095,27.136,0.001,0.994,-0.076,-2.563,-0.183,0.488,66.667,274300.000,1.000
29.746,40.905,34.309,28.873,20.171,28.920,16.725,25.884,0.001,0.992,-0.079,-2.716,-0.153,0.519,66.667,274301.000,1.000
26.545,37.253,30.425,24.460,17.226,21.961,13.897,22.416,0.001,0.992,-0.076,-2.808,-0.153,0.580,66.667,274302.000,1.000
24.842,34.762,27.673,20.848,14.896,14.778,8.314,17.763,-0.002,0.991,-0.075,-2.808,-0.183,0.671,66.667,274303.000,1.000
24.830,33.796,26.552,18.564,13.666,9.672,1.931,13.334,-0.004,0.989,-0.074,-2.838,-0.122,0.580,66.667,274304.000,1.000
25.926,33.938,26.721,17.514,13.517,7.595,-2.998,10.405,-0.007,0.988,-0.076,-2.960,-0.122,0.305,66.667,274305.000,1.000
27.141,34.503,27.375,17.199,14.076,8.217,-5.242,9.558,-0.008,0.984,-0.075,-2.930,-0.183,0.244,66.667,274306.000,1.000
27.710,34.945,27.815,17.184,14.878,10.356,-5.193,10.461,-0.010,0.981,-0.079,-2.899,-0.336,0.275,66.667,274307.000,1.000
27.313,34.960,27.602,17.213,15.410,12.559,-3.796,12.104,-0.010,0.981,-0.079,-2.777,-0.366,0.244,66.667,274308.000,1.000
25.996,34.389,26.530,17.120,15.313,13.992,-1.475,13.472,-0.008,0.983,-0.079,-2.686,-0.580,0.183,66.667,274309.000,1.000
24.161,33.369,24.791,16.957,14.759,15.059,1.889,14.331,-0.010,0.983,-0.077,-2.655,-0.793,0.092,66.667,274310.000,1.000
22.214,32.098,22.691,16.778,14.055,16.286,5.866,15.004,-0.009,0.982,-0.074,-2.594,-0.793,0.183,66.667,274311.000,1.000
20.242,30.396,20.304,16.342,13.101,16.926,8.586,15.486,-0.008,0.981,-0.075,-2.380,-0.854,0.183,66.667,274312.000,1.000
18.080,28.016,17.602,15.223,11.583,15.747,8.355,15.339,-0.009,0.981,-0.077,-2.350,-0.977,0.153,66.667,274313.000,1.000
15.900,25.340,14.971,13.466,9.809,13.074,5.845,14.623,-0.008,0.982,-0.078,-2.167,-0.977,0.122,66.667,274314.000,1.000
14.488,23.452,13.262,11.893,8.839,11.110,3.613,14.343,-0.008,0.981,-0.077,-2.106,-0.977,0.092,66.667,274315.000,1.000
14.410,23.036,12.858,11.233,9.244,11.684,3.201,15.139,-0.007,0.978,-0.078,-1.801,-1.038,0.092,66.667,274316.000,1.000
15.233,23.455,13.055,11.310,10.278,14.153,3.413,16.141,-0.007,0.974,-0.073,-1.495,-1.190,0.092,66.667,274317.000,1.000
15.824,23.367,12.644,11.335,10.584,16.006,2.170,15.938,-0.006,0.973,-0.074,-1.251,-1.251,0.275,66.667,274318.000,1.000
15.509,22.087,11.161,10.960,9.738,15.391,-0.824,14.387,-0.007,0.974,-0.073,-0.977,-1.282,0.427,66.667,274319.000,1.000
14.813,20.262,9.505,10.845,8.801,12.732,-3.735,13.034,-0.008,0.980,-0.074,-0.519,-1.343,0.458,66.667,274320.000,1.000
14.884,19.140,9.122,11.951,9.122,9.788,-4.718,13.607,-0.009,0.987,-0.071,-0.397,-1.312,0.458,66.667,274321.000,1.000
16.533,19.468,10.829,14.566,11.092,8.050,-3.740,16.416,-0.012,0.989,-0.070,-0.275,-1.434,0.549,66.667,274322.000,1.000
19.523,21.126,14.189,17.884,13.947,8.161,-1.906,20.184,-0.014,0.988,-0.071,-0.397,-1.617,0.549,66.667,274323.000,1.000
22.575,23.253,17.775,20.437,16.401,9.807,-0.426,23.045,-0.013,0.977,-0.072,-0.366,-1.770,0.519,66.667,274324.000,1.000
24.245,24.858,20.133,21.081,17.460,11.956,-0.177,23.694,-0.010,0.971,-0.073,-0.092,-1.801,0.488,66.667,274325.000,1.000
23.900,25.512,20.650,19.668,16.925,13.673,-1.048,22.081,-0.008,0.975,-0.073,0.153,-1.892,0.427,66.667,274326.000,1.000
22.130,25.572,19.857,17.125,15.606,14.924,-1.698,19.540,-0.006,0.981,-0.076,0.519,-1.984,0.427,66.667,274327.000,1.000
20.151,25.772,18.864,14.769,14.684,16.262,-0.511,17.886,-0.006,0.988,-0.074,0.732,-2.014,0.458,66.667,274328.000,1.000
18.845,26.390,18.421,13.395,14.668,17.693,2.591,17.914,-0.003,0.992,-0.072,0.671,-2.014,0.549,66.667,274329.000,1.000
18.271,26.940,18.421,12.884,15.029,18.349,5.846,18.938,-0.002,0.997,-0.071,0.519,-2.075,0.488,66.667,274330.000,1.000
17.981,26.798,18.262,12.611,14.899,17.581,7.707,19.860,0.000,0.998,-0.073,0.336,-1.984,0.732,66.667,274331.000,1.000
17.926,26.139,17.848,12.429,14.322,16.209,8.633,20.540,0.000,0.995,-0.073,0.092,-1.892,0.824,66.667,274332.000,1.000
18.438,25.812,17.692,12.720,14.089,15.823,10.070,21.555,0.001,0.995,-0.073,0.000,-1.892,0.793,66.667,274333.000,1.000
19.432,26.196,18.049,13.581,14.532,16.806,11.982,22.967,-0.001,0.992,-0.076,-0.061,-1.831,0.885,66.667,274334.000,1.000
20.383,26.950,18.700,14.669,15.359,18.279,13.161,24.362,0.000,0.990,-0.076,0.000,-1.740,0.854,66.667,274335.000,1.000
20.913,27.719,19.383,15.694,16.358,19.678,13.477,25.641,0.000,0.988,-0.077,0.061,-1.678,0.824,66.667,274336.000,1.000
21.067,28.433,20.020,16.642,17.632,21.233,13.843,26.998,-0.001,0.986,-0.076,0.000,-1.648,0.824,66.667,274337.000,1.000
20.991,29.111,20.490,17.506,19.070,22.990,14.632,28.351,-0.002,0.984,-0.077,0.092,-1.556,0.793,66.667,274338.000,1.000
20.805,29.655,20.625,18.173,20.193,24.405,15.368,29.397,-0.002,0.986,-0.077,0.275,-1.526,0.732,66.667,274339.000,1.000
20.689,29.884,20.376,18.465,20.460,24.998,15.546,29.879,-0.002,0.986,-0.073,0.305,-1.434,0.671,66.667,274340.000,1.000
20.647,29.424,19.542,17.919,19.160,24.434,14.438,28.983,-0.002,0.985,-0.078,0.397,-1.434,0.671,66.667,274341.000,1.000
20.411,27.781,17.717,15.982,15.641,22.244,10.779,25.480,-0.003,0.986,-0.076,0.488,-1.404,0.458,66.667,274342.000,1.000
19.672,24.927,14.781,12.621,10.035,18.333,4.271,19.342,-0.005,0.985,-0.076,0.580,-1.404,0.427,66.667,274343.000,1.000
18.447,21.591,11.357,8.659,3.607,13.589,-3.500,12.424,-0.005,0.984,-0.079,0.702,-1.373,0.305,66.667,274344.000,1.000
17.059,18.788,8.480,5.327,-1.919,9.559,-9.913,7.231,-0.004,0.984,-0.078,0.793,-1.343,0.275,66.667,274345.000,1.000
15.647,17.049,6.700,3.341,-5.494,7.420,-12.692,5.338,-0.003,0.986,-0.079,0.824,-1.312,0.153,66.667,274346.000,1.000
14.181,16.310,5.916,2.629,-7.066,7.448,-11.261,6.675,-0.004,0.987,-0.078,0.946,-1.221,0.061,66.667,274347.000,1.000
12.711,16.325,5.747,2.604,-7.387,9.072,-7.367,9.508,-0.002,0.988,-0.075,1.007,-1.190,0.061,66.667,274348.000,1.000
11.418,16.759,5.817,2.541,-7.484,11.080,-4.200,11.411,-0.003,0.990,-0.076,0.977,-1.251,0.092,66.667,274349.000,1.000
10.625,17.329,6.011,2.057,-7.897,12.349,-4.088,10.983,-0.005,0.990,-0.076,0.885,-1.282,0.153,66.667,274350.000,1.000
10.678,17.975,6.547,1.317,-8.387,12.533,-6.826,8.714,-0.005,0.989,-0.076,0.793,-1.221,0.275,66.667,274351.000,1.000
11.814,18.777,7.828,0.955,-8.122,12.027,-10.120,6.504,-0.005,0.991,-0.074,0.793,-1.221,0.305,66.667,274352.000,1.000
13.887,19.691,9.953,1.561,-6.397,11.417,-11.223,6.326,-0.007,0.991,-0.076,0.732,-1.221,0.183,66.667,274353.000,1.000
16.318,20.353,12.388,3.163,-3.302,11.068,-8.937,8.788,-0.008,0.993,-0.078,0.610,-1.282,0.275,66.667,274354.000,1.000
18.457,20.416,14.372,5.262,0.345,11.125,-4.295,12.841,-0.010,0.992,-0.077,0.427,-1.312,0.336,66.667,274355.000,1.000
19.782,19.838,15.390,7.133,3.443,11.333,0.452,16.641,-0.006,0.991,-0.078,0.275,-1.434,0.427,66.667,274356.000,1.000
19.991,18.737,15.329,8.171,5.123,10.996,3.033,18.676,-0.008,0.992,-0.078,0.305,-1.434,0.458,66.667,274357.000,1.000
19.153,17.383,14.438,8.145,5.133,9.636,2.379,18.500,-0.008,0.991,-0.077,0.183,-1.495,0.458,66.667,274358.000,1.000
17.814,16.210,13.284,7.409,4.111,7.779,-0.633,16.872,-0.010,0.990,-0.079,0.031,-1.526,0.580,66.667,274359.000,1.000
16.686,15.683,12.532,6.757,3.269,6.799,-3.727,15.224,-0.009,0.989,-0.075,-0.031,-1.495,0.580,66.667,274360.000,1.000
16.053,15.956,12.412,6.789,3.372,7.472,-4.955,14.712,-0.009,0.990,-0.076,-0.153,-1.587,0.610,66.667,274361.000,1.000
15.812,16.672,12.649,7.626,4.270,9.001,-4.000,15.837,-0.008,0.991,-0.080,-0.183,-1.617,0.610,66.667,274362.000,1.000
15.722,17.214,12.744,8.960,5.089,9.849,-1.797,18.257,-0.005,0.988,-0.078,-0.275,-1.617,0.671,66.667,274363.000,1.000
15.504,17.037,12.235,10.184,4.733,9.141,0.138,20.576,-0.006,0.986,-0.076,-0.366,-1.617,0.610,66.667,274364.000,1.000
14.993,16.064,10.973,10.727,2.638,7.252,0.478,21.301,-0.006,0.987,-0.076,-0.366,-1.709,0.610,66.667,274365.000,1.000
14.123,14.676,9.122,10.322,-0.886,5.336,-1.067,20.128,-0.005,0.988,-0.080,-0.397,-1.678,0.793,66.667,274366.000,1.000
12.908,13.213,6.944,9.053,-5.017,4.330,-4.019,17.652,-0.003,0.987,-0.079,-0.427,-1.617,0.763,66.667,274367.000,1.000
11.415,11.764,4.630,7.198,-9.117,4.239,-7.827,14.188,-0.006,0.986,-0.077,-0.336,-1.678,0.854,66.667,274368.000,1.000
9.803,10.319,2.410,5.182,-12.827,4.251,-12.039,9.793,-0.005,0.985,-0.077,-0.427,-1.648,0.824,66.667,274369.000,1.000
8.279,8.969,0.656,3.512,-15.749,3.444,-15.871,5.158,-0.004,0.986,-0.081,-0.519,-1.556,0.916,66.667,274370.000,1.000
6.911,7.789,-0.427,2.458,-17.507,1.391,-17.996,1.629,-0.006,0.986,-0.081,-0.488,-1.617,1.007,66.667,274371.000,1.000
5.847,6.876,-0.832,2.055,-17.772,-1.353,-17.318,0.455,-0.004,0.986,-0.080,-0.519,-1.556,0.977,66.667,274372.000,1.000
5.383,6.509,-0.646,2.205,-16.482,-3.517,-14.246,1.933,-0.003,0.987,-0.078,-0.519,-1.495,1.007,66.667,274373.000,1.000
5.586,6.772,-0.133,2.616,-14.158,-4.393,-11.065,4.996,-0.005,0.986,-0.079,-0.549,-1.465,0.977,66.667,274374.000,1.000
6.165,7.369,0.340,2.950,-11.636,-4.405,-10.119,7.904,-0.003,0.985,-0.080,-0.610,-1.434,1.038,66.667,274375.000,1.000
6.799,8.058,0.613,3.095,-9.494,-4.184,-11.736,9.445,-0.004,0.987,-0.081,-0.610,-1.312,1.007,66.667,274376.000,1.000
7.493,8.942,0.905,3.250,-7.733,-3.608,-14.343,9.567,-0.002,0.988,-0.079,-0.610,-1.251,0.977,66.667,274377.000,1.000
8.284,10.148,1.381,3.460,-6.262,-2.225,-15.937,8.866,-0.002,0.988,-0.081,-0.610,-1.190,1.190,66.667,274378.000,1.000
8.890,11.329,1.716,3.325,-5.354,-0.228,-15.574,7.776,-0.004,0.988,-0.078,-0.549,-1.068,1.160,66.667,274379.000,1.000
9.008,11.955,1.454,2.457,-5.371,1.598,-13.800,6.541,-0.002,0.988,-0.081,-0.549,-1.129,1.007,66.667,274380.000,1.000
8.581,11.887,0.483,0.884,-6.411,2.578,-12.099,5.298,-0.002,0.989,-0.078,-0.580,-1.038,0.946,66.667,274381.000,1.000
7.785,11.413,-0.894,-0.954,-8.130,2.602,-11.857,4.117,-0.003,0.988,-0.076,-0.641,-0.977,0.916,66.667,274382.000,1.000
6.843,10.964,-2.200,-2.537,-9.844,2.141,-13.065,3.328,-0.002,0.990,-0.079,-0.702,-0.977,0.763,66.667,274383.000,1.000
6.033,10.820,-3.000,-3.486,-10.771,1.846,-14.361,3.635,-0.003,0.989,-0.079,-0.793,-0.977,0.793,66.667,274384.000,1.000
5.745,11.099,-2.951,-3.576,-10.350,2.165,-14.266,5.682,-0.002,0.989,-0.078,-0.793,-0.854,0.763,66.667,274385.000,1.000
6.102,11.670,-2.065,-2.913,-8.777,3.025,-12.468,9.086,-0.004,0.989,-0.076,-0.702,-0.824,0.793,66.667,274386.000,1.000
6.697,12.004,-0.845,-2.026,-7.112,3.670,-10.376,12.029,-0.005,0.989,-0.078,-0.793,-0.854,0.671,66.667,274387.000,1.000
6.779,11.475,-0.059,-1.650,-6.698,3.001,-9.934,12.445,-0.003,0.989,-0.078,-0.763,-0.885,0.641,66.667,274388.000,1.000
5.850,9.839,-0.257,-2.194,-8.249,0.396,-11.956,9.748,-0.005,0.990,-0.076,-0.702,-0.854,0.671,66.667,274389.000,1.000
4.126,7.505,-1.407,-3.401,-11.400,-3.673,-15.610,5.164,-0.003,0.990,-0.077,-0.763,-0.793,0.641,66.667,274390.000,1.000
2.279,5.248,-3.036,-4.604,-15.031,-7.886,-19.081,0.729,-0.005,0.990,-0.075,-0.702,-0.702,0.641,66.667,274391.000,1.000
0.998,3.766,-4.454,-5.065,-17.719,-10.681,-20.574,-1.587,-0.006,0.990,-0.075,-0.702,-0.702,0.671,66.667,274392.000,1.000
0.597,3.368,-5.118,-4.401,-18.466,-11.027,-19.098,-0.572,-0.007,0.988,-0.076,-0.702,-0.702,0.671,66.667,274393.000,1.000
0.805,3.696,-5.029,-2.895,-17.395,-9.198,-15.256,3.427,-0.008,0.988,-0.075,-0.610,-0.732,0.610,66.667,274394.000,1.000
0.979,3.987,-4.643,-1.306,-15.604,-6.614,-11.073,8.564,-0.006,0.989,-0.075,-0.610,-0.732,0.641,66.667,274395.000,1.000
0.456,3.542,-4.595,-0.491,-14.514,-4.989,-8.823,12.418,-0.007,0.988,-0.076,-0.610,-0.641,0.671,66.667,274396.000,1.000
-1.009,1.983,-5.376,-1.024,-15.189,-5.556,-10.086,13.067,-0.008,0.989,-0.075,-0.610,-0.732,0.824,66.667,274397.000,1.000
-3.124,-0.526,-7.084,-2.983,-17.905,-8.515,-14.784,10.111,-0.008,0.988,-0.076,-0.549,-0.702,0.854,66.667,274398.000,1.000
-5.272,-3.304,-9.350,-5.848,-21.935,-12.837,-20.811,5.159,-0.007,0.985,-0.077,-0.519,-0.671,0.824,66.667,274399.000,1.000
-6.819,-5.485,-11.516,-8.714,-25.890,-16.788,-25.290,0.773,-0.010,0.986,-0.075,-0.549,-0.763,0.946,66.667,274400.000,1.000
-7.508,-6.557,-13.138,-10.891,-28.699,-19.112,-26.866,-1.645,-0.007,0.986,-0.076,-0.458,-0.916,0.854,66.667,274401.000,1.000
-7.436,-6.530,-14.083,-12.060,-29.954,-19.526,-26.452,-2.364,-0.005,0.987,-0.076,-0.427,-0.854,0.885,66.667,274402.000,1.000
-6.828,-5.571,-14.283,-12.077,-29.573,-18.249,-25.390,-2.029,-0.004,0.990,-0.074,-0.397,-0.916,0.916,66.667,274403.000,1.000
-5.954,-3.985,-13.737,-11.043,-27.776,-15.929,-24.398,-1.056,-0.005,0.991,-0.074,-0.397,-0.793,0.916,66.667,274404.000,1.000
-5.086,-2.278,-12.618,-9.420,-25.219,-13.610,-24.037,-0.050,-0.005,0.989,-0.077,-0.366,-0.854,1.007,66.667,274405.000,1.000
-4.459,-0.937,-11.223,-7.796,-22.684,-12.027,-24.431,0.416,-0.008,0.990,-0.077,-0.366,-0.763,1.129,66.667,274406.000,1.000
-4.129,-0.177,-9.733,-6.417,-20.466,-11.007,-24.603,0.724,-0.009,0.990,-0.078,-0.458,-0.763,1.160,66.667,274407.000,1.000
-4.013,0.137,-8.217,-5.191,-18.438,-9.931,-23.057,1.972,-0.008,0.986,-0.079,-0.458,-0.702,1.160,66.667,274408.000,1.000
-4.021,0.237,-6.845,-4.054,-16.606,-8.674,-19.598,4.469,-0.009,0.986,-0.077,-0.397,-0.793,1.129,66.667,274409.000,1.000
-4.079,0.266,-5.867,-3.099,-15.177,-7.684,-15.607,7.313,-0.008,0.987,-0.075,-0.305,-0.824,1.007,66.667,274410.000,1.000
-4.163,0.304,-5.440,-2.451,-14.229,-7.297,-12.329,9.510,-0.005,0.987,-0.077,-0.305,-0.824,1.007,66.667,274411.000,1.000
-4.112,0.554,-5.301,-1.971,-13.424,-7.238,-10.068,10.777,-0.004,0.988,-0.077,-0.275,-0.885,1.129,66.667,274412.000,1.000
-3.567,1.418,-4.855,-1.297,-12.362,-6.821,-8.794,11.152,-0.004,0.988,-0.077,-0.336,-0.885,1.190,66.667,274413.000,1.000
-2.333,3.048,-3.768,-0.233,-11.085,-5.653,-8.819,10.496,-0.004,0.991,-0.075,-0.305,-0.885,1.190,66.667,274414.000,1.000
-0.760,4.957,-2.395,0.943,-10.137,-4.059,-10.663,8.570,0.000,0.990,-0.079,-0.336,-0.854,1.160,66.667,274415.000,1.000
0.237,6.155,-1.641,1.510,-10.279,-2.945,-14.344,5.396,0.001,0.988,-0.075,-0.366,-0.824,1.129,66.667,274416.000,1.000
-0.145,5.803,-2.240,0.876,-11.820,-3.181,-18.901,1.692,0.000,0.986,-0.074,-0.305,-0.732,1.251,66.667,274417.000,1.000
-2.013,3.841,-4.245,-1.010,-14.384,-5.081,-22.737,-1.500,0.000,0.984,-0.075,-0.275,-0.671,1.373,66.667,274418.000,1.000
-4.733,0.988,-7.048,-3.673,-17.174,-8.286,-24.827,-3.774,0.000,0.983,-0.076,-0.183,-0.641,1.465,66.667,274419.000,1.000
-7.169,-1.540,-9.558,-6.253,-19.186,-11.836,-25.116,-5.225,0.000,0.982,-0.076,-0.153,-0.519,1.373,66.667,274420.000,1.000
-8.294,-2.625,-10.745,-7.928,-19.684,-14.695,-24.092,-5.839,0.000,0.982,-0.077,-0.092,-0.427,1.373,66.667,274421.000,1.000
-7.787,-1.980,-10.272,-8.343,-18.690,-16.427,-22.750,-5.596,-0.004,0.984,-0.080,0.000,-0.427,1.312,66.667,274422.000,1.000
-6.279,-0.289,-8.738,-7.795,-17.043,-17.191,-22.219,-4.817,-0.003,0.989,-0.078,0.061,-0.305,1.312,66.667,274423.000,1.000
-5.051,1.221,-7.358,-7.055,-15.840,-17.218,-22.956,-3.978,-0.003,0.991,-0.076,0.000,-0.244,1.251,66.667,274424.000,1.000
-5.278,1.589,-7.226,-6.904,-15.718,-16.426,-24.316,-3.278,-0.002,0.993,-0.075,-0.061,-0.275,1.251,66.667,274425.000,1.000
-7.381,0.616,-8.783,-7.796,-16.732,-14.705,-25.095,-2.894,-0.001,0.993,-0.076,-0.122,-0.244,1.251,66.667,274426.000,1.000
-10.718,-1.220,-11.626,-9.667,-18.534,-12.314,-24.608,-3.269,-0.002,0.992,-0.077,-0.153,-0.275,1.343,66.667,274427.000,1.000
-14.042,-3.175,-14.836,-12.080,-20.712,-9.969,-23.229,-4.699,-0.003,0.992,-0.073,-0.275,-0.092,1.190,66.667,274428.000,1.000
-16.379,-4.784,-17.574,-14.564,-23.011,-8.624,-22.215,-6.887,-0.007,0.992,-0.076,-0.275,-0.122,0.977,66.667,274429.000,1.000
-17.382,-5.881,-19.275,-16.701,-25.143,-8.843,-22.650,-9.028,-0.009,0.994,-0.073,-0.275,-0.122,1.007,66.667,274430.000,1.000
-17.142,-6.338,-19.651,-18.108,-26.714,-10.435,-24.595,-10.304,-0.012,0.993,-0.074,-0.397,-0.214,0.885,66.667,274431.000,1.000
-15.832,-6.018,-18.650,-18.393,-27.248,-12.645,-27.185,-10.051,-0.013,0.994,-0.073,-0.488,-0.427,0.671,66.667,274432.000,1.000
-13.689,-4.891,-16.494,-17.297,-26.405,-14.526,-28.968,-7.830,-0.015,0.993,-0.073,-0.549,-0.519,0.488,66.667,274433.000,1.000
-11.085,-3.203,-13.667,-14.944,-24.261,-15.406,-28.856,-4.071,-0.016,0.993,-0.073,-0.580,-0.610,0.366,66.667,274434.000,1.000
-8.351,-1.325,-10.704,-11.807,-21.324,-15.095,-26.997,-0.275,-0.013,0.993,-0.074,-0.580,-0.854,0.275,66.667,274435.000,1.000
-5.874,0.343,-8.235,-8.645,-18.462,-13.942,-24.607,1.841,-0.014,0.992,-0.075,-0.671,-0.977,0.031,66.667,274436.000,1.000
-4.118,1.362,-6.885,-6.228,-16.498,-12.617,-23.034,1.506,-0.013,0.994,-0.074,-0.641,-1.160,0.061,66.667,274437.000,1.000
-3.327,1.544,-6.839,-4.898,-15.695,-11.532,-22.607,-0.555,-0.014,0.992,-0.074,-0.824,-1.312,0.092,66.667,274438.000,1.000
-3.328,1.040,-7.731,-4.455,-15.707,-10.675,-22.756,-2.664,-0.012,0.992,-0.073,-0.793,-1.373,0.092,66.667,274439.000,1.000
-3.715,0.221,-8.951,-4.468,-16.037,-10.034,-23.073,-3.452,-0.010,0.988,-0.071,-0.793,-1.434,0.031,66.667,274440.000,1.000
-4.268,-0.558,-10.089,-4.744,-16.549,-9.973,-23.706,-2.843,-0.011,0.989,-0.069,-0.793,-1.556,0.122,66.667,274441.000,1.000
-5.022,-1.114,-11.012,-5.360,-17.304,-10.850,-24.759,-1.772,-0.010,0.989,-0.070,-0.732,-1.678,0.153,66.667,274442.000,1.000
-5.986,-1.276,-11.646,-6.360,-18.132,-12.291,-25.592,-1.152,-0.010,0.988,-0.072,-0.763,-1.740,0.336,66.667,274443.000,1.000
-6.838,-0.795,-11.777,-7.437,-18.496,-13.098,-25.261,-1.261,-0.010,0.987,-0.069,-0.763,-1.740,0.397,66.667,274444.000,1.000
-6.942,0.536,-11.042,-7.909,-17.787,-12.005,-23.195,-1.654,-0.009,0.987,-0.069,-0.702,-1.801,0.397,66.667,274445.000,1.000
-5.925,2.572,-9.317,-7.224,-15.938,-8.910,-19.574,-1.604,-0.010,0.987,-0.070,-0.580,-1.862,0.519,66.667,274446.000,1.000
-3.984,4.779,-6.847,-5.360,-13.516,-5.215,-15.639,-0.730,-0.010,0.989,-0.070,-0.641,-1.862,0.671,66.667,274447.000,1.000
-1.815,6.511,-4.221,-2.953,-11.392,-2.838,-13.131,0.658,-0.009,0.988,-0.068,-0.641,-1.801,0.854,66.667,274448.000,1.000
-0.403,6.994,-2.391,-1.183,-10.502,-3.093,-13.392,1.513,-0.009,0.990,-0.068,-0.641,-1.862,1.007,66.667,274449.000,1.000
-0.415,5.704,-2.151,-1.061,-11.415,-5.950,-16.647,0.741,-0.009,0.990,-0.069,-0.732,-1.862,1.160,66.667,274450.000,1.000
-1.726,2.866,-3.519,-2.757,-14.000,-10.273,-21.888,-1.918,-0.008,0.987,-0.068,-0.580,-1.892,1.099,66.667,274451.000,1.000
-3.615,-0.730,-5.793,-5.640,-17.580,-14.918,-27.792,-6.002,-0.008,0.986,-0.071,-0.549,-1.801,1.190,66.667,274452.000,1.000
-5.455,-4.196,-8.173,-8.869,-21.382,-19.234,-33.220,-10.943,-0.007,0.985,-0.069,-0.488,-1.923,1.221,66.667,274453.000,1.000
-7.033,-6.815,-10.096,-11.645,-24.626,-22.696,-37.055,-15.851,-0.007,0.984,-0.069,-0.519,-1.862,1.221,66.667,274454.000,1.000
-8.282,-8.115,-11.200,-13.298,-26.608,-24.805,-38.550,-19.365,-0.009,0.983,-0.072,-0.519,-1.862,1.251,66.667,274455.000,1.000
-9.289,-8.219,-11.587,-13.757,-27.320,-25.594,-38.117,-20.836,-0.007,0.983,-0.071,-0.366,-1.862,1.221,66.667,274456.000,1.000
-10.259,-7.873,-11.790,-13.523,-27.328,-25.564,-36.943,-20.761,-0.006,0.982,-0.070,-0.336,-1.740,1.282,66.667,274457.000,1.000
-11.240,-7.762,-12.229,-13.090,-27.029,-25.085,-35.564,-19.787,-0.005,0.983,-0.071,-0.214,-1.648,1.160,66.667,274458.000,1.000
-12.093,-8.180,-12.984,-12.730,-26.557,-24.464,-33.947,-18.419,-0.004,0.983,-0.073,-0.061,-1.526,1.129,66.667,274459.000,1.000
-12.682,-9.089,-13.888,-12.566,-26.064,-24.062,-32.348,-17.306,-0.002,0.981,-0.072,0.061,-1.434,1.129,66.667,274460.000,1.000
-12.955,-10.152,-14.647,-12.556,-25.703,-23.885,-31.076,-16.899,-0.002,0.982,-0.073,0.092,-1.434,1.190,66.667,274461.000,1.000
-12.723,-10.803,-14.826,-12.404,-25.349,-23.389,-30.087,-17.067,-0.003,0.983,-0.072,0.183,-1.465,1.251,66.667,274462.000,1.000
-11.737,-10.545,-14.064,-11.802,-24.773,-22.175,-29.289,-17.520,-0.002,0.983,-0.072,0.275,-1.373,1.068,66.667,274463.000,1.000
-10.153,-9.499,-12.504,-10.817,-24.095,-20.809,-29.200,-18.339,-0.002,0.985,-0.072,0.305,-1.282,1.068,66.667,274464.000,1.000
-8.627,-8.385,-10.817,-9.852,-23.693,-20.430,-30.324,-19.582,-0.002,0.983,-0.072,0.488,-1.068,1.038,66.667,274465.000,1.000
-7.920,-7.938,-9.783,-9.314,-23.728,-21.591,-31.909,-20.717,0.002,0.986,-0.067,0.580,-0.977,1.068,66.667,274466.000,1.000
-8.342,-8.415,-9.773,-9.293,-23.902,-23.754,-32.627,-20.881,0.000,0.984,-0.071,0.519,-0.916,1.099,66.667,274467.000,1.000
-9.662,-9.518,-10.671,-9.722,-23.986,-25.908,-32.327,-19.897,0.000,0.988,-0.069,0.519,-0.824,1.007,66.667,274468.000,1.000
-11.391,-10.761,-12.159,-10.620,-24.240,-27.353,-32.131,-18.759,-0.003,0.988,-0.074,0.397,-0.824,1.099,66.667,274469.000,1.000
-12.908,-11.646,-13.733,-11.890,-24.912,-27.732,-32.728,-18.554,-0.004,0.992,-0.073,0.397,-0.580,1.068,66.667,274470.000,1.000
-13.692,-11.824,-14.843,-13.202,-25.840,-26.969,-33.722,-19.354,-0.003,0.993,-0.073,0.397,-0.488,1.007,66.667,274471.000,1.000
-13.654,-11.413,-15.278,-14.212,-26.753,-25.585,-34.809,-20.664,-0.006,0.993,-0.072,0.336,-0.488,0.977,66.667,274472.000,1.000
-13.243,-10.979,-15.353,-14.793,-27.700,-24.684,-36.182,-22.273,-0.008,0.993,-0.070,0.275,-0.488,0.824,66.667,274473.000,1.000
-13.081,-11.147,-15.569,-14.969,-28.862,-25.197,-37.838,-24.063,-0.009,0.992,-0.070,0.183,-0.427,0.916,66.667,274474.000,1.000
-13.463,-12.076,-16.146,-14.812,-30.140,-27.098,-39.334,-25.573,-0.006,0.990,-0.071,0.092,-0.488,0.885,66.667,274475.000,1.000
-14.308,-13.394,-17.034,-14.582,-31.307,-29.499,-40.333,-26.484,-0.007,0.990,-0.069,0.000,-0.549,0.854,66.667,274476.000,1.000
-15.212,-14.466,-17.948,-14.536,-32.086,-31.234,-40.860,-26.852,-0.003,0.992,-0.069,0.000,-0.641,0.946,66.667,274477.000,1.000
-15.589,-14.611,-18.380,-14.606,-32.095,-31.398,-40.639,-26.525,-0.004,0.994,-0.069,0.031,-0.549,0.763,66.667,274478.000,1.000
-15.055,-13.474,-17.908,-14.448,-30.989,-29.697,-38.904,-24.928,-0.005,0.998,-0.071,-0.092,-0.519,0.763,66.667,274479.000,1.000
-13.687,-11.237,-16.462,-13.703,-28.677,-26.376,-35.130,-21.644,-0.005,0.998,-0.069,-0.275,-0.458,0.946,66.667,274480.000,1.000
-12.045,-8.598,-14.485,-12.371,-25.665,-22.230,-29.882,-17.251,-0.005,0.997,-0.069,-0.397,-0.458,0.977,66.667,274481.000,1.000
-10.808,-6.505,-12.731,-10.882,-22.918,-18.544,-24.735,-13.250,-0.003,0.997,-0.071,-0.641,-0.366,0.946,66.667,274482.000,1.000
-10.403,-5.636,-11.853,-9.812,-21.286,-16.517,-20.990,-10.958,0.001,0.994,-0.072,-0.610,-0.397,0.793,66.667,274483.000,1.000
-10.940,-6.193,-12.171,-9.570,-21.168,-16.817,-19.367,-10.850,0.001,0.994,-0.073,-0.732,-0.244,0.854,66.667,274484.000,1.000
-12.174,-7.915,-13.566,-10.248,-22.633,-19.562,-20.893,-13.022,0.000,0.993,-0.072,-0.793,-0.183,1.038,66.667,274485.000,1.000
-13.621,-10.205,-15.577,-11.687,-25.552,-24.251,-26.501,-17.600,-0.001,0.991,-0.070,-0.916,-0.092,1.160,66.667,274486.000,1.000
-14.688,-12.242,-17.482,-13.431,-29.176,-29.356,-35.161,-23.935,-0.003,0.992,-0.072,-0.916,0.031,1.038,66.667,274487.000,1.000
-14.936,-13.116,-18.528,-14.835,-32.067,-32.675,-43.413,-29.984,-0.008,0.989,-0.070,-1.068,0.061,1.007,66.667,274488.000,1.000
-14.333,-12.348,-18.309,-15.449,-32.940,-32.894,-47.738,-33.306,-0.010,0.985,-0.071,-1.007,0.000,0.793,66.667,274489.000,1.000
-13.060,-10.063,-16.810,-15.127,-31.361,-30.339,-46.799,-32.535,-0.010,0.984,-0.072,-0.793,-0.122,0.641,66.667,274490.000,1.000
-11.328,-6.773,-14.357,-14.035,-27.884,-26.183,-41.640,-28.368,-0.010,0.986,-0.071,-0.671,-0.244,0.519,66.667,274491.000,1.000
-9.387,-3.273,-11.597,-12.647,-23.789,-21.663,-35.087,-23.500,-0.010,0.987,-0.073,-0.732,-0.336,0.366,66.667,274492.000,1.000
-7.619,-0.502,-9.389,-11.633,-20.713,-18.161,-30.612,-21.081,-0.011,0.987,-0.073,-0.580,-0.458,0.366,66.667,274493.000,1.000
-6.460,0.725,-8.476,-11.481,-19.862,-16.961,-30.436,-22.618,-0.010,0.987,-0.069,-0.580,-0.458,0.214,66.667,274494.000,1.000
-6.195,0.106,-9.092,-12.127,-21.177,-18.211,-33.846,-26.961,-0.011,0.988,-0.069,-0.671,-0.458,0.183,66.667,274495.000,1.000
-7.030,-2.122,-11.045,-13.169,-23.579,-20.890,-37.963,-31.350,-0.010,0.988,-0.068,-0.488,-0.580,0.153,66.667,274496.000,1.000
-8.975,-5.390,-13.845,-14.198,-25.847,-23.832,-40.473,-33.455,-0.011,0.987,-0.069,-0.458,-0.549,-0.031,66.667,274497.000,1.000
-11.644,-8.886,-16.771,-14.979,-27.233,-26.183,-40.942,-32.666,-0.010,0.988,-0.070,-0.397,-0.671,0.061,66.667,274498.000,1.000
-14.350,-11.859,-19.151,-15.510,-27.601,-27.398,-40.089,-30.016,-0.008,0.988,-0.070,-0.336,-0.641,0.031,66.667,274499.000,1.000
-16.340,-13.851,-20.569,-15.899,-27.194,-27.334,-38.566,-27.075,-0.010,0.990,-0.070,-0.366,-0.763,0.031,66.667,274500.000,1.000
-17.187,-14.860,-21.037,-16.320,-26.520,-26.465,-36.565,-25.036,-0.010,0.990,-0.070,-0.305,-0.824,0.031,66.667,274501.000,1.000
-16.941,-15.306,-20.946,-16.864,-26.126,-25.614,-34.273,-24.313,-0.011,0.989,-0.071,-0.305,-0.854,0.061,66.667,274502.000,1.000
-15.897,-15.575,-20.737,-17.350,-26.308,-25.324,-32.189,-24.633,-0.010,0.990,-0.073,-0.336,-0.977,0.214,66.667,274503.000,1.000
-14.270,-15.738,-20.582,-17.402,-27.018,-25.694,-31.069,-25.616,-0.010,0.988,-0.072,-0.244,-0.916,0.275,66.667,274504.000,1.000
-12.079,-15.510,-20.215,-16.675,-27.825,-26.491,-31.166,-26.947,-0.010,0.989,-0.070,-0.275,-0.946,0.397,66.667,274505.000,1.000
-9.486,-14.542,-19.248,-15.200,-28.207,-27.405,-31.937,-28.158,-0.012,0.987,-0.070,-0.214,-0.977,0.458,66.667,274506.000,1.000
-7.058,-12.901,-17.631,-13.485,-27.987,-28.261,-33.145,-28.816,-0.013,0.987,-0.072,-0.183,-1.068,0.427,66.667,274507.000,1.000
-5.622,-11.129,-15.874,-12.301,-27.538,-28.824,-35.218,-29.076,-0.012,0.986,-0.069,-0.183,-1.129,0.519,66.667,274508.000,1.000
-5.838,-10.002,-14.886,-12.323,-27.526,-28.747,-38.391,-29.878,-0.013,0.986,-0.071,-0.153,-1.221,0.458,66.667,274509.000,1.000
-7.810,-10.113,-15.448,-13.779,-28.405,-28.037,-42.116,-32.153,-0.013,0.986,-0.071,-0.031,-1.373,0.427,66.667,274510.000,1.000
-11.137,-11.709,-17.865,-16.454,-30.298,-27.624,-45.514,-35.912,-0.013,0.987,-0.072,0.031,-1.373,0.580,66.667,274511.000,1.000
-14.981,-14.592,-21.714,-19.706,-32.956,-28.767,-48.139,-40.142,-0.011,0.988,-0.071,0.031,-1.434,0.549,66.667,274512.000,1.000
-18.187,-17.862,-25.778,-22.526,-35.592,-31.577,-49.720,-43.236,-0.011,0.988,-0.070,0.031,-1.526,0.671,66.667,274513.000,1.000
-19.801,-20.270,-28.592,-23.977,-37.093,-34.591,-49.786,-43.824,-0.010,0.989,-0.071,0.092,-1.495,0.641,66.667,274514.000,1.000
-19.637,-21.036,-29.274,-23.775,-36.756,-36.027,-48.257,-41.759,-0.010,0.986,-0.072,0.061,-1.434,0.702,66.667,274515.000,1.000
-18.467,-20.400,-28.079,-22.541,-35.003,-35.305,-46.050,-38.355,-0.011,0.989,-0.070,0.153,-1.587,0.732,66.667,274516.000,1.000
-17.453,-19.312,-26.039,-21.230,-32.923,-33.030,-44.368,-35.289,-0.012,0.987,-0.068,0.122,-1.709,0.671,66.667,274517.000,1.000
-17.421,-18.537,-24.175,-20.430,-31.298,-29.993,-43.357,-33.376,-0.010,0.986,-0.073,0.092,-1.709,0.732,66.667,274518.000,1.000
-18.566,-18.350,-23.157,-20.285,-30.388,-26.987,-42.406,-32.535,-0.010,0.986,-0.071,0.214,-1.617,0.702,66.667,274519.000,1.000
-20.392,-18.671,-23.229,-20.656,-30.195,-24.902,-41.427,-32.357,-0.010,0.987,-0.070,0.275,-1.678,0.732,66.667,274520.000,1.000
-22.009,-19.289,-24.253,-21.299,-30.682,-24.393,-41.063,-32.582,-0.009,0.987,-0.071,0.305,-1.740,0.732,66.667,274521.000,1.000
-22.610,-20.041,-25.750,-21.929,-31.661,-25.551,-41.786,-33.059,-0.009,0.986,-0.072,0.519,-1.678,0.671,66.667,274522.000,1.000
-21.892,-20.715,-26.986,-22.241,-32.676,-27.762,-42.783,-33.290,-0.011,0.986,-0.072,0.549,-1.770,0.763,66.667,274523.000,1.000
-20.143,-21.004,-27.250,-21.992,-33.106,-29.856,-42.286,-32.429,-0.010,0.986,-0.069,0.549,-1.648,0.641,66.667,274524.000,1.000
-17.909,-20.552,-26.180,-21.075,-32.476,-30.640,-39.570,-30.039,-0.009,0.988,-0.073,0.488,-1.709,0.641,66.667,274525.000,1.000
-15.746,-19.252,-24.069,-19.699,-30.884,-29.679,-36.131,-26.792,-0.009,0.986,-0.075,0.610,-1.862,0.641,66.667,274526.000,1.000
-14.032,-17.379,-21.652,-18.259,-28.760,-27.312,-33.922,-23.812,-0.010,0.987,-0.074,0.641,-1.831,0.641,66.667,274527.000,1.000
-12.889,-15.282,-19.567,-17.047,-26.411,-23.989,-33.017,-21.679,-0.011,0.989,-0.071,0.763,-1.831,0.610,66.667,274528.000,1.000
-12.344,-13.364,-18.275,-16.325,-24.237,-20.330,-32.630,-20.805,-0.012,0.988,-0.072,0.763,-1.770,0.610,66.667,274529.000,1.000
-12.434,-12.159,-18.125,-16.378,-22.922,-17.516,-32.889,-21.654,-0.011,0.990,-0.071,0.824,-1.770,0.580,66.667,274530.000,1.000
-13.183,-12.089,-19.242,-17.305,-23.030,-16.801,-34.122,-23.994,-0.010,0.990,-0.072,0.763,-1.862,0.549,66.667,274531.000,1.000
-14.383,-13.110,-21.289,-18.780,-24.433,-18.466,-35.942,-26.784,-0.010,0.989,-0.069,0.702,-1.862,0.519,66.667,274532.000,1.000
-15.657,-14.708,-23.655,-20.308,-26.522,-21.682,-37.820,-29.120,-0.009,0.990,-0.072,0.702,-1.862,0.488,66.667,274533.000,1.000
-16.856,-16.412,-25.984,-21.675,-28.764,-25.316,-39.696,-30.777,-0.011,0.988,-0.071,0.641,-1.740,0.610,66.667,274534.000,1.000
-18.123,-17.936,-28.168,-22.854,-30.692,-28.231,-41.265,-31.700,-0.011,0.986,-0.071,0.610,-1.801,0.641,66.667,274535.000,1.000
-19.646,-19.025,-30.153,-23.843,-31.931,-29.363,-41.464,-31.865,-0.012,0.988,-0.070,0.488,-1.770,0.580,66.667,274536.000,1.000
-21.344,-19.552,-31.874,-24.694,-32.483,-28.452,-39.799,-31.804,-0.011,0.989,-0.069,0.458,-1.709,0.641,66.667,274537.000,1.000
-22.797,-19.598,-33.231,-25.524,-32.781,-26.570,-37.533,-32.423,-0.010,0.989,-0.072,0.580,-1.801,0.702,66.667,274538.000,1.000
-23.551,-19.402,-34.076,-26.353,-33.206,-25.323,-36.711,-34.049,-0.009,0.990,-0.073,0.519,-1.770,0.671,66.667,274539.000,1.000
-23.402,-19.071,-34.160,-26.914,-33.516,-25.229,-37.828,-35.800,-0.009,0.991,-0.073,0.488,-1.801,0.671,66.667,274540.000,1.000
-22.701,-18.677,-33.482,-27.014,-33.284,-25.612,-39.517,-36.458,-0.010,0.990,-0.072,0.519,-1.862,0.824,66.667,274541.000,1.000
-22.236,-18.631,-32.612,-26.961,-32.742,-26.024,-40.758,-35.881,-0.011,0.988,-0.071,0.397,-1.709,0.793,66.667,274542.000,1.000
-22.580,-19.388,-32.288,-27.270,-32.659,-26.796,-41.791,-34.973,-0.010,0.988,-0.070,0.397,-1.709,0.793,66.667,274543.000,1.000
-23.543,-20.879,-32.707,-28.040,-33.443,-28.201,-42.913,-34.482,-0.010,0.989,-0.072,0.397,-1.709,0.793,66.667,274544.000,1.000
-24.267,-22.337,-33.292,-28.764,-34.633,-29.696,-43.426,-34.219,-0.010,0.989,-0.073,0.336,-1.678,0.732,66.667,274545.000,1.000
-24.044,-22.862,-33.344,-28.883,-35.463,-30.331,-42.262,-33.594,-0.010,0.990,-0.072,0.397,-1.648,0.854,66.667,274546.000,1.000
-22.972,-22.240,-32.782,-28.305,-35.613,-29.646,-39.396,-32.513,-0.010,0.990,-0.071,0.275,-1.556,0.885,66.667,274547.000,1.000
-21.845,-21.093,-32.192,-27.438,-35.399,-27.981,-35.914,-31.459,-0.010,0.990,-0.071,0.214,-1.556,0.916,66.667,274548.000,1.000
-21.431,-20.394,-32.244,-26.792,-35.405,-26.121,-33.378,-31.210,-0.010,0.990,-0.073,0.183,-1.526,0.916,66.667,274549.000,1.000
-21.810,-20.658,-32.980,-26.509,-35.953,-24.789,-33.397,-32.608,-0.009,0.990,-0.072,0.275,-1.556,0.916,66.667,274550.000,1.000
-22.612,-21.700,-33.873,-26.403,-36.982,-24.557,-36.607,-35.943,-0.008,0.987,-0.076,0.214,-1.495,0.946,66.667,274551.000,1.000
-23.611,-23.131,-34.453,-26.255,-38.146,-25.722,-41.849,-40.234,-0.007,0.989,-0.071,0.092,-1.434,0.885,66.667,274552.000,1.000
-24.901,-24.767,-34.776,-26.049,-39.127,-28.077,-47.055,-43.808,-0.008,0.990,-0.072,0.153,-1.404,0.854,66.667,274553.000,1.000
-26.545,-26.636,-35.263,-25.931,-39.774,-30.996,-50.796,-45.523,-0.009,0.990,-0.071,0.153,-1.312,0.916,66.667,274554.000,1.000
-28.153,-28.595,-36.086,-25.932,-39.867,-33.577,-52.418,-44.934,-0.009,0.990,-0.072,-0.031,-1.190,1.007,66.667,274555.000,1.000
-29.215,-30.338,-37.150,-26.113,-39.376,-35.167,-51.786,-42.388,-0.009,0.989,-0.072,-0.031,-1.221,0.977,66.667,274556.000,1.000
-29.596,-31.722,-38.371,-26.691,-38.740,-35.827,-49.528,-39.154,-0.008,0.989,-0.074,-0.031,-1.221,1.099,66.667,274557.000,1.000
-29.520,-32.658,-39.568,-27.699,-38.438,-35.951,-46.612,-36.546,-0.008,0.990,-0.073,-0.061,-1.190,1.190,66.667,274558.000,1.000
-29.237,-33.007,-40.349,-28.743,-38.508,-35.814,-44.041,-35.127,-0.008,0.989,-0.070,-0.092,-1.129,1.099,66.667,274559.000,1.000
-28.791,-32.609,-40.250,-29.193,-38.576,-35.405,-42.727,-34.766,-0.010,0.989,-0.069,-0.153,-1.099,1.068,66.667,274560.000,1.000
-28.197,-31.387,-39.131,-28.711,-38.244,-34.388,-42.690,-34.915,-0.009,0.989,-0.071,-0.122,-0.946,1.068,66.667,274561.000,1.000
-27.688,-29.509,-37.379,-27.574,-37.367,-32.319,-42.846,-34.923,-0.010,0.988,-0.069,-0.153,-1.007,1.099,66.667,274562.000,1.000
-27.749,-27.487,-35.775,-26.603,-36.242,-29.306,-42.140,-34.663,-0.009,0.990,-0.068,-0.153,-0.946,0.977,66.667,274563.000,1.000
-28.799,-26.191,-35.081,-26.621,-35.489,-26.506,-40.672,-34.643,-0.009,0.988,-0.070,-0.275,-0.885,1.007,66.667,274564.000,1.000
-30.601,-26.232,-35.411,-27.654,-35.369,-25.306,-39.208,-35.059,-0.008,0.990,-0.070,-0.366,-0.946,1.221,66.667,274565.000,1.000
-32.322,-27.386,-36.182,-28.890,-35.524,-26.023,-38.181,-35.419,-0.008,0.990,-0.070,-0.366,-0.916,1.251,66.667,274566.000,1.000
-33.154,-28.829,-36.659,-29.392,-35.374,-27.680,-37.558,-35.172,-0.008,0.990,-0.071,-0.366,-0.946,1.221,66.667,274567.000,1.000
-32.837,-29.767,-36.462,-28.825,-34.654,-29.015,-37.031,-34.209,-0.008,0.988,-0.071,-0.427,-0.824,1.190,66.667,274568.000,1.000
-31.628,-29.888,-35.631,-27.568,-33.554,-29.482,-36.621,-33.033,-0.010,0.989,-0.071,-0.366,-0.793,1.129,66.667,274569.000,1.000
-29.688,-29.086,-34.132,-26.032,-32.236,-29.083,-36.830,-32.337,-0.009,0.988,-0.071,-0.488,-0.793,1.068,66.667,274570.000,1.000
-26.979,-27.220,-31.770,-24.251,-30.621,-27.926,-37.839,-32.237,-0.010,0.987,-0.069,-0.458,-0.763,1.068,66.667,274571.000,1.000
-23.706,-24.443,-28.640,-22.197,-28.739,-26.285,-39.161,-32.206,-0.010,0.989,-0.068,-0.488,-0.702,1.129,66.667,274572.000,1.000
-20.518,-21.340,-25.338,-20.175,-27.032,-24.601,-39.903,-31.694,-0.010,0.989,-0.072,-0.427,-0.671,0.977,66.667,274573.000,1.000
-18.176,-18.763,-22.730,-18.796,-26.250,-23.500,-39.579,-30.699,-0.009,0.991,-0.068,-0.366,-0.671,1.068,66.667,274574.000,1.000
-17.067,-17.454,-21.493,-18.581,-27.003,-23.685,-38.801,-29.821,-0.011,0.991,-0.067,-0.397,-0.763,1.160,66.667,274575.000,1.000
-17.093,-17.652,-21.789,-19.628,-29.334,-25.381,-38.720,-29.858,-0.010,0.990,-0.066,-0.397,-0.763,1.007,66.667,274576.000,1.000
-17.723,-18.904,-23.125,-21.412,-32.456,-27.826,-39.809,-31.003,-0.012,0.987,-0.068,-0.458,-0.702,1.099,66.667,274577.000,1.000
-18.254,-20.319,-24.686,-23.093,-35.232,-29.808,-41.497,-32.706,-0.012,0.987,-0.068,-0.397,-0.793,0.916,66.667,274578.000,1.000
-18.316,-21.300,-26.003,-24.167,-37.035,-30.659,-42.835,-34.361,-0.011,0.985,-0.069,-0.366,-0.824,0.977,66.667,274579.000,1.000
-17.912,-21.683,-26.950,-24.513,-37.731,-30.213,-42.868,-35.328,-0.009,0.986,-0.070,-0.366,-0.793,0.946,66.667,274580.000,1.000
-17.169,-21.431,-27.417,-24.145,-37.312,-28.548,-41.114,-34.828,-0.009,0.989,-0.070,-0.397,-0.793,1.038,66.667,274581.000,1.000
-16.089,-20.556,-27.199,-23.105,-35.860,-26.190,-38.425,-32.781,-0.008,0.990,-0.070,-0.305,-0.763,1.099,66.667,274582.000,1.000
-14.518,-19.057,-26.110,-21.490,-33.625,-23.814,-36.278,-30.275,-0.009,0.993,-0.069,-0.427,-0.763,1.068,66.667,274583.000,1.000
-12.345,-16.965,-24.110,-19.516,-30.892,-21.531,-35.030,-28.557,-0.010,0.994,-0.070,-0.427,-0.763,1.099,66.667,274584.000,1.000
-9.653,-14.445,-21.325,-17.464,-27.834,-19.000,-33.682,-27.769,-0.010,0.993,-0.070,-0.519,-0.702,1.099,66.667,274585.000,1.000
-6.932,-12.056,-18.241,-15.817,-24.958,-16.634,-31.714,-27.529,-0.011,0.992,-0.072,-0.549,-0.671,1.099,66.667,274586.000,1.000
-4.981,-10.713,-15.685,-15.247,-23.255,-15.895,-30.353,-28.173,-0.011,0.991,-0.070,-0.580,-0.702,1.099,66.667,274587.000,1.000
-4.418,-10.992,-14.350,-16.163,-23.499,-17.887,-31.228,-30.344,-0.012,0.988,-0.068,-0.519,-0.702,1.099,66.667,274588.000,1.000
-5.355,-12.706,-14.456,-18.374,-25.628,-22.185,-34.793,-33.913,-0.012,0.988,-0.071,-0.397,-0.854,1.007,66.667,274589.000,1.000
-7.368,-15.011,-15.686,-21.124,-28.707,-26.918,-40.105,-37.856,-0.012,0.989,-0.069,-0.305,-0.946,1.038,66.667,274590.000,1.000
-9.665,-16.839,-17.305,-23.471,-31.394,-29.729,-45.112,-40.866,-0.010,0.992,-0.070,-0.244,-0.916,1.007,66.667,274591.000,1.000
-11.298,-17.441,-18.407,-24.672,-32.576,-29.138,-47.610,-41.914,-0.010,0.992,-0.070,-0.244,-0.977,0.854,66.667,274592.000,1.000
-11.716,-16.830,-18.506,-24.577,-32.091,-25.701,-46.718,-40.663,-0.009,0.991,-0.067,-0.275,-0.824,0.946,66.667,274593.000,1.000
-11.283,-15.952,-18.045,-23.754,-30.872,-21.966,-43.596,-37.677,-0.007,0.990,-0.068,-0.275,-0.732,1.129,66.667,274594.000,1.000
-10.845,-15.980,-17.872,-22.930,-30.014,-20.616,-40.403,-34.087,-0.008,0.989,-0.068,-0.214,-0.671,1.160,66.667,274595.000,1.000
-10.882,-17.347,-18.392,-22.406,-29.892,-22.418,-38.610,-31.082,-0.007,0.985,-0.067,-0.214,-0.671,1.190,66.667,274596.000,1.000
-11.111,-19.421,-19.243,-21.937,-29.990,-25.832,-38.306,-29.290,-0.008,0.979,-0.068,-0.122,-0.549,1.221,66.667,274597.000,1.000
-10.888,-20.898,-19.666,-21.109,-29.449,-28.296,-38.463,-28.450,-0.006,0.978,-0.071,0.000,-0.549,1.160,66.667,274598.000,1.000
-9.911,-20.683,-19.140,-19.876,-27.782,-27.991,-37.794,-27.820,-0.007,0.979,-0.071,0.244,-0.519,1.282,66.667,274599.000,1.000
-8.265,-18.364,-17.433,-18.489,-24.899,-24.496,-35.199,-26.647,-0.008,0.982,-0.072,0.549,-0.580,1.282,66.667,274600.000,1.000
-6.199,-14.313,-14.571,-17.228,-20.995,-18.647,-30.252,-24.684,-0.009,0.984,-0.072,0.732,-0.580,1.129,66.667,274601.000,1.000
-3.926,-9.591,-10.937,-16.216,-16.646,-12.284,-24.185,-22.548,-0.008,0.989,-0.073,0.732,-0.549,1.129,66.667,274602.000,1.000
-1.509,-5.335,-7.102,-15.354,-12.724,-7.396,-19.452,-21.321,-0.009,0.991,-0.069,0.702,-0.488,1.160,66.667,274603.000,1.000
1.020,-2.200,-3.593,-14.460,-10.058,-5.084,-18.066,-21.886,-0.008,0.991,-0.069,0.671,-0.458,1.190,66.667,274604.000,1.000
3.565,-0.184,-0.772,-13.394,-9.012,-5.261,-20.531,-24.339,-0.010,0.992,-0.071,0.610,-0.549,1.129,66.667,274605.000,1.000
5.886,1.120,1.097,-12.119,-9.321,-7.051,-25.695,-27.796,-0.009,0.991,-0.071,0.641,-0.549,1.190,66.667,274606.000,1.000
7.712,2.166,1.970,-10.588,-10.039,-9.128,-31.137,-30.581,-0.010,0.990,-0.069,0.702,-0.519,1.282,66.667,274607.000,1.000
8.906,3.284,2.153,-8.715,-10.004,-10.262,-34.174,-30.995,-0.012,0.990,-0.071,0.732,-0.580,1.190,66.667,274608.000,1.000
9.393,4.419,1.936,-6.698,-8.882,-10.206,-33.716,-28.753,-0.012,0.991,-0.070,0.702,-0.641,1.190,66.667,274609.000,1.000
9.171,5.193,1.341,-5.071,-7.496,-9.692,-31.006,-25.423,-0.015,0.992,-0.070,0.763,-0.732,1.038,66.667,274610.000,1.000
8.369,5.252,0.223,-4.383,-7.130,-9.624,-28.215,-23.098,-0.017,0.992,-0.069,0.702,-0.793,0.854,66.667,274611.000,1.000
7.368,4.563,-1.338,-4.705,-8.452,-10.371,-26.933,-22.702,-0.019,0.992,-0.071,0.702,-1.038,0.702,66.667,274612.000,1.000
6.648,3.492,-2.957,-5.592,-11.140,-11.589,-27.668,-23.782,-0.019,0.993,-0.068,0.671,-1.190,0.397,66.667,274613.000,1.000
6.328,2.402,-4.367,-6.563,-14.342,-12.602,-29.963,-25.557,-0.020,0.993,-0.069,0.610,-1.373,0.397,66.667,274614.000,1.000
6.187,1.474,-5.547,-7.306,-17.133,-12.896,-32.660,-27.361,-0.018,0.992,-0.070,0.610,-1.465,0.458,66.667,274615.000,1.000
5.880,0.706,-6.635,-7.730,-18.964,-12.736,-34.692,-28.601,-0.016,0.992,-0.073,0.488,-1.678,0.366,66.667,274616.000,1.000
5.156,-0.089,-7.774,-7.954,-19.867,-13.160,-35.878,-28.945,-0.015,0.993,-0.071,0.488,-1.709,0.305,66.667,274617.000,1.000
4.001,-1.043,-8.946,-8.173,-20.195,-14.859,-36.447,-28.491,-0.014,0.992,-0.069,0.519,-1.801,0.366,66.667,274618.000,1.000
2.523,-2.236,-10.088,-8.626,-20.394,-17.497,-36.618,-27.963,-0.015,0.993,-0.067,0.580,-2.014,0.336,66.667,274619.000,1.000
0.906,-3.671,-11.162,-9.500,-20.843,-20.077,-36.861,-28.445,-0.018,0.992,-0.067,0.427,-2.136,0.458,66.667,274620.000,1.000
-0.574,-5.096,-12.112,-10.821,-21.675,-21.657,-37.549,-30.495,-0.016,0.991,-0.067,0.427,-2.167,0.580,66.667,274621.000,1.000
-1.547,-5.966,-12.753,-12.287,-22.496,-21.572,-38.036,-33.354,-0.014,0.991,-0.066,0.305,-2.258,0.702,66.667,274622.000,1.000
-1.758,-5.703,-12.780,-13.294,-22.525,-19.490,-36.714,-35.176,-0.010,0.991,-0.068,0.336,-2.380,0.916,66.667,274623.000,1.000
-1.392,-4.301,-12.129,-13.404,-21.415,-16.069,-33.062,-34.558,-0.013,0.991,-0.068,0.366,-2.411,0.916,66.667,274624.000,1.000
-0.915,-2.442,-11.067,-12.656,-19.603,-12.897,-28.844,-31.815,-0.013,0.991,-0.070,0.397,-2.350,1.068,66.667,274625.000,1.000
-0.591,-0.877,-9.922,-11.440,-17.752,-11.053,-26.187,-28.545,-0.012,0.990,-0.068,0.336,-2.411,1.190,66.667,274626.000,1.000
-0.166,0.147,-8.764,-10.111,-16.043,-10.185,-25.493,-26.118,-0.010,0.991,-0.066,0.427,-2.502,1.312,66.667,274627.000,1.000
0.876,0.855,-7.417,-8.819,-14.282,-9.484,-25.897,-24.931,-0.011,0.990,-0.068,0.214,-2.380,1.343,66.667,274628.000,1.000
2.664,1.359,-5.839,-7.668,-12.530,-8.961,-26.965,-24.883,-0.010,0.990,-0.069,0.214,-2.319,1.465,66.667,274629.000,1.000
4.760,1.510,-4.211,-6.711,-11.109,-9.053,-28.798,-25.629,-0.010,0.989,-0.067,0.183,-2.319,1.556,66.667,274630.000,1.000
6.345,1.104,-2.910,-6.009,-10.344,-9.788,-31.064,-26.613,-0.009,0.986,-0.069,0.275,-2.258,1.648,66.667,274631.000,1.000
6.603,-0.021,-2.387,-5.741,-10.462,-10.901,-33.284,-27.600,-0.008,0.986,-0.068,0.336,-2.045,1.587,66.667,274632.000,1.000
5.172,-1.828,-2.914,-6.128,-11.541,-12.265,-35.364,-28.928,-0.008,0.986,-0.070,0.336,-1.953,1.587,66.667,274633.000,1.000
2.319,-4.110,-4.464,-7.233,-13.368,-13.895,-37.021,-30.835,-0.006,0.985,-0.069,0.397,-1.892,1.495,66.667,274634.000,1.000
-1.110,-6.529,-6.632,-8.768,-15.291,-15.570,-37.219,-32.652,-0.008,0.984,-0.068,0.366,-1.770,1.465,66.667,274635.000,1.000
-4.144,-8.810,-8.835,-10.310,-16.663,-16.960,-35.205,-33.411,-0.006,0.982,-0.069,0.336,-1.556,1.465,66.667,274636.000,1.000
-6.121,-10.915,-10.662,-11.653,-17.366,-18.016,-31.968,-33.210,-0.003,0.983,-0.068,0.427,-1.526,1.312,66.667,274637.000,1.000
-6.916,-12.843,-12.041,-12.904,-17.748,-18.778,-29.481,-33.240,-0.002,0.984,-0.070,0.580,-1.465,1.312,66.667,274638.000,1.000
-6.985,-14.516,-13.196,-14.302,-18.199,-19.106,-28.801,-34.352,-0.002,0.982,-0.068,0.641,-1.190,1.129,66.667,274639.000,1.000
-6.912,-15.766,-14.290,-15.787,-18.779,-18.867,-29.433,-36.062,-0.002,0.982,-0.071,0.793,-1.068,1.099,66.667,274640.000,1.000
-7.033,-16.450,-15.268,-16.957,-19.332,-18.404,-30.238,-37.206,-0.002,0.982,-0.071,0.854,-0.977,1.099,66.667,274641.000,1.000
-7.358,-16.612,-15.943,-17.326,-19.674,-18.403,-30.546,-36.922,0.000,0.981,-0.074,0.916,-0.793,1.129,66.667,274642.000,1.000
-7.722,-16.331,-16.140,-16.658,-19.660,-19.163,-30.402,-34.970,0.000,0.982,-0.075,1.068,-0.610,0.916,66.667,274643.000,1.000
-8.049,-15.653,-15.931,-15.255,-19.317,-20.393,-30.437,-32.029,0.001,0.982,-0.075,1.099,-0.366,0.854,66.667,274644.000,1.000
-8.348,-14.587,-15.574,-13.780,-18.789,-21.476,-31.483,-29.515,0.000,0.983,-0.073,1.160,-0.244,0.854,66.667,274645.000,1.000
-8.710,-13.275,-15.371,-12.861,-18.256,-21.819,-33.834,-28.713,0.000,0.984,-0.073,1.251,-0.031,0.824,66.667,274646.000,1.000
-9.256,-12.085,-15.507,-12.732,-17.816,-21.134,-36.913,-29.882,0.002,0.987,-0.074,1.282,0.244,0.763,66.667,274647.000,1.000
-9.978,-11.295,-15.920,-13.149,-17.383,-19.570,-39.431,-32.075,0.000,0.988,-0.072,1.312,0.397,0.824,66.667,274648.000,1.000
-10.755,-10.944,-16.440,-13.674,-16.777,-17.631,-39.940,-33.814,-0.002,0.992,-0.072,1.343,0.397,0.702,66.667,274649.000,1.000
-11.389,-10.788,-16.804,-13.885,-15.798,-15.830,-37.527,-33.908,-0.002,0.992,-0.072,1.282,0.488,0.610,66.667,274650.000,1.000
-11.742,-10.470,-16.743,-13.574,-14.506,-14.673,-32.637,-32.096,-0.005,0.994,-0.072,1.160,0.671,0.671,66.667,274651.000,1.000
-11.757,-9.829,-16.125,-12.795,-13.296,-14.631,-27.296,-29.145,-0.009,0.991,-0.070,1.068,0.580,0.732,66.667,274652.000,1.000
-11.372,-8.948,-14.983,-11.737,-12.616,-15.689,-23.927,-26.425,-0.009,0.990,-0.067,0.916,0.641,0.610,66.667,274653.000,1.000
-10.645,-8.182,-13.601,-10.661,-12.803,-17.366,-24.008,-25.384,-0.008,0.990,-0.070,0.763,0.549,0.641,66.667,274654.000,1.000
-9.763,-7.948,-12.368,-9.760,-13.921,-19.212,-27.449,-26.618,-0.006,0.990,-0.071,0.671,0.458,0.793,66.667,274655.000,1.000
-9.035,-8.493,-11.660,-9.195,-15.823,-21.103,-32.654,-29.432,-0.008,0.992,-0.072,0.641,0.458,0.793,66.667,274656.000,1.000
-8.848,-9.840,-11.769,-9.159,-18.259,-23.027,-37.497,-32.463,-0.008,0.995,-0.073,0.580,0.549,0.824,66.667,274657.000,1.000
-9.571,-11.760,-12.811,-9.838,-20.991,-24.879,-40.631,-34.700,-0.009,0.998,-0.071,0.488,0.488,0.885,66.667,274658.000,1.000
-11.407,-13.946,-14.720,-11.336,-23.869,-26.561,-42.125,-36.021,-0.010,0.997,-0.068,0.397,0.336,0.885,66.667,274659.000,1.000
-14.020,-15.923,-17.034,-13.350,-26.475,-27.665,-42.567,-36.620,-0.010,0.994,-0.072,0.244,0.366,0.946,66.667,274660.000,1.000
-16.659,-17.099,-19.059,-15.246,-28.145,-27.446,-42.154,-36.596,-0.008,0.992,-0.073,0.092,0.183,1.099,66.667,274661.000,1.000
-18.690,-17.266,-20.384,-16.561,-28.563,-25.783,-41.213,-36.230,-0.004,0.992,-0.073,-0.031,0.061,1.251,66.667,274662.000,1.000
-19.801,-16.699,-20.996,-17.221,-27.963,-23.751,-40.346,-35.802,-0.005,0.991,-0.073,0.122,0.000,1.404,66.667,274663.000,1.000
-19.889,-15.814,-21.061,-17.381,-26.777,-22.738,-39.711,-35.192,-0.006,0.990,-0.072,0.031,-0.031,1.434,66.667,274664.000,1.000
-18.941,-14.752,-20.668,-17.237,-25.308,-23.128,-38.977,-34.094,-0.010,0.991,-0.071,0.092,-0.153,1.434,66.667,274665.000,1.000
-17.180,-13.409,-19.874,-17.054,-23.859,-24.176,-37.884,-32.572,-0.014,0.990,-0.069,0.000,-0.214,1.404,66.667,274666.000,1.000
-14.925,-11.588,-18.626,-16.937,-22.517,-24.460,-36.118,-30.851,-0.017,0.989,-0.072,-0.031,-0.366,1.343,66.667,274667.000,1.000
-12.320,-9.020,-16.694,-16.638,-20.978,-22.526,-33.272,-29.058,-0.016,0.989,-0.074,-0.122,-0.549,1.221,66.667,274668.000,1.000
-9.668,-5.932,-14.250,-16.079,-19.305,-18.403,-30.179,-27.866,-0.018,0.985,-0.072,-0.183,-0.824,1.007,66.667,274669.000,1.000
-7.671,-3.299,-12.157,-15.692,-18.321,-14.172,-29.062,-28.295,-0.016,0.987,-0.072,-0.061,-1.068,0.885,66.667,274670.000,1.000
-7.092,-2.209,-11.441,-16.046,-18.934,-12.327,-31.470,-30.737,-0.015,0.985,-0.071,0.031,-1.373,0.793,66.667,274671.000,1.000
-8.151,-3.015,-12.496,-17.316,-21.267,-13.792,-37.028,-34.842,-0.012,0.986,-0.068,0.214,-1.495,0.702,66.667,274672.000,1.000
-10.277,-5.029,-14.732,-19.079,-24.464,-17.400,-43.759,-39.714,-0.011,0.987,-0.071,0.214,-1.770,0.488,66.667,274673.000,1.000
-12.443,-7.086,-16.935,-20.532,-27.127,-20.814,-48.783,-43.780,-0.011,0.987,-0.073,0.305,-1.831,0.397,66.667,274674.000,1.000
-13.684,-8.253,-17.906,-20.857,-27.938,-21.845,-49.306,-45.173,-0.012,0.989,-0.072,0.305,-1.892,0.305,66.667,274675.000,1.000
-13.728,-8.334,-17.254,-19.812,-26.494,-19.680,-44.358,-43.109,-0.011,0.990,-0.073,0.366,-2.014,0.183,66.667,274676.000,1.000
-13.068,-7.864,-15.614,-17.904,-23.609,-15.264,-36.186,-38.683,-0.011,0.989,-0.071,0.397,-2.106,0.122,66.667,274677.000,1.000
-12.329,-7.458,-13.998,-15.901,-20.664,-10.606,-29.075,-34.012,-0.010,0.990,-0.070,0.397,-2.319,0.092,66.667,274678.000,1.000
-11.911,-7.507,-13.225,-14.466,-18.857,-7.876,-26.554,-30.938,-0.010,0.990,-0.070,0.427,-2.319,0.153,66.667,274679.000,1.000
-12.015,-8.143,-13.625,-14.003,-18.707,-8.359,-29.450,-30.248,-0.008,0.989,-0.071,0.427,-2.350,0.214,66.667,274680.000,1.000
-12.763,-9.254,-15.015,-14.614,-20.013,-11.719,-35.862,-31.749,-0.009,0.988,-0.071,0.397,-2.441,0.183,66.667,274681.000,1.000
-14.087,-10.641,-16.852,-16.021,-22.072,-16.225,-42.574,-34.638,-0.009,0.990,-0.071,0.305,-2.472,0.153,66.667,274682.000,1.000
-15.597,-12.056,-18.476,-17.598,-24.011,-19.787,-46.651,-37.657,-0.010,0.989,-0.069,0.366,-2.472,0.214,66.667,274683.000,1.000
-16.880,-13.339,-19.501,-18.744,-25.281,-21.297,-46.850,-39.591,-0.012,0.988,-0.070,0.397,-2.563,0.244,66.667,274684.000,1.000
-17.783,-14.477,-19.949,-19.232,-25.882,-21.218,-44.272,-40.033,-0.012,0.990,-0.069,0.427,-2.686,0.275,66.667,274685.000,1.000
-18.537,-15.709,-20.238,-19.342,-26.367,-21.147,-41.626,-39.714,-0.012,0.989,-0.069,0.397,-2.777,0.183,66.667,274686.000,1.000
-19.483,-17.454,-20.891,-19.516,-27.303,-22.600,-41.282,-39.617,-0.013,0.990,-0.070,0.397,-2.899,0.214,66.667,274687.000,1.000
-20.580,-19.737,-21.972,-19.790,-28.524,-25.595,-43.213,-39.687,-0.014,0.990,-0.069,0.458,-2.869,0.244,66.667,274688.000,1.000
-21.423,-21.985,-23.061,-19.855,-29.262,-28.590,-45.219,-39.127,-0.012,0.988,-0.070,0.458,-2.960,0.214,66.667,274689.000,1.000
-21.584,-23.362,-23.662,-19.517,-28.962,-29.842,-45.246,-37.716,-0.012,0.988,-0.071,0.488,-2.960,0.275,66.667,274690.000,1.000
-21.018,-23.336,-23.606,-18.988,-27.824,-28.782,-42.938,-36.145,-0.012,0.987,-0.073,0.549,-3.021,0.153,66.667,274691.000,1.000
-20.087,-21.997,-23.028,-18.646,-26.497,-26.189,-39.339,-35.130,-0.012,0.988,-0.074,0.549,-3.052,0.153,66.667,274692.000,1.000
-19.245,-19.861,-22.090,-18.659,-25.501,-23.368,-35.883,-34.899,-0.013,0.989,-0.072,0.641,-3.113,0.153,66.667,274693.000,1.000
-18.854,-17.653,-20.974,-18.975,-25.067,-21.372,-33.784,-35.506,-0.013,0.988,-0.072,0.641,-3.082,-0.031,66.667,274694.000,1.000
-18.993,-15.987,-19.812,-19.342,-25.002,-20.448,-33.365,-36.651,-0.012,0.987,-0.073,0.580,-3.052,0.031,66.667,274695.000,1.000
-19.438,-15.090,-18.635,-19.446,-24.841,-20.119,-33.838,-37.602,-0.012,0.988,-0.076,0.580,-2.991,0.122,66.667,274696.000,1.000
-19.797,-14.857,-17.431,-19.155,-24.292,-19.988,-34.464,-37.942,-0.012,0.990,-0.075,0.702,-2.991,0.031,66.667,274697.000,1.000
-19.730,-14.979,-16.217,-18.612,-23.457,-20.233,-35.147,-37.919,-0.011,0.987,-0.074,0.885,-2.991,-0.031,66.667,274698.000,1.000
-19.204,-15.194,-15.203,-18.139,-22.707,-21.219,-35.664,-38.025,-0.012,0.988,-0.075,0.916,-2.930,-0.122,66.667,274699.000,1.000
-18.447,-15.363,-14.707,-18.004,-22.411,-22.904,-35.600,-38.707,-0.011,0.988,-0.076,0.977,-2.930,-0.183,66.667,274700.000,1.000
-17.907,-15.555,-15.062,-18.432,-22.957,-25.046,-35.535,-40.563,-0.009,0.986,-0.076,1.038,-2.899,-0.092,66.667,274701.000,1.000
-18.019,-15.932,-16.316,-19.464,-24.414,-27.243,-36.748,-43.792,-0.010,0.986,-0.078,1.129,-2.777,-0.061,66.667,274702.000,1.000
-18.776,-16.280,-17.855,-20.644,-25.939,-28.386,-39.055,-47.272,-0.012,0.985,-0.075,1.221,-2.747,-0.061,66.667,274703.000,1.000
-19.787,-16.176,-18.795,-21.314,-26.292,-27.307,-40.668,-49.262,-0.012,0.985,-0.079,1.343,-2.747,0.000,66.667,274704.000,1.000
-20.590,-15.501,-18.680,-21.127,-24.907,-24.092,-40.379,-48.924,-0.013,0.986,-0.076,1.434,-2.472,-0.061,66.667,274705.000,1.000
-20.968,-14.631,-17.835,-20.261,-22.316,-20.248,-38.600,-46.764,-0.015,0.985,-0.075,1.434,-2.502,-0.061,66.667,274706.000,1.000
-20.902,-14.121,-16.942,-19.105,-19.501,-17.554,-36.368,-43.687,-0.015,0.984,-0.076,1.465,-2.411,-0.092,66.667,274707.000,1.000
-20.315,-14.117,-16.292,-17.804,-17.012,-16.701,-34.054,-39.939,-0.015,0.988,-0.076,1.617,-2.380,-0.153,66.667,274708.000,1.000
-19.213,-14.313,-15.728,-16.383,-14.959,-16.951,-31.455,-35.485,-0.017,0.986,-0.077,1.617,-2.380,-0.092,66.667,274709.000,1.000
-17.864,-14.283,-15.049,-15.051,-13.432,-17.024,-28.745,-31.075,-0.020,0.987,-0.077,1.648,-2.197,-0.031,66.667,274710.000,1.000
-16.734,-13.880,-14.350,-14.244,-12.741,-16.513,-26.788,-28.388,-0.021,0.989,-0.078,1.617,-2.319,-0.061,66.667,274711.000,1.000
-16.048,-13.271,-13.845,-14.187,-13.030,-16.106,-26.450,-28.654,-0.021,0.990,-0.075,1.709,-2.289,-0.122,66.667,274712.000,1.000
-15.439,-12.545,-13.464,-14.535,-13.842,-16.365,-27.576,-31.335,-0.021,0.991,-0.076,1.617,-2.319,-0.061,66.667,274713.000,1.000
-14.356,-11.675,-12.998,-14.731,-14.521,-16.974,-29.034,-34.672,-0.020,0.991,-0.077,1.587,-2.289,-0.092,66.667,274714.000,1.000
-12.526,-10.542,-12.282,-14.379,-14.607,-16.965,-29.470,-36.874,-0.021,0.991,-0.076,1.556,-2.380,-0.183,66.667,274715.000,1.000
-10.083,-8.952,-11.227,-13.349,-13.930,-15.538,-27.883,-36.806,-0.020,0.992,-0.077,1.465,-2.319,-0.122,66.667,274716.000,1.000
-7.447,-6.858,-9.840,-11.749,-12.620,-12.922,-24.431,-34.493,-0.020,0.992,-0.078,1.251,-2.319,-0.153,66.667,274717.000,1.000
-5.107,-4.434,-8.211,-9.847,-11.065,-10.343,-20.749,-31.142,-0.020,0.991,-0.076,1.221,-2.472,-0.031,66.667,274718.000,1.000
-3.520,-2.030,-6.549,-7.975,-9.742,-9.087,-19.013,-28.345,-0.021,0.991,-0.079,1.160,-2.472,0.000,66.667,274719.000,1.000
-2.845,0.068,-5.008,-6.304,-8.820,-9.432,-20.344,-26.967,-0.022,0.991,-0.079,1.007,-2.472,0.000,66.667,274720.000,1.000
-2.831,1.709,-3.668,-4.824,-8.117,-10.531,-23.736,-26.819,-0.023,0.990,-0.078,0.916,-2.411,0.031,66.667,274721.000,1.000
-2.937,2.799,-2.560,-3.425,-7.267,-11.114,-26.477,-27.085,-0.021,0.990,-0.079,0.793,-2.380,0.183,66.667,274722.000,1.000
-2.613,3.418,-1.582,-2.004,-5.949,-10.253,-26.165,-27.063,-0.023,0.990,-0.075,0.702,-2.441,0.122,66.667,274723.000,1.000
-1.706,3.707,-0.669,-0.698,-4.296,-8.133,-22.944,-26.835,-0.024,0.991,-0.076,0.580,-2.411,0.092,66.667,274724.000,1.000
-0.395,3.785,0.179,0.218,-2.831,-5.992,-19.309,-26.950,-0.023,0.990,-0.077,0.427,-2.472,0.183,66.667,274725.000,1.000
0.897,3.660,0.809,0.488,-2.207,-5.181,-17.785,-27.957,-0.022,0.989,-0.077,0.427,-2.411,0.153,66.667,274726.000,1.000
1.526,3.095,0.849,-0.049,-2.907,-6.261,-19.281,-30.267,-0.024,0.990,-0.077,0.397,-2.411,0.153,66.667,274727.000,1.000
1.043,1.895,0.083,-1.198,-4.776,-8.608,-22.785,-33.549,-0.022,0.993,-0.075,0.305,-2.472,0.153,66.667,274728.000,1.000
-0.391,0.232,-1.251,-2.341,-6.987,-10.823,-26.165,-36.607,-0.024,0.991,-0.075,0.244,-2.441,0.275,66.667,274729.000,1.000
-1.969,-1.252,-2.437,-2.710,-8.448,-11.465,-27.631,-38.304,-0.022,0.992,-0.073,0.092,-2.380,0.458,66.667,274730.000,1.000
-2.890,-1.882,-2.837,-1.999,-8.522,-9.942,-26.785,-38.500,-0.022,0.991,-0.074,0.000,-2.319,0.458,66.667,274731.000,1.000
-2.999,-1.615,-2.473,-0.669,-7.440,-7.130,-24.682,-37.882,-0.020,0.989,-0.074,-0.092,-2.289,0.519,66.667,274732.000,1.000
-2.806,-1.099,-1.998,0.398,-6.091,-4.946,-22.963,-37.364,-0.022,0.987,-0.077,-0.214,-2.258,0.580,66.667,274733.000,1.000
-3.070,-1.257,-2.236,0.419,-5.525,-5.120,-22.821,-37.896,-0.023,0.989,-0.075,-0.214,-2.228,0.610,66.667,274734.000,1.000
-3.993,-2.490,-3.404,-0.689,-6.129,-7.815,-24.164,-39.749,-0.021,0.988,-0.078,-0.244,-2.106,0.580,66.667,274735.000,1.000
-4.950,-4.313,-4.892,-2.213,-7.339,-11.465,-25.677,-41.993,-0.020,0.990,-0.075,-0.305,-2.045,0.610,66.667,274736.000,1.000
-5.112,-5.924,-5.884,-3.312,-8.288,-14.136,-26.324,-43.455,-0.021,0.989,-0.074,-0.427,-1.923,0.610,66.667,274737.000,1.000
-4.171,-6.811,-6.042,-3.694,-8.557,-14.848,-26.269,-43.905,-0.022,0.990,-0.073,-0.519,-1.862,0.580,66.667,274738.000,1.000
-2.562,-6.984,-5.663,-3.678,-8.284,-13.867,-26.052,-43.871,-0.021,0.990,-0.077,-0.488,-1.831,0.641,66.667,274739.000,1.000
-1.047,-6.809,-5.259,-3.721,-7.774,-12.148,-25.659,-43.686,-0.021,0.989,-0.075,-0.580,-1.770,0.732,66.667,274740.000,1.000
-0.409,-6.881,-5.376,-4.252,-7.551,-10.813,-24.961,-43.564,-0.022,0.989,-0.075,-0.732,-1.740,0.732,66.667,274741.000,1.000
-1.192,-7.785,-6.476,-5.604,-8.287,-10.637,-24.346,-43.986,-0.020,0.988,-0.075,-0.763,-1.495,0.732,66.667,274742.000,1.000
-3.311,-9.579,-8.539,-7.668,-10.202,-11.563,-24.196,-45.240,-0.019,0.990,-0.078,-0.824,-1.465,0.732,66.667,274743.000,1.000
-6.046,-11.776,-10.981,-9.911,-12.887,-12.976,-24.420,-47.197,-0.019,0.990,-0.078,-0.885,-1.434,0.702,66.667,274744.000,1.000
-8.313,-13.627,-12.894,-11.655,-15.524,-14.140,-24.796,-49.547,-0.020,0.990,-0.076,-0.946,-1.404,0.671,66.667,274745.000,1.000
-9.269,-14.476,-13.591,-12.430,-17.339,-14.470,-25.335,-51.921,-0.021,0.991,-0.074,-0.977,-1.221,0.824,66.667,274746.000,1.000
-8.765,-14.129,-12.997,-12.164,-17.899,-13.728,-26.189,-53.835,-0.021,0.991,-0.074,-1.068,-1.190,0.824,66.667,274747.000,1.000
-7.221,-12.855,-11.486,-11.121,-17.152,-11.955,-27.199,-54.813,-0.022,0.992,-0.074,-1.129,-1.160,0.793,66.667,274748.000,1.000
-5.317,-11.312,-9.671,-9.811,-15.482,-9.492,-27.846,-54.673,-0.022,0.990,-0.076,-1.099,-1.099,0.732,66.667,274749.000,1.000
-3.567,-10.229,-8.099,-8.650,-13.450,-7.013,-27.564,-53.361,-0.021,0.990,-0.074,-1.190,-1.007,0.824,66.667,274750.000,1.000
-2.218,-10.034,-7.079,-7.789,-11.555,-5.482,-26.161,-50.985,-0.021,0.989,-0.073,-1.221,-1.007,0.763,66.667,274751.000,1.000
-1.340,-10.690,-6.636,-7.192,-10.165,-5.794,-24.338,-48.213,-0.022,0.989,-0.074,-1.343,-1.007,0.671,66.667,274752.000,1.000
-0.897,-11.724,-6.577,-6.741,-9.441,-8.053,-23.266,-46.196,-0.023,0.987,-0.075,-1.404,-1.038,0.702,66.667,274753.000,1.000
-0.927,-12.705,-6.861,-6.418,-9.368,-11.281,-23.504,-45.950,-0.023,0.989,-0.078,-1.312,-0.977,0.885,66.667,274754.000,1.000
-1.425,-13.423,-7.528,-6.182,-9.586,-13.812,-24.387,-47.526,-0.022,0.988,-0.074,-1.251,-0.946,0.916,66.667,274755.000,1.000
-2.118,-13.660,-8.330,-5.827,-9.405,-14.177,-24.199,-49.719,-0.021,0.986,-0.073,-1.251,-0.824,0.916,66.667,274756.000,1.000
-2.421,-13.148,-8.639,-5.037,-8.148,-11.909,-21.387,-50.783,-0.021,0.987,-0.072,-1.221,-0.702,0.946,66.667,274757.000,1.000
-1.718,-11.796,-7.872,-3.632,-5.731,-7.903,-16.325,-49.729,-0.022,0.987,-0.071,-1.190,-0.702,0.946,66.667,274758.000,1.000
0.002,-10.087,-6.173,-1.915,-3.080,-4.235,-11.636,-47.172,-0.021,0.988,-0.069,-1.160,-0.610,0.946,66.667,274759.000,1.000
2.075,-8.810,-4.298,-0.508,-1.451,-2.816,-9.982,-44.713,-0.022,0.987,-0.071,-1.160,-0.732,1.038,66.667,274760.000,1.000
3.612,-8.482,-3.030,0.026,-1.499,-4.051,-11.889,-43.896,-0.021,0.990,-0.069,-1.221,-0.732,1.160,66.667,274761.000,1.000
4.031,-9.125,-2.740,-0.521,-2.962,-6.799,-15.886,-45.460,-0.022,0.990,-0.072,-1.160,-0.702,1.190,66.667,274762.000,1.000
3.456,-10.176,-3.101,-1.706,-4.753,-9.165,-19.589,-48.709,-0.020,0.988,-0.072,-1.099,-0.610,1.251,66.667,274763.000,1.000
2.558,-10.773,-3.297,-2.601,-5.532,-9.624,-20.758,-51.749,-0.020,0.987,-0.066,-1.068,-0.610,1.343,66.667,274764.000,1.000
2.044,-10.289,-2.599,-2.356,-4.471,-7.942,-18.645,-52.689,-0.021,0.988,-0.066,-1.038,-0.549,1.373,66.667,274765.000,1.000
2.016,-8.912,-1.151,-0.979,-2.081,-5.497,-15.060,-51.195,-0.017,0.989,-0.069,-1.099,-0.519,1.495,66.667,274766.000,1.000
1.945,-7.634,-0.017,0.579,-0.002,-4.435,-13.353,-48.728,-0.017,0.990,-0.068,-1.038,-0.366,1.526,66.667,274767.000,1.000
1.348,-7.325,-0.180,1.292,0.350,-5.993,-15.443,-47.059,-0.017,0.990,-0.069,-0.946,-0.244,1.709,66.667,274768.000,1.000
0.138,-8.159,-1.864,0.683,-1.372,-9.734,-20.417,-47.119,-0.018,0.992,-0.068,-0.916,-0.122,1.923,66.667,274769.000,1.000
-1.375,-9.681,-4.477,-0.986,-4.461,-14.030,-25.781,-48.744,-0.017,0.990,-0.069,-0.916,-0.061,2.014,66.667,274770.000,1.000
-2.716,-11.197,-7.026,-2.915,-7.694,-17.055,-29.168,-50.942,-0.020,0.992,-0.065,-1.038,-0.031,1.984,66.667,274771.000,1.000
-3.510,-12.171,-8.651,-4.259,-9.974,-17.622,-29.506,-52.692,-0.020,0.991,-0.065,-0.977,-0.031,1.953,66.667,274772.000,1.000
-3.610,-12.349,-8.970,-4.577,-10.720,-15.563,-27.250,-53.552,-0.021,0.989,-0.070,-0.977,-0.031,1.984,66.667,274773.000,1.000
-3.189,-11.865,-8.286,-4.023,-9.979,-11.718,-23.628,-53.463,-0.020,0.988,-0.071,-0.885,0.122,1.953,66.667,274774.000,1.000
-2.536,-11.089,-7.265,-3.039,-8.140,-7.288,-19.687,-52.269,-0.018,0.989,-0.071,-0.916,0.153,2.045,66.667,274775.000,1.000
-1.977,-10.457,-6.567,-2.195,-5.913,-3.330,-16.016,-50.209,-0.017,0.989,-0.072,-0.793,0.153,1.984,66.667,274776.000,1.000
-1.934,-10.431,-6.755,-2.140,-4.341,-0.824,-13.085,-48.386,-0.015,0.989,-0.071,-0.793,0.153,1.984,66.667,274777.000,1.000
-2.754,-11.230,-8.141,-3.273,-4.293,-0.524,-11.499,-47.897,-0.015,0.990,-0.068,-0.793,0.336,1.923,66.667,274778.000,1.000
-4.560,-12.732,-10.700,-5.502,-5.961,-2.512,-11.990,-48.956,-0.012,0.987,-0.070,-0.671,0.366,1.953,66.667,274779.000,1.000
-7.045,-14.528,-13.894,-8.156,-8.629,-5.904,-14.699,-50.793,-0.010,0.983,-0.068,-0.580,0.427,2.014,66.667,274780.000,1.000
-9.477,-16.050,-16.754,-10.283,-11.076,-9.154,-18.372,-52.178,-0.008,0.983,-0.068,-0.549,0.549,2.075,66.667,274781.000,1.000
-10.949,-16.774,-18.293,-11.122,-12.355,-10.896,-21.099,-52.270,-0.009,0.980,-0.066,-0.366,0.671,2.167,66.667,274782.000,1.000
-10.835,-16.461,-18.000,-10.515,-12.362,-10.790,-21.836,-51.287,-0.008,0.978,-0.068,-0.244,0.793,2.258,66.667,274783.000,1.000
-9.350,-15.457,-16.225,-9.064,-11.843,-9.776,-20.927,-50.452,-0.009,0.978,-0.068,-0.092,1.007,2.319,66.667,274784.000,1.000
-7.326,-14.456,-13.831,-7.602,-11.532,-9.207,-19.290,-50.750,-0.009,0.979,-0.071,0.092,1.190,2.289,66.667,274785.000,1.000
-5.668,-14.054,-11.685,-6.666,-11.630,-9.981,-17.720,-52.021,-0.010,0.985,-0.069,0.305,1.343,2.380,66.667,274786.000,1.000
-4.956,-14.484,-10.347,-6.349,-11.893,-12.171,-16.899,-53.314,-0.010,0.989,-0.069,0.458,1.343,2.289,66.667,274787.000,1.000
-5.129,-15.347,-9.773,-6.301,-11.768,-14.717,-16.920,-53.597,-0.009,0.992,-0.071,0.397,1.373,2.380,66.667,274788.000,1.000
-5.644,-15.909,-9.527,-6.099,-10.839,-16.047,-17.018,-52.420,-0.010,0.995,-0.069,0.366,1.404,2.350,66.667,274789.000,1.000
-5.874,-15.655,-9.209,-5.582,-9.185,-15.291,-16.555,-50.165,-0.011,0.993,-0.072,0.305,1.404,2.441,66.667,274790.000,1.000
-5.562,-14.582,-8.733,-4.941,-7.277,-12.684,-15.629,-47.805,-0.010,0.993,-0.071,0.244,1.495,2.533,66.667,274791.000,1.000
-4.917,-13.029,-8.158,-4.415,-5.377,-8.801,-14.198,-46.044,-0.012,0.995,-0.068,0.244,1.434,2.563,66.667,274792.000,1.000
-4.280,-11.256,-7.353,-3.930,-3.189,-3.964,-11.444,-44.584,-0.013,0.995,-0.069,0.092,1.587,2.533,66.667,274793.000,1.000
-3.957,-9.458,-6.165,-3.293,-0.463,1.282,-7.025,-42.903,-0.015,0.996,-0.069,0.031,1.617,2.533,66.667,274794.000,1.000
-3.965,-7.689,-4.463,-2.286,2.714,6.219,-1.927,-40.957,-0.018,0.996,-0.066,-0.061,1.526,2.411,66.667,274795.000,1.000
-4.075,-5.824,-2.167,-0.698,6.092,10.562,2.654,-38.797,-0.018,0.997,-0.069,-0.122,1.495,2.228,66.667,274796.000,1.000
-4.170,-4.061,0.361,1.294,9.047,14.007,5.854,-36.680,-0.018,0.998,-0.067,-0.305,1.404,2.106,66.667,274797.000,1.000
-4.440,-3.211,2.148,2.882,10.373,15.345,6.702,-35.609,-0.018,0.996,-0.067,-0.397,1.129,1.892,66.667,274798.000,1.000
-5.273,-4.284,2.069,3.022,8.869,13.047,4.519,-36.727,-0.018,0.999,-0.068,-0.458,1.068,1.953,66.667,274799.000,1.000
-6.741,-7.383,-0.087,1.419,4.633,7.159,-0.111,-39.856,-0.016,0.996,-0.067,-0.610,1.068,1.953,66.667,274800.000,1.000
-8.504,-11.337,-3.409,-1.197,-0.719,-0.142,-5.394,-43.332,-0.014,0.994,-0.068,-0.641,0.916,1.923,66.667,274801.000,1.000
-10.288,-14.692,-6.800,-3.770,-5.215,-6.063,-9.545,-45.355,-0.011,0.993,-0.066,-0.702,0.916,1.801,66.667,274802.000,1.000
-12.154,-16.704,-9.723,-5.653,-7.726,-8.893,-11.745,-45.347,-0.012,0.994,-0.066,-0.732,0.824,1.831,66.667,274803.000,1.000
-14.322,-17.586,-12.226,-6.882,-8.417,-8.714,-12.348,-44.335,-0.013,0.992,-0.067,-0.824,0.763,1.923,66.667,274804.000,1.000
-16.650,-17.980,-14.416,-7.768,-8.209,-6.892,-12.314,-43.868,-0.013,0.990,-0.066,-0.763,0.763,1.953,66.667,274805.000,1.000
-18.580,-18.389,-16.207,-8.465,-8.047,-5.106,-12.276,-44.628,-0.013,0.990,-0.064,-0.763,0.793,1.923,66.667,274806.000,1.000
-19.481,-18.953,-17.350,-8.781,-8.276,-4.421,-12.179,-45.925,-0.013,0.989,-0.065,-0.610,0.824,2.075,66.667,274807.000,1.000
-18.913,-19.338,-17.428,-8.227,-8.352,-4.614,-11.436,-46.266,-0.012,0.988,-0.063,-0.702,0.763,2.167,66.667,274808.000,1.000
-16.889,-19.065,-16.196,-6.487,-7.440,-4.621,-9.488,-44.719,-0.012,0.987,-0.066,-0.549,0.641,2.258,66.667,274809.000,1.000
-13.805,-17.887,-13.758,-3.721,-5.151,-3.689,-6.334,-41.626,-0.011,0.985,-0.068,-0.549,0.610,2.319,66.667,274810.000,1.000
-10.245,-15.900,-10.545,-0.500,-1.805,-1.929,-2.367,-38.069,-0.010,0.984,-0.065,-0.488,0.702,2.411,66.667,274811.000,1.000
-6.801,-13.404,-7.151,2.536,1.882,0.216,1.871,-34.940,-0.011,0.985,-0.064,-0.366,0.671,2.411,66.667,274812.000,1.000
-3.919,-10.678,-4.139,4.942,5.180,2.526,5.491,-32.691,-0.010,0.984,-0.065,-0.275,0.580,2.502,66.667,274813.000,1.000
-2.080,-8.165,-2.158,6.305,7.289,4.599,7.141,-31.769,-0.009,0.984,-0.063,-0.214,0.549,2.472,66.667,274814.000,1.000
-1.688,-6.366,-1.659,6.373,7.767,5.936,5.969,-32.467,-0.010,0.983,-0.063,-0.183,0.610,2.411,66.667,274815.000,1.000
-2.750,-5.455,-2.493,5.300,6.971,6.593,2.692,-34.615,-0.010,0.985,-0.063,-0.061,0.610,2.441,66.667,274816.000,1.000
-4.725,-5.282,-3.961,3.606,5.744,6.939,-1.021,-37.655,-0.009,0.983,-0.064,0.000,0.580,2.472,66.667,274817.000,1.000
-6.647,-5.540,-5.124,2.035,4.879,7.057,-3.745,-40.550,-0.010,0.982,-0.064,0.092,0.671,2.472,66.667,274818.000,1.000
-7.698,-5.995,-5.372,1.151,4.717,6.729,-4.897,-42.189,-0.009,0.983,-0.063,0.183,0.580,2.350,66.667,274819.000,1.000
-7.568,-6.500,-4.672,1.099,5.209,5.793,-4.863,-42.058,-0.008,0.984,-0.060,0.244,0.580,2.319,66.667,274820.000,1.000
-6.394,-6.850,-3.362,1.699,6.222,4.354,-4.163,-40.179,-0.007,0.983,-0.063,0.366,0.580,2.319,66.667,274821.000,1.000
-4.422,-6.729,-1.737,2.783,7.827,3.117,-2.311,-36.599,-0.006,0.982,-0.063,0.427,0.610,2.258,66.667,274822.000,1.000
-1.902,-5.946,0.007,4.235,10.012,3.154,1.371,-31.800,-0.006,0.982,-0.064,0.519,0.641,2.075,66.667,274823.000,1.000
0.548,-4.938,1.354,5.565,12.002,4.706,5.704,-27.555,-0.006,0.981,-0.063,0.610,0.671,2.045,66.667,274824.000,1.000
2.168,-4.479,1.743,6.114,12.776,6.999,8.152,-25.848,-0.005,0.984,-0.064,0.671,0.763,2.075,66.667,274825.000,1.000
2.558,-4.966,1.053,5.585,12.057,9.174,7.511,-26.994,-0.006,0.985,-0.065,0.732,0.793,2.045,66.667,274826.000,1.000
1.810,-6.255,-0.414,4.160,10.404,10.784,4.798,-29.531,-0.005,0.983,-0.069,0.763,0.763,1.953,66.667,274827.000,1.000
0.417,-7.806,-2.082,2.357,8.679,11.673,2.013,-31.610,-0.006,0.984,-0.067,0.854,0.732,1.892,66.667,274828.000,1.000
-1.085,-9.092,-3.447,0.682,7.430,11.760,0.748,-32.306,-0.008,0.983,-0.068,0.946,0.702,1.953,66.667,274829.000,1.000
-2.365,-9.908,-4.270,-0.516,6.779,11.139,1.457,-31.783,-0.006,0.987,-0.066,1.038,0.763,1.923,66.667,274830.000,1.000
-3.481,-10.492,-4.720,-1.202,6.424,9.963,3.258,-30.931,-0.007,0.989,-0.069,1.038,0.885,1.862,66.667,274831.000,1.000
-4.733,-11.310,-5.211,-1.601,5.916,8.337,4.626,-30.686,-0.006,0.990,-0.069,1.007,0.824,1.923,66.667,274832.000,1.000
-6.151,-12.398,-5.853,-1.757,5.373,6.748,5.281,-30.822,-0.008,0.991,-0.065,1.038,0.854,1.923,66.667,274833.000,1.000
-7.510,-13.320,-6.416,-1.492,5.443,5.954,6.693,-29.944,-0.009,0.994,-0.066,1.068,0.763,1.923,66.667,274834.000,1.000
-8.621,-13.714,-6.725,-0.794,6.410,6.111,9.471,-27.416,-0.011,0.998,-0.067,1.007,0.671,1.892,66.667,274835.000,1.000
-9.600,-13.761,-7.033,-0.178,7.473,6.177,11.471,-24.910,-0.010,0.996,-0.067,0.946,0.641,1.862,66.667,274836.000,1.000
-10.749,-13.987,-7.749,-0.340,7.489,4.755,10.006,-24.934,-0.014,0.991,-0.067,0.916,0.580,1.801,66.667,274837.000,1.000
-12.065,-14.562,-8.789,-1.450,6.301,1.669,5.077,-28.145,-0.015,0.989,-0.067,0.793,0.580,1.862,66.667,274838.000,1.000
-13.246,-15.251,-9.678,-3.145,4.668,-1.947,-0.778,-33.025,-0.012,0.988,-0.069,0.793,0.549,1.801,66.667,274839.000,1.000
-13.838,-15.634,-9.925,-4.772,3.549,-4.647,-4.723,-37.218,-0.007,0.988,-0.072,0.824,0.397,1.709,66.667,274840.000,1.000
-13.564,-15.296,-9.333,-5.673,3.541,-5.424,-5.137,-38.917,-0.007,0.989,-0.073,0.763,0.275,1.831,66.667,274841.000,1.000
-12.669,-14.133,-8.180,-5.589,4.572,-3.952,-2.238,-37.837,-0.006,0.992,-0.070,0.854,0.244,1.801,66.667,274842.000,1.000
-11.786,-12.465,-7.036,-4.804,6.027,-0.596,2.251,-35.156,-0.008,0.994,-0.071,0.824,0.214,1.770,66.667,274843.000,1.000
-11.568,-10.982,-6.514,-3.993,7.089,3.495,6.279,-32.571,-0.008,0.996,-0.071,0.641,0.153,1.831,66.667,274844.000,1.000
-12.146,-10.284,-6.822,-3.633,7.393,6.998,8.687,-31.062,-0.006,0.995,-0.072,0.580,0.244,1.831,66.667,274845.000,1.000
-13.053,-10.462,-7.643,-3.687,7.236,9.324,9.714,-30.539,-0.004,0.991,-0.074,0.610,0.122,1.801,66.667,274846.000,1.000
-13.657,-11.196,-8.487,-3.852,7.131,10.619,10.197,-30.538,-0.004,0.990,-0.073,0.732,0.122,2.075,66.667,274847.000,1.000
-13.566,-11.991,-8.983,-3.876,7.340,11.223,10.419,-30.867,-0.004,0.990,-0.072,0.763,0.122,1.984,66.667,274848.000,1.000
-12.821,-12.483,-9.035,-3.753,7.785,11.441,10.148,-31.531,-0.007,0.991,-0.071,0.824,0.092,1.923,66.667,274849.000,1.000
-11.589,-12.504,-8.616,-3.511,8.416,11.667,9.516,-32.207,-0.010,0.992,-0.073,0.702,0.122,1.953,66.667,274850.000,1.000
-10.013,-12.204,-7.808,-3.206,9.124,11.905,8.891,-32.556,-0.012,0.992,-0.070,0.641,0.183,1.678,66.667,274851.000,1.000
-8.337,-12.053,-6.948,-3.030,9.537,11.520,8.125,-32.737,-0.016,0.991,-0.070,0.641,-0.061,1.526,66.667,274852.000,1.000
-6.869,-12.337,-6.363,-3.050,9.452,10.103,6.953,-32.955,-0.015,0.990,-0.072,0.641,-0.305,1.251,66.667,274853.000,1.000
-6.036,-13.108,-6.375,-3.197,8.929,7.843,5.487,-33.131,-0.014,0.988,-0.074,0.702,-0.549,1.099,66.667,274854.000,1.000
-6.162,-14.370,-7.250,-3.329,8.140,5.126,3.976,-32.960,-0.015,0.986,-0.074,0.885,-0.763,1.038,66.667,274855.000,1.000
-7.166,-16.010,-8.997,-3.351,7.287,2.334,2.833,-32.186,-0.011,0.985,-0.071,0.885,-0.854,0.946,66.667,274856.000,1.000
-8.533,-17.671,-11.205,-3.294,6.649,-0.039,2.651,-30.934,-0.013,0.986,-0.070,0.885,-0.946,0.885,66.667,274857.000,1.000
-9.485,-18.783,-13.033,-3.171,6.570,-1.452,3.558,-29.710,-0.011,0.987,-0.075,1.007,-1.038,0.610,66.667,274858.000,1.000
-9.503,-18.982,-13.756,-3.020,7.058,-1.755,4.708,-29.283,-0.010,0.988,-0.074,1.007,-1.160,0.610,66.667,274859.000,1.000
-8.539,-18.270,-13.113,-2.840,7.809,-1.170,5.089,-30.133,-0.013,0.988,-0.073,1.129,-1.251,0.519,66.667,274860.000,1.000
-6.956,-16.948,-11.360,-2.588,8.455,-0.097,4.479,-32.039,-0.012,0.986,-0.074,1.099,-1.251,0.519,66.667,274861.000,1.000
-5.326,-15.591,-9.151,-2.296,8.680,0.885,2.997,-34.384,-0.013,0.988,-0.076,1.190,-1.373,0.458,66.667,274862.000,1.000
-4.153,-14.773,-7.174,-2.019,8.381,1.287,0.798,-36.493,-0.011,0.988,-0.070,1.099,-1.434,0.488,66.667,274863.000,1.000
-3.849,-14.817,-5.969,-1.873,7.656,0.931,-1.509,-37.878,-0.010,0.990,-0.072,1.038,-1.587,0.641,66.667,274864.000,1.000
-4.467,-15.569,-5.659,-1.888,6.843,0.010,-3.013,-38.289,-0.011,0.990,-0.074,1.129,-1.617,0.793,66.667,274865.000,1.000
-5.579,-16.457,-5.887,-1.984,6.325,-1.066,-3.185,-37.808,-0.010,0.989,-0.073,1.251,-1.709,0.854,66.667,274866.000,1.000
-6.532,-16.909,-6.075,-2.018,6.333,-1.799,-2.155,-36.846,-0.008,0.988,-0.073,1.251,-1.709,0.916,66.667,274867.000,1.000
-6.780,-16.624,-5.743,-1.783,7.044,-1.625,-0.312,-35.775,-0.010,0.987,-0.070,1.129,-1.678,0.946,66.667,274868.000,1.000
-6.272,-15.757,-4.885,-1.232,8.422,-0.304,1.903,-34.857,-0.009,0.988,-0.075,1.129,-1.740,1.007,66.667,274869.000,1.000
-5.282,-14.639,-3.731,-0.434,10.290,2.006,4.087,-34.191,-0.008,0.987,-0.073,1.007,-1.892,1.007,66.667,274870.000,1.000
-4.126,-13.436,-2.412,0.504,12.419,4.975,6.209,-33.537,-0.010,0.988,-0.075,0.977,-1.892,1.068,66.667,274871.000,1.000
-3.046,-12.217,-0.992,1.409,14.440,8.043,8.465,-32.350,-0.010,0.989,-0.073,0.977,-1.892,1.099,66.667,274872.000,1.000
-2.024,-10.936,0.564,2.225,16.010,10.519,10.977,-30.177,-0.012,0.990,-0.073,1.007,-1.923,0.916,66.667,274873.000,1.000
-0.947,-9.533,2.232,2.979,16.860,11.878,13.474,-27.471,-0.011,0.990,-0.075,0.916,-1.953,0.916,66.667,274874.000,1.000
0.111,-8.189,3.733,3.620,16.777,11.983,14.823,-25.688,-0.010,0.989,-0.075,0.916,-2.075,0.824,66.667,274875.000,1.000
0.678,-7.521,4.413,3.877,15.595,10.825,13.592,-26.186,-0.008,0.989,-0.076,0.763,-2.045,0.854,66.667,274876.000,1.000
0.174,-8.195,3.621,3.486,13.545,8.538,9.716,-28.818,-0.010,0.990,-0.074,0.732,-2.075,0.916,66.667,274877.000,1.000
-1.433,-10.122,1.414,2.587,11.527,5.850,5.074,-31.790,-0.010,0.989,-0.077,0.580,-2.106,0.916,66.667,274878.000,1.000
-3.603,-12.504,-1.511,1.498,10.384,3.713,1.774,-33.424,-0.010,0.988,-0.077,0.610,-2.014,0.885,66.667,274879.000,1.000
-5.505,-14.331,-4.197,0.531,10.400,2.764,0.645,-33.312,-0.007,0.989,-0.075,0.580,-2.014,0.793,66.667,274880.000,1.000
-6.446,-14.857,-5.809,0.008,11.420,3.341,1.643,-31.861,-0.007,0.989,-0.074,0.580,-2.045,0.793,66.667,274881.000,1.000
-6.198,-13.964,-5.944,0.193,13.057,5.433,4.391,-29.651,-0.008,0.990,-0.075,0.580,-1.953,0.702,66.667,274882.000,1.000
-4.890,-12.050,-4.653,1.206,14.889,8.406,8.200,-27.126,-0.008,0.991,-0.073,0.488,-1.831,0.580,66.667,274883.000,1.000
-2.962,-9.796,-2.489,2.756,16.450,10.974,12.169,-24.608,-0.009,0.990,-0.074,0.275,-1.801,0.458,66.667,274884.000,1.000
-0.950,-7.843,-0.277,4.171,17.325,11.988,15.237,-22.506,-0.010,0.990,-0.074,0.244,-1.831,0.549,66.667,274885.000,1.000
0.595,-6.666,1.139,4.646,17.068,11.027,16.111,-21.658,-0.010,0.991,-0.075,0.275,-1.801,0.519,66.667,274886.000,1.000
1.175,-6.578,1.137,3.660,15.328,8.355,13.710,-22.930,-0.009,0.990,-0.077,0.153,-1.740,0.397,66.667,274887.000,1.000
0.797,-7.376,-0.174,1.578,12.580,5.076,8.641,-25.883,-0.010,0.990,-0.075,0.061,-1.740,0.458,66.667,274888.000,1.000
0.084,-8.296,-1.949,-0.448,10.194,2.893,3.595,-28.623,-0.008,0.990,-0.075,0.061,-1.709,0.488,66.667,274889.000,1.000
-0.110,-8.487,-3.065,-1.218,9.575,3.075,1.326,-29.436,-0.010,0.993,-0.075,-0.031,-1.678,0.397,66.667,274890.000,1.000
0.617,-7.602,-2.825,-0.306,11.143,5.485,2.663,-28.179,-0.010,0.993,-0.073,-0.183,-1.587,0.366,66.667,274891.000,1.000
1.936,-6.020,-1.303,1.778,14.164,8.747,6.331,-25.978,-0.010,0.992,-0.073,-0.183,-1.526,0.427,66.667,274892.000,1.000
3.235,-4.480,0.923,4.090,17.382,11.372,9.978,-24.223,-0.011,0.991,-0.073,-0.305,-1.617,0.427,66.667,274893.000,1.000
4.051,-3.638,3.097,5.729,19.618,12.616,11.700,-23.940,-0.013,0.991,-0.073,-0.427,-1.495,0.366,66.667,274894.000,1.000
4.415,-3.607,4.714,6.384,20.480,12.753,11.335,-25.020,-0.013,0.990,-0.072,-0.488,-1.495,0.305,66.667,274895.000,1.000
4.729,-3.927,5.641,6.422,20.470,12.590,10.496,-26.034,-0.013,0.990,-0.071,-0.519,-1.587,0.488,66.667,274896.000,1.000
5.294,-4.073,5.934,6.435,20.377,12.704,11.149,-25.304,-0.014,0.990,-0.072,-0.671,-1.526,0.458,66.667,274897.000,1.000
6.046,-3.896,5.703,6.738,20.529,13.141,13.692,-22.725,-0.015,0.991,-0.073,-0.824,-1.526,0.458,66.667,274898.000,1.000
6.490,-3.908,4.871,7.046,20.320,13.333,16.116,-20.606,-0.017,0.990,-0.075,-0.824,-1.526,0.458,66.667,274899.000,1.000
6.175,-4.876,3.409,6.893,18.902,12.454,15.713,-21.532,-0.016,0.990,-0.072,-0.793,-1.556,0.427,66.667,274900.000,1.000
5.073,-7.107,1.597,6.111,16.062,10.036,11.507,-25.981,-0.017,0.992,-0.071,-0.977,-1.587,0.427,66.667,274901.000,1.000
3.522,-10.140,-0.091,4.873,12.375,6.585,4.688,-32.466,-0.015,0.988,-0.070,-1.068,-1.526,0.458,66.667,274902.000,1.000
2.051,-12.888,-1.164,3.654,9.008,3.635,-2.246,-38.594,-0.016,0.987,-0.071,-1.099,-1.556,0.641,66.667,274903.000,1.000
1.030,-14.393,-1.475,2.947,7.073,2.444,-6.585,-41.961,-0.015,0.990,-0.070,-1.190,-1.526,0.488,66.667,274904.000,1.000
0.614,-14.375,-1.211,3.107,7.129,2.971,-6.539,-41.050,-0.013,0.990,-0.070,-1.251,-1.556,0.641,66.667,274905.000,1.000
0.733,-13.259,-0.735,4.098,8.885,4.313,-2.087,-36.334,-0.014,0.987,-0.070,-1.312,-1.526,0.641,66.667,274906.000,1.000
1.024,-12.010,-0.561,5.288,11.137,5.382,4.353,-30.547,-0.015,0.989,-0.069,-1.373,-1.587,0.580,66.667,274907.000,1.000
1.029,-11.697,-1.132,5.789,12.372,5.104,8.829,-26.969,-0.015,0.988,-0.066,-1.282,-1.526,0.580,66.667,274908.000,1.000
0.393,-12.986,-2.628,5.028,11.651,2.806,8.800,-27.049,-0.015,0.989,-0.066,-1.434,-1.556,0.610,66.667,274909.000,1.000
-0.735,-15.605,-4.646,3.244,9.353,-0.937,5.062,-29.535,-0.015,0.989,-0.068,-1.373,-1.587,0.702,66.667,274910.000,1.000
-1.756,-18.507,-6.419,1.237,6.741,-4.523,0.549,-32.047,-0.013,0.989,-0.068,-1.495,-1.556,0.793,66.667,274911.000,1.000
-2.149,-20.743,-7.396,-0.298,4.919,-6.570,-2.147,-33.099,-0.014,0.989,-0.066,-1.373,-1.495,0.885,66.667,274912.000,1.000
-1.711,-21.900,-7.359,-0.969,4.409,-6.570,-2.000,-32.529,-0.016,0.989,-0.068,-1.495,-1.587,0.885,66.667,274913.000,1.000
-0.679,-22.170,-6.479,-0.787,5.011,-4.955,0.361,-31.145,-0.016,0.987,-0.070,-1.526,-1.556,0.763,66.667,274914.000,1.000
0.463,-22.065,-5.190,-0.070,6.016,-2.868,3.029,-30.145,-0.013,0.989,-0.066,-1.495,-1.495,0.854,66.667,274915.000,1.000
1.214,-22.006,-3.982,0.732,6.673,-1.633,4.031,-30.490,-0.012,0.991,-0.068,-1.373,-1.526,0.916,66.667,274916.000,1.000
1.250,-22.090,-3.226,1.232,6.664,-1.932,2.827,-32.331,-0.014,0.990,-0.065,-1.434,-1.404,0.946,66.667,274917.000,1.000
0.681,-22.053,-2.978,1.288,6.236,-3.323,0.547,-34.933,-0.013,0.990,-0.066,-1.404,-1.373,0.885,66.667,274918.000,1.000
-0.087,-21.622,-3.146,0.858,5.657,-4.785,-1.521,-37.549,-0.013,0.989,-0.067,-1.434,-1.312,1.038,66.667,274919.000,1.000
-0.524,-20.666,-3.483,0.082,5.089,-5.301,-3.004,-39.733,-0.011,0.988,-0.067,-1.373,-1.221,1.129,66.667,274920.000,1.000
-0.249,-19.198,-3.626,-0.644,4.757,-4.178,-3.830,-40.978,-0.011,0.989,-0.066,-1.434,-1.221,1.129,66.667,274921.000,1.000
0.805,-17.457,-3.320,-0.890,4.880,-1.400,-3.743,-40.906,-0.013,0.988,-0.068,-1.373,-1.190,1.190,66.667,274922.000,1.000
2.542,-15.803,-2.467,-0.397,5.558,2.232,-2.608,-39.560,-0.011,0.988,-0.067,-1.221,-0.977,0.977,66.667,274923.000,1.000
4.554,-14.658,-1.276,0.645,6.512,5.179,-0.654,-37.313,-0.012,0.988,-0.065,-1.160,-1.068,1.099,66.667,274924.000,1.000
6.202,-14.271,-0.113,1.721,7.265,6.100,1.601,-34.703,-0.012,0.987,-0.067,-1.099,-0.977,1.160,66.667,274925.000,1.000
6.911,-14.526,0.681,2.307,7.475,4.915,3.627,-32.433,-0.011,0.989,-0.067,-1.068,-0.916,1.160,66.667,274926.000,1.000
6.456,-15.158,0.861,2.102,7.036,2.426,4.791,-31.179,-0.009,0.989,-0.065,-1.038,-0.824,1.343,66.667,274927.000,1.000
5.211,-15.882,0.503,1.228,6.124,-0.627,4.406,-31.124,-0.012,0.989,-0.064,-1.007,-0.671,1.343,66.667,274928.000,1.000
3.780,-16.512,-0.106,0.024,5.028,-3.692,2.287,-31.936,-0.010,0.987,-0.064,-0.885,-0.641,1.282,66.667,274929.000,1.000
2.535,-16.986,-0.690,-1.133,4.119,-5.966,-0.887,-32.933,-0.014,0.986,-0.063,-0.793,-0.488,1.312,66.667,274930.000,1.000
1.420,-17.391,-1.181,-1.971,3.728,-6.677,-3.848,-33.469,-0.014,0.986,-0.064,-0.793,-0.549,1.312,66.667,274931.000,1.000
0.296,-17.823,-1.580,-2.336,3.971,-5.767,-5.605,-33.395,-0.012,0.987,-0.063,-0.763,-0.519,1.312,66.667,274932.000,1.000
-0.538,-18.057,-1.613,-2.025,4.860,-3.831,-5.888,-32.878,-0.014,0.989,-0.064,-0.702,-0.458,1.251,66.667,274933.000,1.000
-0.698,-17.693,-0.990,-0.976,6.289,-1.548,-4.581,-31.890,-0.012,0.990,-0.064,-0.610,-0.397,1.190,66.667,274934.000,1.000
-0.148,-16.461,0.326,0.626,8.183,0.849,-1.262,-29.949,-0.012,0.990,-0.066,-0.580,-0.366,1.251,66.667,274935.000,1.000
0.737,-14.487,2.033,2.329,10.346,3.280,3.958,-26.795,-0.011,0.991,-0.064,-0.519,-0.275,1.312,66.667,274936.000,1.000
1.356,-12.500,3.471,3.517,12.123,5.082,9.178,-23.249,-0.011,0.993,-0.063,-0.427,-0.305,1.312,66.667,274937.000,1.000
1.230,-11.457,3.919,3.736,12.653,5.267,11.596,-20.899,-0.012,0.992,-0.063,-0.366,-0.244,1.312,66.667,274938.000,1.000
0.054,-12.043,2.848,2.813,11.363,3.388,10.022,-21.036,-0.012,0.991,-0.067,-0.275,-0.275,1.343,66.667,274939.000,1.000
-2.083,-14.268,0.318,0.993,8.450,-0.066,5.692,-23.608,-0.011,0.991,-0.065,-0.183,-0.214,1.221,66.667,274940.000,1.000
-4.609,-17.517,-2.995,-1.188,4.656,-4.265,0.571,-27.426,-0.012,0.989,-0.065,-0.183,-0.305,1.190,66.667,274941.000,1.000
-6.729,-20.978,-6.263,-3.263,0.681,-8.637,-4.344,-31.309,-0.013,0.988,-0.065,-0.214,-0.183,1.221,66.667,274942.000,1.000
-7.623,-23.766,-8.658,-4.819,-2.718,-12.450,-8.637,-34.470,-0.012,0.987,-0.063,-0.122,-0.061,1.160,66.667,274943.000,1.000
-6.830,-25.119,-9.518,-5.504,-4.651,-14.703,-11.570,-36.315,-0.011,0.987,-0.062,-0.031,-0.122,1.190,66.667,274944.000,1.000
-4.404,-24.720,-8.508,-5.097,-4.409,-14.890,-12.608,-36.453,-0.012,0.989,-0.068,0.092,-0.092,1.251,66.667,274945.000,1.000
-0.892,-22.802,-5.812,-3.650,-1.923,-13.424,-11.922,-34.937,-0.011,0.988,-0.064,0.153,-0.061,1.221,66.667,274946.000,1.000
2.911,-19.838,-2.065,-1.408,2.301,-10.954,-9.726,-32.021,-0.011,0.990,-0.066,0.244,0.153,1.221,66.667,274947.000,1.000
6.346,-16.175,2.016,1.412,7.605,-7.660,-5.789,-27.789,-0.012,0.990,-0.066,0.275,0.153,1.343,66.667,274948.000,1.000
8.862,-12.311,5.621,4.417,13.033,-3.691,-0.277,-22.796,-0.013,0.993,-0.063,0.366,0.092,1.282,66.667,274949.000,1.000
10.170,-9.021,8.054,6.991,17.421,0.380,5.456,-18.476,-0.013,0.992,-0.064,0.244,0.122,1.221,66.667,274950.000,1.000
10.356,-6.984,9.002,8.517,19.835,3.679,9.748,-16.248,-0.014,0.990,-0.064,0.275,0.153,1.221,66.667,274951.000,1.000
9.684,-6.475,8.516,8.634,19.917,5.417,11.818,-16.461,-0.014,0.989,-0.065,0.305,0.061,1.129,66.667,274952.000,1.000
8.475,-7.242,6.962,7.465,18.032,5.397,11.707,-18.356,-0.015,0.989,-0.068,0.458,0.183,1.160,66.667,274953.000,1.000
7.042,-8.748,4.816,5.505,14.965,4.075,9.687,-20.904,-0.013,0.992,-0.068,0.458,0.000,1.129,66.667,274954.000,1.000
5.910,-10.314,2.717,3.523,11.722,2.371,6.412,-23.234,-0.012,0.990,-0.066,0.488,-0.031,1.099,66.667,274955.000,1.000
5.670,-11.342,1.298,2.253,9.188,1.302,3.238,-24.790,-0.011,0.990,-0.067,0.610,-0.092,1.038,66.667,274956.000,1.000
6.492,-11.709,0.770,2.006,7.684,1.328,1.454,-25.460,-0.012,0.990,-0.068,0.610,-0.061,1.160,66.667,274957.000,1.000
8.077,-11.729,0.979,2.704,7.005,1.976,1.274,-25.295,-0.009,0.990,-0.067,0.641,-0.031,1.312,66.667,274958.000,1.000
9.774,-11.928,1.534,3.934,6.654,2.179,1.946,-24.290,-0.007,0.989,-0.068,0.641,-0.031,1.343,66.667,274959.000,1.000
10.987,-12.583,2.139,5.210,6.348,1.344,2.512,-22.541,-0.008,0.984,-0.069,0.763,0.122,1.373,66.667,274960.000,1.000
11.515,-13.446,2.770,6.164,6.135,-0.156,2.242,-20.860,-0.009,0.983,-0.069,0.854,0.061,1.434,66.667,274961.000,1.000
11.644,-13.873,3.598,6.662,6.208,-1.404,0.934,-20.501,-0.011,0.982,-0.069,1.007,0.183,1.434,66.667,274962.000,1.000
12.071,-13.036,5.019,7.069,7.024,-1.325,-0.388,-21.522,-0.012,0.984,-0.072,1.221,0.183,1.526,66.667,274963.000,1.000
13.320,-10.478,7.272,7.965,8.963,0.615,-0.028,-22.540,-0.011,0.985,-0.070,1.373,0.244,1.465,66.667,274964.000,1.000
15.460,-6.541,10.212,9.689,11.866,3.865,2.463,-22.332,-0.009,0.987,-0.071,1.495,0.153,1.556,66.667,274965.000,1.000
18.150,-2.295,13.290,12.057,14.931,7.041,5.749,-21.078,-0.011,0.989,-0.071,1.495,0.214,1.556,66.667,274966.000,1.000
20.670,0.872,15.690,14.354,17.043,8.601,7.866,-20.019,-0.011,0.991,-0.071,1.434,0.183,1.556,66.667,274967.000,1.000
22.209,1.963,16.776,15.744,17.389,7.576,7.385,-20.332,-0.010,0.993,-0.070,1.343,0.122,1.465,66.667,274968.000,1.000
22.202,0.814,16.334,15.668,15.808,4.165,4.130,-22.459,-0.011,0.991,-0.072,1.221,0.092,1.526,66.667,274969.000,1.000
20.852,-1.701,14.847,14.367,13.177,0.118,-0.372,-25.551,-0.010,0.990,-0.074,1.190,0.061,1.587,66.667,274970.000,1.000
19.132,-4.012,13.362,12.850,11.093,-2.016,-3.435,-27.620,-0.012,0.992,-0.074,1.282,0.153,1.495,66.667,274971.000,1.000
18.039,-4.953,12.725,12.067,10.646,-0.850,-3.213,-27.057,-0.014,0.992,-0.071,1.251,0.092,1.465,66.667,274972.000,1.000
17.929,-4.584,12.962,12.173,11.593,2.469,-0.216,-24.002,-0.016,0.993,-0.072,1.068,0.122,1.312,66.667,274973.000,1.000
18.207,-4.102,13.171,12.434,12.566,5.061,3.357,-20.252,-0.018,0.993,-0.068,1.007,-0.061,1.190,66.667,274974.000,1.000
17.919,-4.732,12.413,12.070,12.401,4.851,5.528,-17.632,-0.017,0.994,-0.070,0.885,-0.336,1.038,66.667,274975.000,1.000
16.563,-6.685,10.584,10.966,11.114,2.160,6.090,-16.591,-0.018,0.996,-0.073,0.824,-0.366,0.916,66.667,274976.000,1.000
14.393,-9.083,8.443,9.640,9.796,-0.764,6.680,-16.283,-0.017,0.995,-0.073,0.671,-0.549,0.885,66.667,274977.000,1.000
12.213,-10.586,7.083,8.873,9.801,-1.311,9.136,-15.635,-0.015,0.993,-0.070,0.519,-0.763,0.732,66.667,274978.000,1.000
10.706,-10.428,7.087,9.045,11.469,1.467,13.248,-14.604,-0.013,0.994,-0.070,0.427,-0.885,0.580,66.667,274979.000,1.000
10.144,-8.826,8.281,9.897,13.803,6.049,16.208,-14.432,-0.012,0.995,-0.069,0.305,-0.885,0.549,66.667,274980.000,1.000
10.352,-6.627,10.008,10.807,15.291,9.660,14.907,-16.457,-0.014,0.994,-0.068,0.214,-0.916,0.519,66.667,274981.000,1.000
10.815,-4.684,11.582,11.315,15.142,10.419,8.842,-20.440,-0.013,0.994,-0.069,0.214,-1.007,0.488,66.667,274982.000,1.000
11.160,-3.287,12.771,11.544,13.976,8.749,0.877,-24.269,-0.012,0.993,-0.068,0.122,-1.007,0.519,66.667,274983.000,1.000
11.336,-2.275,13.664,11.930,13.099,6.609,-4.797,-25.672,-0.011,0.992,-0.067,0.122,-1.160,0.641,66.667,274984.000,1.000
11.604,-1.422,14.424,12.906,13.486,5.631,-5.594,-23.676,-0.012,0.991,-0.069,0.092,-1.221,0.732,66.667,274985.000,1.000
12.239,-0.643,15.139,14.638,15.323,6.224,-1.673,-18.758,-0.013,0.992,-0.069,-0.031,-1.190,0.793,66.667,274986.000,1.000
13.217,0.042,15.842,16.863,18.176,8.147,4.949,-12.419,-0.013,0.993,-0.067,-0.061,-1.190,0.854,66.667,274987.000,1.000
14.342,0.717,16.689,19.048,21.428,11.130,11.770,-6.695,-0.011,0.991,-0.068,-0.122,-1.221,0.946,66.667,274988.000,1.000
15.264,1.351,17.675,20.524,24.248,14.252,16.614,-3.560,-0.012,0.990,-0.070,-0.214,-1.099,1.007,66.667,274989.000,1.000
15.611,1.674,18.530,20.869,25.858,15.806,18.210,-3.801,-0.012,0.990,-0.067,-0.153,-1.221,1.099,66.667,274990.000,1.000
15.097,1.395,18.883,20.164,25.946,14.552,16.742,-6.497,-0.013,0.990,-0.068,-0.183,-1.190,1.160,66.667,274991.000,1.000
13.600,0.387,18.443,18.865,24.766,10.701,13.414,-9.831,-0.011,0.990,-0.068,-0.214,-1.221,1.190,66.667,274992.000,1.000
11.427,-1.173,17.288,17.607,23.059,5.807,9.708,-12.197,-0.011,0.990,-0.067,-0.183,-1.251,1.190,66.667,274993.000,1.000
9.236,-2.862,15.848,16.871,21.702,2.054,7.379,-12.833,-0.009,0.988,-0.068,-0.214,-1.221,1.312,66.667,274994.000,1.000
7.920,-4.028,14.869,16.971,21.596,1.509,8.342,-11.500,-0.008,0.986,-0.070,-0.214,-1.221,1.312,66.667,274995.000,1.000
8.175,-4.105,14.996,17.951,23.188,4.805,13.431,-8.265,-0.008,0.986,-0.068,-0.183,-1.129,1.312,66.667,274996.000,1.000
9.965,-3.267,16.128,19.258,25.711,10.073,20.562,-4.329,-0.008,0.987,-0.069,-0.183,-1.129,1.251,66.667,274997.000,1.000
12.681,-2.339,17.579,19.950,27.505,14.132,25.120,-2.305,-0.008,0.985,-0.068,-0.183,-1.038,1.129,66.667,274998.000,1.000
15.558,-2.089,18.630,19.328,27.243,14.890,23.487,-4.489,-0.008,0.984,-0.067,-0.092,-0.946,1.129,66.667,274999.000,1.000
18.106,-2.587,19.044,17.553,24.948,12.511,15.802,-10.665,-0.008,0.983,-0.066,0.000,-0.793,1.160,66.667,275000.000,1.000
20.142,-3.299,18.979,15.458,21.646,8.622,5.304,-18.292,-0.008,0.983,-0.068,0.122,-0.763,1.099,66.667,275001.000,1.000
21.629,-3.639,18.676,13.914,18.559,5.103,-3.816,-24.318,-0.008,0.982,-0.068,0.275,-0.732,1.038,66.667,275002.000,1.000
22.764,-3.207,18.506,13.579,16.845,3.500,-8.061,-26.440,-0.008,0.980,-0.072,0.488,-0.702,0.946,66.667,275003.000,1.000
23.753,-2.019,18.741,14.596,17.067,4.370,-6.144,-24.045,-0.008,0.981,-0.073,0.641,-0.702,0.885,66.667,275004.000,1.000
24.701,-0.551,19.389,16.537,18.895,7.038,0.204,-18.416,-0.007,0.979,-0.071,0.763,-0.671,0.946,66.667,275005.000,1.000
25.541,0.499,20.182,18.589,21.333,10.118,7.490,-11.994,-0.006,0.981,-0.069,0.885,-0.458,0.977,66.667,275006.000,1.000
26.013,0.547,20.660,19.827,23.185,12.101,12.440,-7.345,-0.006,0.981,-0.069,0.916,-0.336,0.946,66.667,275007.000,1.000
26.038,-0.383,20.594,19.747,23.708,12.029,13.437,-5.977,-0.006,0.982,-0.073,1.068,-0.305,0.946,66.667,275008.000,1.000
25.860,-1.507,20.193,18.558,23.020,10.262,11.302,-7.574,-0.007,0.984,-0.073,1.038,-0.183,1.068,66.667,275009.000,1.000
25.871,-1.752,20.008,17.086,22.081,8.627,8.568,-10.413,-0.008,0.987,-0.073,1.099,-0.092,1.099,66.667,275010.000,1.000
26.070,-0.692,20.343,16.062,21.794,8.957,7.414,-12.870,-0.009,0.989,-0.073,1.190,0.031,1.038,66.667,275011.000,1.000
25.927,1.019,20.830,15.575,22.182,11.397,8.213,-14.225,-0.010,0.989,-0.072,1.068,0.000,1.068,66.667,275012.000,1.000
25.028,2.426,20.895,15.386,22.811,14.651,10.152,-14.078,-0.011,0.993,-0.071,0.916,0.092,1.129,66.667,275013.000,1.000
23.381,3.035,20.236,15.228,23.363,17.301,12.607,-12.209,-0.012,0.994,-0.069,0.885,0.092,1.099,66.667,275014.000,1.000
21.426,2.896,19.080,14.951,23.796,18.536,15.162,-9.130,-0.014,0.993,-0.065,0.763,0.061,1.190,66.667,275015.000,1.000
19.768,2.222,17.903,14.468,23.985,18.051,16.919,-6.264,-0.016,0.991,-0.064,0.488,0.000,1.129,66.667,275016.000,1.000
18.801,1.048,16.967,13.735,23.601,15.998,16.782,-5.059,-0.014,0.989,-0.068,0.488,-0.092,1.068,66.667,275017.000,1.000
18.602,-0.627,16.359,12.963,22.605,13.120,14.613,-5.695,-0.014,0.989,-0.065,0.397,-0.122,1.099,66.667,275018.000,1.000
18.789,-2.745,15.961,12.443,21.311,10.350,11.540,-7.133,-0.015,0.991,-0.069,0.244,-0.183,1.251,66.667,275019.000,1.000
18.822,-5.049,15.586,12.370,20.195,8.416,9.002,-8.122,-0.011,0.993,-0.071,0.122,-0.183,1.251,66.667,275020.000,1.000
18.456,-6.979,15.199,12.788,19.620,7.632,7.905,-8.032,-0.010,0.997,-0.068,0.000,-0.214,1.373,66.667,275021.000,1.000
17.850,-7.882,15.006,13.630,19.675,7.788,8.379,-7.031,-0.011,0.998,-0.069,-0.183,-0.275,1.343,66.667,275022.000,1.000
17.445,-7.279,15.449,14.868,20.351,8.530,9.955,-5.682,-0.012,0.997,-0.070,-0.397,-0.183,1.587,66.667,275023.000,1.000
17.396,-5.313,16.658,16.260,21.371,9.523,11.645,-4.740,-0.010,0.995,-0.069,-0.580,-0.275,1.556,66.667,275024.000,1.000
17.464,-2.805,18.211,17.338,22.293,10.477,12.158,-4.800,-0.009,0.993,-0.071,-0.763,-0.305,1.556,66.667,275025.000,1.000
17.337,-0.714,19.428,17.770,22.916,11.471,11.248,-5.608,-0.005,0.991,-0.072,-0.854,-0.244,1.740,66.667,275026.000,1.000
16.844,0.326,19.760,17.579,23.389,13.066,10.461,-6.127,-0.004,0.991,-0.067,-0.824,-0.244,1.862,66.667,275027.000,1.000
15.997,0.091,19.063,17.024,23.781,15.413,11.305,-5.769,-0.007,0.991,-0.066,-0.977,-0.214,1.831,66.667,275028.000,1.000
14.736,-1.481,17.433,16.153,23.488,17.164,13.046,-5.330,-0.011,0.993,-0.065,-1.099,-0.092,1.892,66.667,275029.000,1.000
13.143,-4.071,15.299,14.977,21.892,16.512,13.487,-5.962,-0.013,0.992,-0.066,-1.221,-0.061,1.862,66.667,275030.000,1.000
11.644,-6.738,13.406,13.769,19.295,13.211,11.631,-7.830,-0.016,0.991,-0.067,-1.343,-0.183,1.709,66.667,275031.000,1.000
10.687,-8.423,12.340,12.935,16.809,8.859,8.630,-9.953,-0.016,0.990,-0.067,-1.343,-0.275,1.648,66.667,275032.000,1.000
10.442,-8.579,12.229,12.821,15.654,5.703,6.805,-10.667,-0.015,0.987,-0.069,-1.343,-0.397,1.404,66.667,275033.000,1.000
10.481,-7.590,12.498,13.313,16.177,5.164,8.066,-8.878,-0.013,0.988,-0.066,-1.312,-0.580,1.282,66.667,275034.000,1.000
10.044,-6.545,12.262,13.817,17.603,7.052,12.303,-5.277,-0.014,0.988,-0.067,-1.221,-0.641,1.251,66.667,275035.000,1.000
8.659,-6.468,11.030,13.682,18.629,9.782,17.264,-2.045,-0.013,0.987,-0.066,-1.190,-0.732,1.221,66.667,275036.000,1.000
6.557,-7.636,9.069,12.712,18.360,11.551,20.252,-1.096,-0.014,0.987,-0.068,-1.190,-0.793,1.007,66.667,275037.000,1.000
4.649,-9.398,7.259,11.393,16.948,11.768,19.966,-2.590,-0.011,0.988,-0.067,-1.190,-0.702,0.885,66.667,275038.000,1.000
3.768,-10.877,6.282,10.318,15.116,11.142,16.981,-5.244,-0.011,0.989,-0.064,-1.038,-0.732,0.916,66.667,275039.000,1.000
4.095,-11.670,6.136,9.713,13.476,10.622,12.837,-7.525,-0.011,0.990,-0.066,-1.038,-0.854,0.793,66.667,275040.000,1.000
5.060,-11.948,6.247,9.392,12.222,10.502,8.957,-8.624,-0.012,0.989,-0.063,-0.885,-0.885,0.824,66.667,275041.000,1.000
5.753,-12.147,6.021,9.068,11.356,10.494,6.248,-8.484,-0.011,0.988,-0.064,-0.763,-0.977,0.854,66.667,275042.000,1.000
5.720,-12.448,5.493,8.793,11.161,10.366,5.268,-7.238,-0.010,0.989,-0.064,-0.702,-0.916,0.885,66.667,275043.000,1.000
5.146,-12.758,5.123,8.722,11.824,9.998,6.016,-5.470,-0.010,0.989,-0.062,-0.641,-1.007,0.946,66.667,275044.000,1.000
4.617,-12.881,5.355,8.859,13.165,9.430,7.848,-4.174,-0.009,0.990,-0.062,-0.641,-1.068,1.007,66.667,275045.000,1.000
4.630,-12.631,6.304,9.082,14.844,9.021,10.289,-3.801,-0.010,0.990,-0.061,-0.549,-1.068,1.190,66.667,275046.000,1.000
5.159,-12.075,7.592,9.159,16.422,8.951,12.992,-4.095,-0.010,0.992,-0.062,-0.641,-1.038,1.190,66.667,275047.000,1.000
5.821,-11.543,8.618,8.842,17.419,8.746,14.919,-4.894,-0.012,0.991,-0.065,-0.488,-1.129,1.160,66.667,275048.000,1.000
6.138,-11.399,8.837,7.905,17.456,7.701,14.902,-6.380,-0.012,0.991,-0.063,-0.488,-1.068,1.160,66.667,275049.000,1.000
5.906,-11.653,8.164,6.450,16.657,5.741,12.787,-8.362,-0.013,0.990,-0.063,-0.427,-1.129,1.282,66.667,275050.000,1.000
5.209,-12.058,6.916,4.864,15.371,3.294,9.466,-10.159,-0.012,0.990,-0.064,-0.275,-1.068,1.373,66.667,275051.000,1.000
4.213,-12.539,5.384,3.472,13.617,0.674,6.064,-11.330,-0.013,0.990,-0.064,-0.214,-1.190,1.251,66.667,275052.000,1.000
3.293,-13.059,3.878,2.569,11.363,-1.757,3.426,-11.885,-0.012,0.990,-0.062,-0.122,-1.434,1.343,66.667,275053.000,1.000
2.796,-13.482,2.651,2.343,8.801,-3.460,2.038,-12.067,-0.011,0.988,-0.065,-0.031,-1.404,1.373,66.667,275054.000,1.000
2.789,-13.700,1.809,2.784,6.329,-4.031,1.821,-12.171,-0.010,0.989,-0.064,0.153,-1.373,1.404,66.667,275055.000,1.000
2.997,-13.843,1.230,3.570,4.181,-3.701,2.000,-12.675,-0.010,0.988,-0.065,0.092,-1.282,1.373,66.667,275056.000,1.000
2.986,-14.217,0.701,4.173,2.332,-3.232,1.661,-14.057,-0.009,0.989,-0.063,0.153,-1.251,1.343,66.667,275057.000,1.000
2.706,-14.784,0.377,4.421,1.071,-2.964,0.864,-15.932,-0.008,0.989,-0.063,0.275,-1.343,1.404,66.667,275058.000,1.000
2.534,-15.059,0.673,4.594,1.039,-2.512,0.898,-16.970,-0.007,0.988,-0.067,0.366,-1.343,1.343,66.667,275059.000,1.000
3.002,-14.489,1.923,5.188,2.804,-1.300,3.117,-15.782,-0.006,0.986,-0.068,0.427,-1.221,1.312,66.667,275060.000,1.000
4.227,-12.963,3.950,6.383,6.244,0.817,7.744,-12.216,-0.005,0.986,-0.066,0.519,-1.129,1.251,66.667,275061.000,1.000
5.449,-11.147,5.797,7.628,10.252,3.276,13.370,-8.043,-0.005,0.986,-0.066,0.580,-1.038,1.282,66.667,275062.000,1.000
5.441,-10.106,6.256,8.040,13.363,5.093,17.468,-5.770,-0.004,0.987,-0.065,0.641,-0.916,1.221,66.667,275063.000,1.000
3.312,-10.651,4.597,7.022,14.512,5.350,17.963,-6.714,-0.005,0.988,-0.066,0.763,-0.854,1.343,66.667,275064.000,1.000
-0.594,-12.641,1.247,4.812,13.711,3.944,14.809,-10.066,-0.005,0.987,-0.066,0.732,-0.854,1.282,66.667,275065.000,1.000
-4.704,-14.908,-2.320,2.366,12.003,1.846,10.130,-13.668,-0.007,0.987,-0.068,0.916,-0.793,1.160,66.667,275066.000,1.000
-7.316,-16.120,-4.564,0.681,10.643,0.312,6.565,-15.516,-0.009,0.988,-0.069,0.946,-0.732,1.099,66.667,275067.000,1.000
-7.493,-15.578,-4.615,0.339,10.486,0.064,5.548,-14.676,-0.009,0.989,-0.071,0.916,-0.763,1.129,66.667,275068.000,1.000
-5.408,-13.530,-2.610,1.269,11.629,1.058,7.087,-11.585,-0.008,0.988,-0.070,0.916,-0.580,1.038,66.667,275069.000,1.000
-1.939,-10.842,0.630,2.997,13.659,2.824,10.363,-7.563,-0.009,0.991,-0.071,1.007,-0.519,0.946,66.667,275070.000,1.000
1.815,-8.503,4.024,4.908,15.897,4.706,14.328,-4.019,-0.011,0.991,-0.070,0.977,-0.549,0.885,66.667,275071.000,1.000
4.858,-7.320,6.540,6.372,17.506,5.935,17.889,-1.850,-0.009,0.991,-0.067,1.007,-0.458,0.977,66.667,275072.000,1.000
6.680,-7.572,7.641,7.064,17.863,5.959,19.904,-1.162,-0.010,0.990,-0.068,0.946,-0.488,0.793,66.667,275073.000,1.000
7.121,-9.084,7.232,6.871,16.647,4.560,19.393,-1.722,-0.010,0.991,-0.066,0.885,-0.488,0.824,66.667,275074.000,1.000
6.318,-11.405,5.672,5.915,14.118,1.957,16.063,-3.192,-0.012,0.991,-0.065,0.854,-0.519,0.702,66.667,275075.000,1.000
4.768,-13.858,3.772,4.655,11.268,-1.074,10.909,-4.939,-0.012,0.991,-0.064,0.824,-0.580,0.671,66.667,275076.000,1.000
3.179,-15.714,2.452,3.736,9.398,-3.333,6.060,-6.046,-0.012,0.991,-0.067,0.732,-0.641,0.702,66.667,275077.000,1.000
2.342,-16.397,2.397,3.786,9.498,-3.697,3.744,-5.570,-0.016,0.992,-0.068,0.702,-0.610,0.641,66.667,275078.000,1.000
2.728,-15.835,3.675,5.025,11.542,-2.142,5.058,-3.231,-0.013,0.992,-0.070,0.580,-0.702,0.641,66.667,275079.000,1.000
4.344,-14.429,5.902,7.250,14.687,0.240,9.465,0.314,-0.015,0.989,-0.067,0.549,-0.824,0.671,66.667,275080.000,1.000
6.802,-12.673,8.594,9.947,17.940,2.398,15.368,3.913,-0.015,0.990,-0.068,0.519,-0.885,0.641,66.667,275081.000,1.000
9.477,-10.917,11.297,12.414,20.530,3.951,20.853,6.567,-0.015,0.990,-0.066,0.458,-0.977,0.641,66.667,275082.000,1.000
11.860,-9.248,13.729,14.149,22.144,4.950,24.350,7.821,-0.015,0.989,-0.066,0.366,-1.099,0.610,66.667,275083.000,1.000
13.526,-7.703,15.556,14.857,22.642,5.422,24.932,7.348,-0.017,0.990,-0.067,0.275,-1.190,0.641,66.667,275084.000,1.000
14.251,-6.303,16.499,14.479,22.047,5.501,22.341,5.025,-0.018,0.990,-0.065,0.244,-1.312,0.549,66.667,275085.000,1.000
14.177,-4.895,16.668,13.328,20.856,5.739,17.660,1.706,-0.017,0.990,-0.067,0.244,-1.404,0.641,66.667,275086.000,1.000
13.728,-3.223,16.516,12.001,19.962,6.910,13.401,-0.897,-0.017,0.991,-0.066,0.183,-1.465,0.732,66.667,275087.000,1.000
13.462,-1.202,16.509,11.132,20.136,9.473,11.927,-1.290,-0.018,0.992,-0.066,0.061,-1.617,0.763,66.667,275088.000,1.000
13.597,0.686,16.624,10.893,21.197,12.834,13.562,0.521,-0.018,0.990,-0.068,0.153,-1.648,0.732,66.667,275089.000,1.000
13.998,1.633,16.516,11.048,22.188,15.574,16.388,2.988,-0.017,0.989,-0.068,0.031,-1.770,0.732,66.667,275090.000,1.000
14.387,1.184,15.930,11.283,22.268,16.576,18.254,4.413,-0.017,0.989,-0.068,-0.061,-1.770,0.793,66.667,275091.000,1.000
14.443,-0.485,14.796,11.321,21.221,15.654,18.714,4.272,-0.017,0.990,-0.069,0.031,-1.923,0.763,66.667,275092.000,1.000
14.080,-2.630,13.326,11.005,19.515,13.408,18.735,3.313,-0.018,0.988,-0.067,0.031,-1.953,0.763,66.667,275093.000,1.000
13.429,-4.442,11.808,10.186,17.739,10.763,18.848,2.487,-0.016,0.990,-0.068,-0.092,-2.075,0.885,66.667,275094.000,1.000
12.826,-5.443,10.515,8.877,16.334,8.691,18.326,2.292,-0.015,0.988,-0.067,-0.061,-2.197,0.885,66.667,275095.000,1.000
12.578,-5.612,9.605,7.307,15.511,7.757,16.320,2.625,-0.012,0.988,-0.067,0.000,-2.197,0.946,66.667,275096.000,1.000
12.653,-5.282,9.039,5.724,15.185,7.726,12.757,2.720,-0.013,0.989,-0.066,-0.092,-2.167,1.007,66.667,275097.000,1.000
12.864,-4.710,8.889,4.475,15.337,8.013,8.446,1.842,-0.013,0.988,-0.066,-0.031,-2.075,1.038,66.667,275098.000,1.000
12.942,-3.966,9.272,3.924,16.105,8.290,5.187,0.197,-0.013,0.988,-0.065,-0.031,-2.045,1.099,66.667,275099.000,1.000
12.673,-3.100,10.202,4.381,17.678,8.610,4.862,-0.960,-0.009,0.990,-0.065,-0.061,-1.984,1.190,66.667,275100.000,1.000
11.991,-2.390,11.476,5.887,19.864,8.938,7.643,-0.491,-0.010,0.990,-0.064,-0.092,-1.984,1.282,66.667,275101.000,1.000
10.920,-2.399,12.621,7.984,21.821,8.845,11.387,1.396,-0.010,0.988,-0.066,-0.122,-1.831,1.190,66.667,275102.000,1.000
9.739,-3.411,13.316,10.021,22.738,8.268,13.648,3.627,-0.010,0.990,-0.066,-0.122,-1.831,1.312,66.667,275103.000,1.000
8.906,-5.019,13.648,11.580,22.506,7.988,14.268,5.615,-0.010,0.989,-0.065,0.000,-1.770,1.312,66.667,275104.000,1.000
8.943,-6.338,14.112,12.771,21.755,8.726,14.871,7.687,-0.008,0.988,-0.066,-0.061,-1.678,1.251,66.667,275105.000,1.000
10.074,-6.725,15.101,13.847,21.056,9.865,16.054,9.918,-0.008,0.988,-0.065,-0.061,-1.587,1.282,66.667,275106.000,1.000
11.921,-6.239,16.409,14.670,20.393,9.797,16.449,11.347,-0.008,0.988,-0.068,-0.031,-1.556,1.251,66.667,275107.000,1.000
13.781,-5.322,17.503,14.948,19.713,7.709,14.943,11.186,-0.010,0.989,-0.067,-0.061,-1.312,1.190,66.667,275108.000,1.000
14.832,-4.520,17.786,14.477,19.161,4.309,12.508,9.979,-0.010,0.989,-0.065,-0.092,-1.282,1.190,66.667,275109.000,1.000
14.582,-4.314,16.927,13.295,18.894,1.159,10.979,9.184,-0.009,0.990,-0.068,0.031,-1.160,1.160,66.667,275110.000,1.000
13.178,-4.914,15.053,11.655,18.742,-0.504,10.968,9.566,-0.010,0.990,-0.067,0.031,-1.160,1.221,66.667,275111.000,1.000
11.240,-6.191,12.652,9.889,18.231,-0.477,11.501,10.350,-0.010,0.992,-0.065,0.000,-1.099,1.099,66.667,275112.000,1.000
9.609,-7.641,10.530,8.475,17.262,0.816,11.389,10.334,-0.009,0.991,-0.065,-0.061,-0.977,1.007,66.667,275113.000,1.000
8.873,-8.669,9.363,7.781,16.228,2.779,10.502,9.046,-0.010,0.990,-0.068,-0.061,-0.946,1.007,66.667,275114.000,1.000
9.183,-8.887,9.376,7.879,15.679,4.711,9.567,6.967,-0.010,0.991,-0.067,-0.092,-0.793,1.068,66.667,275115.000,1.000
10.231,-8.262,10.268,8.526,15.893,5.982,9.360,5.103,-0.011,0.991,-0.066,-0.092,-0.671,0.946,66.667,275116.000,1.000
11.369,-7.151,11.414,9.284,16.702,6.336,10.121,4.353,-0.012,0.991,-0.067,-0.122,-0.671,0.916,66.667,275117.000,1.000
12.090,-5.995,12.368,9.815,17.768,6.004,11.218,4.954,-0.012,0.990,-0.066,-0.153,-0.671,0.702,66.667,275118.000,1.000
12.175,-5.083,12.925,9.834,18.660,5.411,11.557,6.145,-0.013,0.992,-0.067,-0.122,-0.641,0.885,66.667,275119.000,1.000
11.776,-4.385,13.155,9.263,19.238,5.214,10.833,7.040,-0.012,0.992,-0.068,-0.214,-0.580,0.885,66.667,275120.000,1.000
11.240,-3.678,13.279,8.353,19.806,6.245,10.149,7.645,-0.014,0.992,-0.066,-0.183,-0.549,0.854,66.667,275121.000,1.000
10.722,-2.976,13.310,7.411,20.603,8.805,10.606,8.477,-0.015,0.990,-0.067,-0.153,-0.580,0.854,66.667,275122.000,1.000
10.132,-2.676,12.993,6.599,21.525,12.186,11.854,9.700,-0.016,0.990,-0.064,-0.153,-0.641,0.946,66.667,275123.000,1.000
9.084,-3.421,11.847,5.771,22.127,14.958,12.708,10.864,-0.014,0.991,-0.063,-0.061,-0.580,0.977,66.667,275124.000,1.000
7.309,-5.555,9.655,4.785,22.169,16.036,12.551,11.536,-0.015,0.991,-0.065,-0.122,-0.610,0.977,66.667,275125.000,1.000
5.047,-8.704,6.816,3.780,21.886,15.282,11.787,11.830,-0.016,0.990,-0.064,-0.214,-0.519,0.946,66.667,275126.000,1.000
2.928,-12.040,4.059,3.024,21.624,13.149,11.104,12.203,-0.015,0.989,-0.066,-0.275,-0.641,1.007,66.667,275127.000,1.000
1.683,-14.673,2.169,2.809,21.657,10.451,10.801,13.012,-0.016,0.986,-0.063,-0.153,-0.671,1.129,66.667,275128.000,1.000
1.612,-16.027,1.591,3.220,22.046,8.310,11.005,14.097,-0.015,0.987,-0.065,-0.092,-0.763,1.099,66.667,275129.000,1.000
2.525,-16.021,2.314,4.110,22.727,7.748,11.876,15.007,-0.014,0.986,-0.062,-0.061,-0.793,1.129,66.667,275130.000,1.000
3.925,-15.149,3.871,5.113,23.397,8.597,13.284,15.471,-0.013,0.986,-0.066,0.031,-0.793,1.190,66.667,275131.000,1.000
5.180,-14.342,5.453,5.725,23.438,9.212,14.545,15.410,-0.012,0.989,-0.067,0.000,-0.793,1.312,66.667,275132.000,1.000
5.917,-14.276,6.472,5.734,22.521,8.075,15.002,14.960,-0.013,0.990,-0.066,0.031,-0.763,1.373,66.667,275133.000,1.000
6.104,-14.984,6.790,5.313,20.859,5.035,14.532,14.440,-0.013,0.990,-0.067,0.122,-0.793,1.434,66.667,275134.000,1.000
6.037,-15.943,6.687,4.866,19.059,1.133,13.118,14.077,-0.014,0.988,-0.065,0.153,-0.854,1.465,66.667,275135.000,1.000
6.104,-16.422,6.572,4.635,17.685,-2.054,10.829,13.613,-0.014,0.989,-0.066,0.092,-0.824,1.648,66.667,275136.000,1.000
6.481,-15.876,6.681,4.513,16.923,-3.070,8.226,12.562,-0.014,0.987,-0.065,0.183,-0.824,1.587,66.667,275137.000,1.000
7.243,-14.102,7.198,4.418,16.750,-1.315,6.203,11.084,-0.015,0.984,-0.065,0.153,-0.854,1.556,66.667,275138.000,1.000
8.274,-11.355,8.172,4.374,16.980,2.322,5.583,9.957,-0.014,0.984,-0.064,0.183,-0.763,1.526,66.667,275139.000,1.000
9.356,-8.176,9.556,4.517,17.547,6.131,6.785,9.883,-0.013,0.985,-0.065,0.336,-0.824,1.556,66.667,275140.000,1.000
10.241,-5.141,11.184,4.972,18.561,8.978,9.676,10.921,-0.011,0.990,-0.064,0.336,-0.824,1.526,66.667,275141.000,1.000
10.650,-2.774,12.676,5.694,19.958,10.771,13.369,12.521,-0.009,0.991,-0.068,0.458,-0.854,1.526,66.667,275142.000,1.000
10.559,-1.379,13.724,6.603,21.487,11.955,16.350,14.074,-0.009,0.991,-0.066,0.366,-0.916,1.587,66.667,275143.000,1.000
10.108,-1.060,14.111,7.503,22.662,12.754,17.317,15.071,-0.006,0.992,-0.066,0.305,-0.824,1.617,66.667,275144.000,1.000
9.503,-1.750,13.779,8.192,23.052,13.114,15.880,15.285,-0.007,0.991,-0.070,0.275,-0.702,1.587,66.667,275145.000,1.000
8.921,-3.144,12.828,8.622,22.597,13.040,12.758,15.038,-0.006,0.988,-0.071,0.305,-0.671,1.617,66.667,275146.000,1.000
8.387,-4.782,11.390,8.841,21.630,12.716,9.628,15.148,-0.005,0.983,-0.069,0.458,-0.580,1.678,66.667,275147.000,1.000
7.921,-6.136,9.696,8.953,20.791,12.515,8.452,16.463,-0.004,0.980,-0.067,0.641,-0.580,1.678,66.667,275148.000,1.000
7.381,-6.962,7.865,8.806,20.351,12.572,10.089,18.802,-0.004,0.980,-0.069,0.824,-0.458,1.678,66.667,275149.000,1.000
6.505,-7.455,5.916,8.074,19.969,12.566,13.198,20.785,-0.005,0.983,-0.068,0.946,-0.336,1.678,66.667,275150.000,1.000
5.164,-7.938,4.037,6.708,19.266,12.129,15.529,21.244,-0.006,0.986,-0.069,0.977,-0.214,1.678,66.667,275151.000,1.000
3.601,-8.515,2.718,5.230,18.458,11.332,16.294,20.573,-0.008,0.990,-0.068,0.977,-0.061,1.587,66.667,275152.000,1.000
2.579,-8.944,2.640,4.557,18.285,10.612,16.210,20.065,-0.007,0.992,-0.067,1.068,0.000,1.587,66.667,275153.000,1.000
2.827,-8.954,4.053,5.176,19.076,10.130,15.773,20.049,-0.008,0.994,-0.066,1.038,0.031,1.617,66.667,275154.000,1.000
4.612,-8.405,6.677,6.965,20.669,9.775,14.813,20.072,-0.007,0.994,-0.071,0.977,0.000,1.465,66.667,275155.000,1.000
7.543,-7.338,9.898,9.487,22.878,9.654,13.518,20.255,-0.008,0.995,-0.067,0.854,0.000,1.434,66.667,275156.000,1.000
10.579,-6.071,12.862,12.141,25.518,10.094,12.795,21.311,-0.010,0.995,-0.070,0.824,0.061,1.282,66.667,275157.000,1.000
12.622,-4.918,14.930,14.459,28.410,11.390,13.602,23.818,-0.013,0.994,-0.069,0.732,0.000,1.160,66.667,275158.000,1.000
12.967,-3.978,15.884,16.145,31.152,13.489,16.145,27.481,-0.017,0.996,-0.066,0.641,-0.122,1.038,66.667,275159.000,1.000
11.609,-3.144,15.895,17.050,33.217,16.008,19.601,31.186,-0.018,0.996,-0.068,0.488,-0.153,0.793,66.667,275160.000,1.000
9.170,-2.285,15.283,17.081,34.189,18.353,22.909,33.742,-0.019,0.998,-0.066,0.427,-0.458,0.488,66.667,275161.000,1.000
6.539,-1.495,14.318,16.160,33.884,19.762,25.462,34.451,-0.020,0.998,-0.066,0.214,-0.641,0.305,66.667,275162.000,1.000
4.748,-1.002,13.436,14.554,32.575,19.745,26.880,33.399,-0.018,0.995,-0.067,0.031,-0.854,0.183,66.667,275163.000,1.000
4.551,-0.996,13.051,12.831,30.774,18.270,26.820,31.375,-0.019,0.993,-0.067,-0.031,-0.916,-0.031,66.667,275164.000,1.000
6.191,-1.395,13.388,11.662,29.023,15.771,25.288,29.656,-0.018,0.991,-0.065,-0.092,-1.099,-0.031,66.667,275165.000,1.000
9.350,-1.814,14.408,11.446,27.616,13.058,22.863,29.142,-0.017,0.990,-0.065,-0.183,-1.160,-0.092,66.667,275166.000,1.000
13.115,-1.979,15.660,11.931,26.280,10.936,20.111,29.426,-0.016,0.990,-0.063,-0.092,-1.343,-0.031,66.667,275167.000,1.000
16.284,-2.024,16.443,12.404,24.522,9.813,17.159,29.325,-0.016,0.989,-0.064,-0.122,-1.434,-0.061,66.667,275168.000,1.000
17.705,-2.486,16.003,12.034,22.025,9.458,14.242,28.088,-0.016,0.990,-0.066,-0.061,-1.587,0.153,66.667,275169.000,1.000
16.969,-3.846,14.077,10.485,19.040,9.308,11.997,26.054,-0.016,0.991,-0.064,0.031,-1.770,0.305,66.667,275170.000,1.000
14.652,-6.068,11.150,8.161,16.222,8.862,10.927,24.188,-0.017,0.987,-0.065,-0.092,-1.953,0.366,66.667,275171.000,1.000
11.761,-8.614,8.106,5.840,14.074,7.825,10.841,23.277,-0.017,0.986,-0.063,-0.061,-1.984,0.519,66.667,275172.000,1.000
9.205,-10.680,5.904,4.356,12.882,6.316,11.163,23.839,-0.017,0.987,-0.065,-0.061,-1.984,0.641,66.667,275173.000,1.000
7.297,-11.735,5.019,4.110,12.563,4.650,11.536,25.977,-0.017,0.987,-0.063,0.031,-2.075,0.824,66.667,275174.000,1.000
5.897,-11.820,5.277,4.977,12.807,3.174,11.925,29.299,-0.016,0.989,-0.064,0.000,-2.197,0.946,66.667,275175.000,1.000
4.841,-11.276,6.192,6.604,13.493,2.446,12.767,33.218,-0.018,0.989,-0.063,0.153,-2.228,1.099,66.667,275176.000,1.000
4.184,-10.363,7.373,8.627,14.792,3.188,14.677,37.082,-0.017,0.990,-0.066,0.183,-2.319,1.190,66.667,275177.000,1.000
4.303,-9.058,8.801,10.764,16.915,5.844,17.575,40.062,-0.015,0.989,-0.064,0.183,-2.411,1.282,66.667,275178.000,1.000
5.445,-7.354,10.493,12.590,19.473,9.907,20.432,41.204,-0.013,0.990,-0.065,0.031,-2.350,1.434,66.667,275179.000,1.000
7.568,-5.409,12.443,13.776,21.719,13.970,21.864,40.278,-0.011,0.989,-0.063,0.000,-2.319,1.526,66.667,275180.000,1.000
10.436,-3.401,14.706,14.384,23.230,16.551,21.265,38.183,-0.011,0.987,-0.062,0.000,-2.258,1.465,66.667,275181.000,1.000
13.599,-1.500,17.181,14.638,24.114,17.017,19.431,36.275,-0.010,0.987,-0.066,0.061,-2.319,1.465,66.667,275182.000,1.000
16.522,0.186,19.568,14.776,24.951,16.086,18.150,35.808,-0.009,0.988,-0.066,0.061,-2.289,1.434,66.667,275183.000,1.000
18.518,1.457,21.325,14.839,26.190,15.074,19.089,37.426,-0.009,0.987,-0.069,0.092,-2.197,1.465,66.667,275184.000,1.000
18.948,1.929,21.941,14.697,27.780,14.698,22.405,40.684,-0.008,0.985,-0.067,0.153,-2.106,1.434,66.667,275185.000,1.000
17.545,1.249,21.277,14.169,29.205,14.661,26.383,44.031,-0.005,0.982,-0.065,0.275,-1.953,1.251,66.667,275186.000,1.000
14.563,-0.601,19.648,13.167,29.837,14.148,28.572,45.654,-0.006,0.982,-0.067,0.397,-1.770,1.221,66.667,275187.000,1.000
10.875,-3.121,17.819,11.953,29.512,12.624,27.335,44.708,-0.005,0.980,-0.068,0.488,-1.678,1.282,66.667,275188.000,1.000
7.591,-5.575,16.516,10.924,28.467,10.135,22.742,41.639,-0.005,0.982,-0.069,0.610,-1.556,1.099,66.667,275189.000,1.000
5.815,-7.260,16.170,10.501,27.267,7.572,16.640,37.928,-0.004,0.983,-0.069,0.671,-1.434,1.007,66.667,275190.000,1.000
6.350,-7.697,16.852,11.020,26.606,6.399,12.039,35.390,-0.005,0.982,-0.069,0.885,-1.221,1.038,66.667,275191.000,1.000
9.218,-6.968,18.097,12.387,26.679,7.277,11.149,35.016,-0.005,0.982,-0.066,1.038,-1.068,0.916,66.667,275192.000,1.000
13.644,-5.723,19.096,14.047,26.920,9.176,13.315,36.321,-0.006,0.985,-0.066,1.099,-0.946,0.977,66.667,275193.000,1.000
18.269,-4.860,19.002,15.179,26.215,10.128,15.399,37.700,-0.006,0.986,-0.067,1.190,-0.824,0.946,66.667,275194.000,1.000
21.827,-4.969,17.517,15.326,23.872,9.015,14.440,37.786,-0.005,0.988,-0.068,1.251,-0.671,0.916,66.667,275195.000,1.000
23.658,-5.934,15.099,14.708,20.285,6.524,10.156,36.493,-0.006,0.989,-0.065,1.221,-0.519,0.946,66.667,275196.000,1.000
23.697,-7.104,12.555,13.864,16.594,4.469,4.888,34.804,-0.007,0.987,-0.068,1.251,-0.336,0.885,66.667,275197.000,1.000
22.366,-7.726,10.662,13.308,14.064,4.409,1.598,34.064,-0.009,0.989,-0.069,1.221,-0.336,0.946,66.667,275198.000,1.000
20.106,-7.460,9.672,13.140,13.270,6.447,2.032,35.098,-0.008,0.992,-0.068,1.251,-0.214,0.916,66.667,275199.000,1.000
17.247,-6.448,9.368,13.071,13.910,9.302,5.718,37.570,-0.009,0.996,-0.068,1.190,-0.214,1.068,66.667,275200.000,1.000
14.094,-5.061,9.427,12.698,15.169,11.425,10.448,40.011,-0.012,0.995,-0.068,0.977,-0.153,1.007,66.667,275201.000,1.000
10.983,-3.754,9.643,11.833,16.323,12.078,14.050,41.066,-0.014,0.996,-0.066,0.885,-0.092,1.007,66.667,275202.000,1.000
8.506,-2.845,10.105,10.825,17.339,11.631,15.782,40.857,-0.017,0.993,-0.064,0.732,-0.244,1.068,66.667,275203.000,1.000
7.175,-2.547,10.815,10.053,18.423,10.789,16.151,40.273,-0.016,0.990,-0.064,0.580,-0.214,0.977,66.667,275204.000,1.000
7.131,-2.897,11.472,9.464,19.581,10.128,15.837,39.709,-0.018,0.989,-0.065,0.549,-0.397,0.977,66.667,275205.000,1.000
8.121,-3.648,11.653,8.650,20.674,10.178,15.259,39.093,-0.015,0.990,-0.068,0.458,-0.397,1.007,66.667,275206.000,1.000
9.535,-4.572,10.960,7.132,21.415,10.983,14.473,38.328,-0.014,0.992,-0.069,0.427,-0.427,1.007,66.667,275207.000,1.000
10.717,-5.632,9.334,4.846,21.549,11.766,13.258,37.570,-0.013,0.995,-0.068,0.427,-0.366,1.160,66.667,275208.000,1.000
11.111,-6.805,7.151,2.295,21.055,11.587,11.909,37.297,-0.015,0.996,-0.065,0.366,-0.397,1.160,66.667,275209.000,1.000
10.567,-7.806,5.253,0.505,20.457,10.455,11.616,38.290,-0.016,0.996,-0.068,0.214,-0.488,1.312,66.667,275210.000,1.000
9.406,-8.253,4.508,0.446,20.417,9.251,13.333,40.832,-0.012,0.993,-0.068,0.092,-0.488,1.343,66.667,275211.000,1.000
8.058,-8.187,5.072,2.218,20.899,8.622,16.199,43.764,-0.011,0.991,-0.069,-0.031,-0.519,1.495,66.667,275212.000,1.000
6.972,-8.001,6.470,5.133,21.383,8.682,18.101,45.293,-0.010,0.989,-0.069,0.000,-0.488,1.678,66.667,275213.000,1.000
6.436,-8.084,7.973,8.172,21.439,9.399,18.035,44.613,-0.010,0.990,-0.068,0.092,-0.549,1.801,66.667,275214.000,1.000
6.538,-8.614,8.984,10.449,21.019,10.650,16.722,42.414,-0.011,0.991,-0.069,0.031,-0.458,1.831,66.667,275215.000,1.000
7.078,-9.582,9.127,11.372,20.188,11.818,15.324,39.955,-0.015,0.992,-0.068,-0.092,-0.397,1.801,66.667,275216.000,1.000
7.623,-10.805,8.303,10.781,18.946,12.060,14.512,38.151,-0.017,0.991,-0.068,-0.275,-0.549,1.587,66.667,275217.000,1.000
8.085,-11.748,7.031,9.304,17.635,11.344,14.522,37.575,-0.020,0.989,-0.068,-0.275,-0.580,1.495,66.667,275218.000,1.000
8.710,-11.851,6.099,7.959,16.713,10.422,15.184,38.137,-0.020,0.988,-0.070,-0.183,-0.702,1.404,66.667,275219.000,1.000
9.720,-11.019,5.996,7.499,16.309,9.887,15.496,38.860,-0.018,0.985,-0.068,-0.092,-0.916,1.251,66.667,275220.000,1.000
11.135,-9.538,6.769,8.165,16.252,9.747,14.354,38.794,-0.016,0.985,-0.067,0.000,-1.007,1.160,66.667,275221.000,1.000
12.947,-7.587,8.325,9.869,16.517,9.945,12.056,38.164,-0.015,0.987,-0.068,0.031,-1.099,1.068,66.667,275222.000,1.000
15.403,-4.977,10.731,12.471,17.503,10.887,10.182,38.196,-0.013,0.988,-0.070,0.031,-1.129,0.854,66.667,275223.000,1.000
18.550,-1.604,13.783,15.502,19.345,12.882,9.930,39.476,-0.011,0.988,-0.069,0.183,-1.068,0.702,66.667,275224.000,1.000
22.004,2.224,16.915,18.272,21.664,15.616,11.094,41.290,-0.012,0.989,-0.070,0.214,-1.129,0.641,66.667,275225.000,1.000
25.131,5.845,19.519,20.301,23.857,18.296,12.659,42.571,-0.013,0.990,-0.068,0.214,-1.221,0.732,66.667,275226.000,1.000
27.327,8.331,21.069,21.371,25.193,19.891,13.504,42.711,-0.012,0.991,-0.066,0.122,-1.068,0.732,66.667,275227.000,1.000
28.538,9.008,21.402,21.530,25.186,19.714,12.895,41.722,-0.012,0.988,-0.067,0.092,-1.160,0.763,66.667,275228.000,1.000
29.217,7.949,20.769,20.989,23.888,18.041,11.235,40.153,-0.012,0.990,-0.066,0.183,-1.129,0.824,66.667,275229.000,1.000
30.018,6.025,19.823,20.235,22.086,16.166,10.021,39.124,-0.011,0.992,-0.068,0.305,-1.099,0.916,66.667,275230.000,1.000
31.362,4.322,19.251,19.879,20.811,15.342,10.684,39.738,-0.012,0.992,-0.067,0.244,-1.160,1.068,66.667,275231.000,1.000
33.089,3.308,19.173,20.140,20.421,15.585,13.258,41.953,-0.012,0.990,-0.067,0.305,-1.160,1.068,66.667,275232.000,1.000
34.800,2.769,19.272,20.833,20.604,16.023,16.309,44.440,-0.012,0.992,-0.067,0.214,-1.068,1.129,66.667,275233.000,1.000
36.309,2.358,19.211,21.654,20.921,15.903,18.387,45.639,-0.013,0.990,-0.064,0.214,-1.129,1.190,66.667,275234.000,1.000
37.968,2.105,19.088,22.604,21.443,15.247,19.054,45.131,-0.016,0.987,-0.066,0.275,-1.068,1.282,66.667,275235.000,1.000
40.299,2.372,19.294,23.879,22.607,14.771,18.726,43.847,-0.016,0.988,-0.063,0.244,-1.160,1.282,66.667,275236.000,1.000
43.268,3.373,19.972,25.411,24.528,15.235,18.087,43.003,-0.016,0.988,-0.067,0.244,-1.129,1.343,66.667,275237.000,1.000
46.449,5.127,21.137,27.015,27.000,16.997,17.781,43.279,-0.016,0.987,-0.063,0.305,-1.190,1.495,66.667,275238.000,1.000
49.514,7.610,22.926,28.651,29.696,19.866,18.350,44.691,-0.014,0.989,-0.067,0.366,-1.312,1.434,66.667,275239.000,1.000
52.597,10.758,25.613,30.489,32.399,23.214,19.885,46.909,-0.014,0.989,-0.067,0.397,-1.373,1.343,66.667,275240.000,1.000
56.018,14.337,29.146,32.532,34.852,26.197,21.864,49.235,-0.012,0.988,-0.066,0.397,-1.312,1.251,66.667,275241.000,1.000
59.752,17.942,32.823,34.371,36.658,28.126,23.682,50.755,-0.011,0.988,-0.070,0.397,-1.190,1.251,66.667,275242.000,1.000
63.507,21.270,35.823,35.704,37.729,28.972,25.214,51.201,-0.010,0.988,-0.067,0.458,-1.221,1.221,66.667,275243.000,1.000
66.788,24.093,37.593,36.525,38.193,29.203,26.445,51.026,-0.009,0.987,-0.069,0.458,-1.282,1.221,66.667,275244.000,1.000
69.154,26.160,38.075,37.042,38.253,29.372,26.911,50.787,-0.009,0.988,-0.066,0.519,-1.312,1.099,66.667,275245.000,1.000
70.418,27.259,37.672,37.551,38.172,29.858,26.406,50.799,-0.010,0.988,-0.066,0.519,-1.282,1.068,66.667,275246.000,1.000
70.560,27.178,36.840,38.242,38.103,30.595,25.557,51.130,-0.009,0.988,-0.068,0.580,-1.221,1.099,66.667,275247.000,1.000
69.810,25.861,35.944,39.211,38.149,31.106,25.145,51.783,-0.008,0.986,-0.071,0.641,-1.068,1.068,66.667,275248.000,1.000
68.491,23.490,35.083,40.285,38.232,30.713,25.403,52.579,-0.009,0.988,-0.071,0.610,-1.129,1.038,66.667,275249.000,1.000
67.041,20.495,34.242,41.138,38.206,28.946,25.910,53.200,-0.010,0.989,-0.069,0.610,-1.007,1.129,66.667,275250.000,1.000
66.041,17.537,33.572,41.617,38.053,25.900,26.038,53.464,-0.009,0.989,-0.069,0.702,-0.977,1.068,66.667,275251.000,1.000
66.047,15.432,33.505,41.919,38.003,22.459,25.485,53.548,-0.008,0.989,-0.070,0.702,-0.916,1.038,66.667,275252.000,1.000
67.485,14.960,34.715,42.609,38.619,20.217,24.528,54.033,-0.010,0.990,-0.067,0.641,-0.732,1.038,66.667,275253.000,1.000
70.254,16.225,37.387,43.985,40.126,20.280,23.703,55.097,-0.009,0.990,-0.067,0.671,-0.671,0.946,66.667,275254.000,1.000
73.777,18.408,40.882,45.811,42.031,21.995,22.988,56.061,-0.010,0.991,-0.069,0.671,-0.702,0.916,66.667,275255.000,1.000
77.414,20.415,44.236,47.647,43.548,23.259,21.796,56.054,-0.010,0.991,-0.070,0.671,-0.671,0.824,66.667,275256.000,1.000
