EEG 1,EEG 2,EEG 3,EEG 4,EEG 5,EEG 6,EEG 7,EEG 8,Accelerometer X,Accelerometer Y,Accelerometer Z,Gyroscope X,Gyroscope Y,Gyroscope Z,Battery Level,Counter,Validation Indicator
-17.930,-18.006,-17.150,-1.171,-10.783,-37.213,-10.936,-33.608,0.008,0.965,-0.177,0.000,-2.136,1.282,73.333,212473.000,1.000
-21.637,-18.706,-19.786,-2.916,-9.671,-34.953,-9.896,-30.118,0.009,0.965,-0.175,0.092,-2.045,1.190,73.333,212474.000,1.000
-25.776,-20.062,-22.552,-4.708,-9.772,-33.022,-10.077,-27.157,0.009,0.964,-0.177,0.000,-1.984,1.221,73.333,212475.000,1.000
-30.723,-22.355,-25.869,-6.869,-11.394,-31.570,-10.736,-24.815,0.007,0.966,-0.175,0.214,-1.953,1.190,73.333,212476.000,1.000
-36.434,-25.580,-30.109,-9.795,-14.851,-30.834,-11.207,-23.134,0.009,0.963,-0.176,0.244,-1.923,1.038,73.333,212477.000,1.000
-42.414,-29.404,-35.249,-13.627,-20.182,-31.076,-11.303,-22.318,0.008,0.963,-0.174,0.458,-1.953,1.068,73.333,212478.000,1.000
-47.837,-33.065,-40.641,-18.084,-26.866,-32.230,-11.220,-22.711,0.010,0.963,-0.176,0.519,-1.892,1.007,73.333,212479.000,1.000
-51.882,-35.661,-45.243,-22.574,-33.885,-33.881,-11.114,-24.569,0.010,0.963,-0.175,0.610,-1.831,0.946,73.333,212480.000,1.000
-54.222,-36.687,-48.254,-26.512,-40.144,-35.639,-11.166,-27.943,0.011,0.963,-0.176,0.671,-1.740,0.946,73.333,212481.000,1.000
-55.154,-36.122,-49.521,-29.581,-44.866,-37.254,-11.813,-32.647,0.011,0.962,-0.176,0.885,-1.648,1.007,73.333,212482.000,1.000
-55.064,-34.102,-49.265,-31.638,-47.540,-38.280,-13.362,-38.033,0.011,0.963,-0.177,1.068,-1.587,1.007,73.333,212483.000,1.000
-54.028,-30.690,-47.640,-32.546,-47.750,-38.033,-15.387,-42.916,0.010,0.964,-0.178,1.129,-1.495,0.977,73.333,212484.000,1.000
-52.094,-26.211,-44.848,-32.309,-45.486,-36.369,-17.248,-46.241,0.009,0.964,-0.179,1.282,-1.495,1.038,73.333,212485.000,1.000
-49.622,-21.514,-41.378,-31.198,-41.427,-34.188,-18.849,-47.743,0.008,0.966,-0.179,1.434,-1.465,0.854,73.333,212486.000,1.000
-47.294,-17.624,-37.941,-29.635,-36.680,-32.828,-20.228,-47.826,0.011,0.966,-0.179,1.465,-1.373,0.885,73.333,212487.000,1.000
-45.816,-15.222,-35.111,-27.926,-32.140,-33.082,-21.149,-47.066,0.011,0.965,-0.178,1.465,-1.312,1.007,73.333,212488.000,1.000
-45.542,-14.295,-32.998,-26.129,-28.094,-34.683,-21.239,-45.970,0.011,0.964,-0.179,1.617,-1.221,0.885,73.333,212489.000,1.000
-46.244,-14.232,-31.256,-24.125,-24.309,-36.541,-20.283,-44.975,0.009,0.966,-0.180,1.678,-1.160,0.885,73.333,212490.000,1.000
-47.126,-14.115,-29.294,-21.680,-20.284,-37.365,-18.306,-44.213,0.009,0.967,-0.177,1.831,-1.038,0.854,73.333,212491.000,1.000
-47.337,-13.212,-26.737,-18.659,-15.729,-36.354,-15.554,-43.364,0.009,0.971,-0.176,1.801,-1.068,0.916,73.333,212492.000,1.000
-46.686,-11.574,-23.925,-15.416,-11.021,-33.605,-12.585,-41.925,0.009,0.972,-0.177,1.740,-0.946,1.038,73.333,212493.000,1.000
-45.808,-9.931,-21.823,-12.753,-6.995,-29.707,-9.886,-39.424,0.010,0.974,-0.179,1.648,-0.916,1.007,73.333,212494.000,1.000
-45.656,-9.055,-21.348,-11.337,-4.195,-25.028,-7.316,-35.427,0.009,0.971,-0.181,1.770,-0.793,1.068,73.333,212495.000,1.000
-46.889,-9.334,-22.819,-11.271,-2.551,-19.597,-4.219,-29.637,0.008,0.973,-0.181,1.709,-0.702,1.099,73.333,212496.000,1.000
-49.757,-10.894,-26.049,-12.382,-1.864,-13.668,-0.061,-22.336,0.008,0.976,-0.184,1.678,-0.671,1.190,73.333,212497.000,1.000
-54.171,-13.794,-30.617,-14.588,-2.251,-8.051,4.869,-14.802,0.007,0.978,-0.181,1.587,-0.641,1.221,73.333,212498.000,1.000
-59.737,-17.884,-35.988,-17.868,-4.042,-3.797,9.310,-9.081,0.006,0.979,-0.180,1.526,-0.610,1.190,73.333,212499.000,1.000
-65.927,-22.794,-41.696,-22.076,-7.426,-1.765,11.647,-6.957,0.004,0.978,-0.178,1.373,-0.732,1.038,73.333,212500.000,1.000
-72.028,-27.821,-47.195,-26.668,-11.891,-2.043,11.227,-8.659,0.002,0.977,-0.177,1.129,-0.763,1.068,73.333,212501.000,1.000
-77.021,-31.889,-51.649,-30.654,-16.094,-3.728,9.209,-12.586,0.002,0.973,-0.179,0.916,-0.793,0.885,73.333,212502.000,1.000
-79.907,-34.103,-54.238,-33.060,-18.661,-5.807,7.360,-16.491,0.003,0.969,-0.182,0.885,-0.793,0.946,73.333,212503.000,1.000
-80.234,-34.270,-54.677,-33.507,-19.151,-8.067,6.345,-18.961,0.003,0.970,-0.181,0.885,-0.824,0.885,73.333,212504.000,1.000
-78.259,-32.907,-53.310,-32.336,-18.153,-10.838,5.670,-19.961,0.007,0.971,-0.186,1.007,-0.793,0.854,73.333,212505.000,1.000
-74.667,-30.792,-50.771,-30.272,-16.606,-14.164,4.688,-20.425,0.008,0.972,-0.187,1.099,-0.824,0.854,73.333,212506.000,1.000
-70.446,-28.681,-47.857,-28.224,-15.373,-17.652,3.013,-21.649,0.009,0.976,-0.188,1.038,-0.793,0.793,73.333,212507.000,1.000
-66.745,-27.204,-45.423,-27.064,-15.002,-20.711,0.550,-24.471,0.009,0.977,-0.183,0.977,-0.732,0.916,73.333,212508.000,1.000
-64.354,-26.463,-43.911,-27.131,-15.400,-22.503,-2.032,-28.428,0.010,0.976,-0.181,0.885,-0.824,1.007,73.333,212509.000,1.000
-63.431,-26.023,-43.188,-28.103,-15.988,-22.256,-3.582,-32.077,0.009,0.975,-0.179,0.763,-0.824,1.099,73.333,212510.000,1.000
-63.771,-25.452,-42.911,-29.452,-16.267,-19.838,-3.628,-34.176,0.010,0.972,-0.183,0.732,-0.763,1.251,73.333,212511.000,1.000
-65.162,-24.644,-42.891,-30.818,-16.087,-15.871,-2.707,-34.341,0.010,0.971,-0.183,0.671,-0.641,1.373,73.333,212512.000,1.000
-67.295,-23.688,-43.056,-31.897,-15.402,-11.236,-1.528,-32.627,0.005,0.969,-0.181,0.671,-0.641,1.373,73.333,212513.000,1.000
-69.561,-22.584,-43.274,-32.297,-14.096,-6.451,-0.054,-28.996,0.004,0.971,-0.181,0.671,-0.702,1.373,73.333,212514.000,1.000
-71.285,-21.421,-43.432,-31.757,-12.260,-1.696,2.120,-23.632,0.001,0.970,-0.182,0.671,-0.793,1.343,73.333,212515.000,1.000
-72.075,-20.524,-43.534,-30.364,-10.281,2.742,4.827,-17.391,-0.002,0.970,-0.179,0.488,-0.946,1.129,73.333,212516.000,1.000
-72.003,-20.253,-43.736,-28.573,-8.649,6.353,7.407,-11.550,0.000,0.968,-0.179,0.488,-1.007,0.946,73.333,212517.000,1.000
-71.560,-20.839,-44.315,-27.039,-7.741,8.728,9.336,-7.132,0.001,0.968,-0.182,0.519,-1.129,0.793,73.333,212518.000,1.000
-71.367,-22.234,-45.473,-26.314,-7.699,9.908,10.555,-4.433,0.002,0.967,-0.179,0.519,-1.282,0.732,73.333,212519.000,1.000
-71.826,-24.104,-47.137,-26.549,-8.392,10.284,11.267,-3.071,0.002,0.965,-0.181,0.580,-1.312,0.671,73.333,212520.000,1.000
-72.845,-25.876,-48.832,-27.331,-9.346,10.322,11.762,-2.243,0.006,0.966,-0.181,0.702,-1.312,0.610,73.333,212521.000,1.000
-73.964,-26.974,-49.916,-27.916,-9.920,10.254,12.485,-1.074,0.008,0.965,-0.182,0.793,-1.465,0.702,73.333,212522.000,1.000
-74.730,-27.222,-50.020,-27.767,-9.733,9.773,13.703,0.820,0.007,0.966,-0.185,0.824,-1.434,0.732,73.333,212523.000,1.000
-74.907,-26.862,-49.243,-26.927,-8.976,8.206,14.949,2.751,0.007,0.967,-0.184,0.916,-1.404,0.763,73.333,212524.000,1.000
-74.476,-26.350,-48.046,-25.937,-8.363,5.074,14.924,3.139,0.007,0.968,-0.181,0.885,-1.373,0.793,73.333,212525.000,1.000
-73.511,-26.079,-46.946,-25.389,-8.610,0.566,12.398,0.807,0.005,0.970,-0.182,0.946,-1.404,0.854,73.333,212526.000,1.000
-72.131,-26.193,-46.240,-25.534,-9.933,-4.539,7.408,-4.030,0.006,0.970,-0.184,0.916,-1.404,0.824,73.333,212527.000,1.000
-70.509,-26.658,-45.896,-26.185,-11.893,-9.350,1.359,-10.017,0.005,0.969,-0.183,0.854,-1.373,0.946,73.333,212528.000,1.000
-68.910,-27.336,-45.643,-26.914,-13.715,-13.198,-3.713,-15.489,0.005,0.970,-0.181,0.885,-1.465,0.916,73.333,212529.000,1.000
-67.667,-28.102,-45.246,-27.434,-14.858,-15.914,-6.309,-19.385,0.008,0.970,-0.179,0.854,-1.465,0.977,73.333,212530.000,1.000
-66.860,-28.741,-44.507,-27.668,-15.191,-17.810,-6.420,-21.738,0.006,0.969,-0.183,0.793,-1.404,1.068,73.333,212531.000,1.000
-66.102,-28.831,-43.153,-27.554,-14.813,-19.202,-5.279,-23.329,0.005,0.971,-0.184,0.763,-1.282,1.221,73.333,212532.000,1.000
-64.811,-28.024,-40.956,-26.938,-13.824,-19.963,-4.289,-24.864,0.007,0.972,-0.184,0.671,-1.404,1.190,73.333,212533.000,1.000
-62.700,-26.365,-38.002,-25.683,-12.324,-19.632,-4.083,-26.364,0.006,0.973,-0.181,0.519,-1.373,1.099,73.333,212534.000,1.000
-60.065,-24.395,-34.854,-23.890,-10.633,-18.092,-4.507,-27.359,0.006,0.971,-0.181,0.458,-1.404,1.068,73.333,212535.000,1.000
-57.626,-22.863,-32.328,-21.961,-9.290,-15.856,-5.122,-27.427,0.005,0.970,-0.181,0.397,-1.404,1.221,73.333,212536.000,1.000
-56.175,-22.289,-31.106,-20.462,-8.807,-13.618,-5.432,-26.517,0.006,0.971,-0.182,0.305,-1.465,1.251,73.333,212537.000,1.000
-56.219,-22.782,-31.442,-19.859,-9.375,-11.733,-5.112,-24.903,0.006,0.972,-0.180,0.275,-1.434,1.129,73.333,212538.000,1.000
-57.655,-23.972,-33.026,-20.229,-10.687,-10.027,-4.076,-22.872,0.006,0.972,-0.179,0.183,-1.343,1.068,73.333,212539.000,1.000
-59.781,-25.231,-35.178,-21.239,-12.101,-8.039,-2.429,-20.594,0.006,0.970,-0.181,-0.031,-1.343,1.038,73.333,212540.000,1.000
-61.616,-26.021,-37.163,-22.316,-12.982,-5.358,-0.400,-18.151,0.007,0.970,-0.185,-0.031,-1.373,1.007,73.333,212541.000,1.000
-62.435,-26.108,-38.475,-22.905,-13.043,-1.964,1.871,-15.575,0.008,0.970,-0.185,-0.092,-1.434,0.946,73.333,212542.000,1.000
-62.154,-25.665,-39.004,-22.732,-12.452,1.443,4.280,-12.835,0.007,0.971,-0.187,-0.153,-1.312,0.885,73.333,212543.000,1.000
-61.310,-25.070,-39.012,-21.979,-11.682,3.710,6.578,-9.990,0.008,0.968,-0.187,-0.061,-1.312,0.977,73.333,212544.000,1.000
-60.672,-24.657,-38.968,-21.245,-11.249,4.053,8.275,-7.615,0.006,0.969,-0.186,-0.031,-1.251,0.885,73.333,212545.000,1.000
-60.700,-24.479,-39.196,-21.160,-11.418,2.692,8.775,-6.731,0.008,0.970,-0.186,-0.153,-1.282,0.824,73.333,212546.000,1.000
-61.392,-24.310,-39.736,-22.036,-12.167,0.595,7.744,-8.084,0.007,0.969,-0.184,-0.092,-1.190,0.793,73.333,212547.000,1.000
-62.425,-23.943,-40.470,-23.734,-13.286,-1.282,5.304,-11.514,0.008,0.969,-0.183,-0.061,-1.160,0.824,73.333,212548.000,1.000
-63.387,-23.305,-41.258,-25.720,-14.371,-2.422,2.252,-15.832,0.005,0.969,-0.185,0.031,-1.190,0.793,73.333,212549.000,1.000
-64.125,-22.538,-42.055,-27.423,-14.955,-2.815,-0.177,-19.406,0.003,0.968,-0.184,-0.061,-1.190,0.732,73.333,212550.000,1.000
-64.784,-21.947,-42.841,-28.547,-14.775,-2.824,-1.159,-21.136,0.004,0.969,-0.184,-0.092,-1.190,0.610,73.333,212551.000,1.000
-65.541,-21.857,-43.597,-29.164,-14.098,-3.079,-0.893,-21.174,0.006,0.971,-0.184,-0.214,-1.160,0.519,73.333,212552.000,1.000
-66.410,-22.613,-44.403,-29.630,-13.723,-4.273,-0.557,-20.836,0.005,0.971,-0.181,-0.214,-1.068,0.671,73.333,212553.000,1.000
-67.222,-24.323,-45.339,-30.276,-14.445,-6.633,-1.246,-21.551,0.005,0.970,-0.182,-0.336,-1.099,0.549,73.333,212554.000,1.000
-67.769,-26.690,-46.353,-31.112,-16.451,-9.652,-2.927,-23.705,0.002,0.970,-0.185,-0.305,-1.221,0.610,73.333,212555.000,1.000
-67.976,-29.174,-47.293,-31.872,-19.211,-12.516,-4.752,-26.483,0.004,0.972,-0.183,-0.305,-1.190,0.610,73.333,212556.000,1.000
-68.014,-31.325,-48.100,-32.372,-21.957,-14.743,-6.146,-28.806,0.006,0.971,-0.179,-0.305,-1.038,0.458,73.333,212557.000,1.000
-68.144,-32.941,-48.789,-32.657,-24.105,-16.304,-7.259,-30.162,0.002,0.972,-0.177,-0.397,-1.038,0.427,73.333,212558.000,1.000
-68.405,-33.876,-49.251,-32.794,-25.326,-17.184,-8.278,-30.534,0.002,0.973,-0.179,-0.488,-1.282,0.488,73.333,212559.000,1.000
-68.564,-34.037,-49.292,-32.750,-25.582,-17.251,-8.984,-30.078,0.003,0.974,-0.179,-0.549,-1.312,0.488,73.333,212560.000,1.000
-68.284,-33.550,-48.825,-32.475,-25.142,-16.525,-9.141,-28.994,0.003,0.974,-0.177,-0.519,-1.404,0.397,73.333,212561.000,1.000
-67.454,-32.802,-48.040,-32.077,-24.476,-15.245,-8.787,-27.544,0.000,0.975,-0.180,-0.641,-1.434,0.366,73.333,212562.000,1.000
-66.368,-32.293,-47.329,-31.784,-23.929,-13.671,-8.167,-25.963,0.000,0.974,-0.179,-0.671,-1.404,0.427,73.333,212563.000,1.000
-65.597,-32.286,-47.034,-31.730,-23.518,-11.981,-7.483,-24.272,0.000,0.973,-0.179,-0.702,-1.526,0.488,73.333,212564.000,1.000
-65.755,-32.766,-47.364,-31.906,-23.123,-10.390,-6.798,-22.342,0.002,0.972,-0.181,-0.732,-1.465,0.610,73.333,212565.000,1.000
-67.109,-33.466,-48.250,-32.154,-22.596,-8.896,-5.869,-20.026,0.002,0.971,-0.180,-0.824,-1.495,0.732,73.333,212566.000,1.000
-69.300,-33.882,-49.280,-32.207,-21.787,-7.161,-4.100,-17.262,-0.001,0.971,-0.180,-0.885,-1.556,0.671,73.333,212567.000,1.000
-71.436,-33.549,-49.836,-31.820,-20.643,-5.063,-1.182,-14.250,0.004,0.971,-0.180,-0.824,-1.587,0.610,73.333,212568.000,1.000
-72.480,-32.216,-49.332,-30.849,-19.259,-2.946,2.452,-11.480,0.003,0.970,-0.179,-0.824,-1.648,0.671,73.333,212569.000,1.000
-71.808,-29.982,-47.529,-29.381,-17.915,-1.318,5.739,-9.688,0.002,0.969,-0.178,-0.824,-1.617,0.702,73.333,212570.000,1.000
-69.552,-27.300,-44.763,-27.838,-17.019,-0.499,7.546,-9.558,0.002,0.969,-0.177,-0.824,-1.648,0.885,73.333,212571.000,1.000
-66.538,-24.804,-41.872,-26.866,-16.954,-0.555,7.492,-11.217,0.001,0.969,-0.177,-0.916,-1.617,0.885,73.333,212572.000,1.000
-63.804,-23.117,-39.727,-26.944,-17.839,-1.546,5.963,-14.119,0.002,0.971,-0.177,-0.854,-1.709,1.007,73.333,212573.000,1.000
-62.013,-22.499,-38.645,-28.004,-19.359,-3.496,3.579,-17.424,0.002,0.970,-0.178,-0.854,-1.740,1.038,73.333,212574.000,1.000
-61.205,-22.693,-38.264,-29.404,-20.763,-5.982,1.070,-20.310,0.003,0.971,-0.178,-0.732,-1.770,1.038,73.333,212575.000,1.000
-60.874,-23.068,-37.907,-30.237,-21.136,-8.034,-0.666,-21.914,0.002,0.971,-0.179,-0.793,-1.740,1.099,73.333,212576.000,1.000
-60.394,-23.059,-37.177,-29.905,-20.047,-8.802,-0.994,-21.697,0.002,0.971,-0.179,-0.824,-1.740,1.007,73.333,212577.000,1.000
-59.485,-22.648,-36.254,-28.543,-17.986,-8.276,-0.362,-20.221,0.004,0.970,-0.180,-0.793,-1.709,1.160,73.333,212578.000,1.000
-58.224,-22.254,-35.550,-26.822,-15.963,-7.187,-0.096,-18.960,0.003,0.970,-0.177,-0.763,-1.617,1.068,73.333,212579.000,1.000
-56.696,-22.298,-35.167,-25.289,-14.687,-6.454,-1.030,-18.996,0.003,0.970,-0.177,-0.641,-1.617,1.160,73.333,212580.000,1.000
-54.739,-22.780,-34.716,-23.895,-14.146,-6.591,-2.577,-20.007,0.003,0.968,-0.176,-0.641,-1.556,1.251,73.333,212581.000,1.000
-52.162,-23.280,-33.730,-22.303,-14.016,-7.417,-3.521,-20.847,0.004,0.968,-0.177,-0.580,-1.495,1.373,73.333,212582.000,1.000
-49.054,-23.452,-32.164,-20.485,-14.233,-8.409,-3.638,-20.803,0.004,0.969,-0.178,-0.580,-1.343,1.312,73.333,212583.000,1.000
-45.797,-23.247,-30.384,-18.773,-14.903,-9.069,-3.644,-19.825,0.006,0.970,-0.178,-0.519,-1.343,1.312,73.333,212584.000,1.000
-42.969,-22.876,-28.924,-17.534,-15.927,-9.087,-3.981,-18.038,0.005,0.968,-0.180,-0.549,-1.312,1.434,73.333,212585.000,1.000
-41.174,-22.645,-28.233,-16.943,-16.894,-8.371,-4.401,-15.557,0.007,0.970,-0.178,-0.488,-1.251,1.465,73.333,212586.000,1.000
-40.756,-22.630,-28.435,-16.903,-17.243,-6.958,-4.199,-12.616,0.006,0.970,-0.176,-0.458,-1.190,1.495,73.333,212587.000,1.000
-41.478,-22.599,-29.188,-17.068,-16.547,-4.928,-2.706,-9.621,0.006,0.972,-0.176,-0.458,-1.068,1.526,73.333,212588.000,1.000
-42.599,-22.239,-29.935,-17.093,-14.944,-2.536,0.095,-7.097,0.006,0.971,-0.176,-0.366,-0.885,1.495,73.333,212589.000,1.000
-43.407,-21.643,-30.421,-17.008,-13.312,-0.549,3.225,-5.627,0.005,0.970,-0.176,-0.366,-0.793,1.495,73.333,212590.000,1.000
-43.551,-21.300,-30.726,-17.100,-12.648,-0.004,5.291,-5.533,0.005,0.970,-0.176,-0.336,-0.702,1.465,73.333,212591.000,1.000
-42.982,-21.518,-30.900,-17.448,-13.244,-1.334,5.730,-6.507,0.006,0.971,-0.175,-0.366,-0.580,1.465,73.333,212592.000,1.000
-41.841,-22.113,-30.797,-17.726,-14.500,-3.878,5.219,-7.755,0.007,0.971,-0.174,-0.366,-0.519,1.495,73.333,212593.000,1.000
-40.477,-22.608,-30.354,-17.592,-15.554,-6.394,4.957,-8.597,0.006,0.969,-0.177,-0.244,-0.488,1.495,73.333,212594.000,1.000
-39.382,-22.705,-29.826,-17.121,-16.079,-8.070,5.354,-9.007,0.008,0.972,-0.174,-0.275,-0.275,1.495,73.333,212595.000,1.000
-38.882,-22.434,-29.544,-16.729,-16.383,-8.911,5.478,-9.587,0.006,0.970,-0.176,-0.183,-0.214,1.373,73.333,212596.000,1.000
-39.132,-22.090,-29.759,-16.960,-17.061,-9.503,4.034,-11.174,0.008,0.972,-0.177,-0.183,-0.153,1.495,73.333,212597.000,1.000
-40.247,-22.120,-30.641,-18.255,-18.533,-10.535,0.594,-14.238,0.009,0.973,-0.179,-0.122,-0.061,1.709,73.333,212598.000,1.000
-42.167,-22.674,-32.131,-20.595,-20.656,-12.160,-3.986,-18.354,0.008,0.974,-0.178,0.000,0.000,1.495,73.333,212599.000,1.000
-44.645,-23.501,-33.925,-23.399,-22.797,-13.879,-8.181,-22.431,0.009,0.975,-0.177,-0.092,0.214,1.343,73.333,212600.000,1.000
-47.405,-24.284,-35.661,-25.844,-24.243,-15.106,-10.804,-25.457,0.009,0.973,-0.175,-0.031,0.275,1.526,73.333,212601.000,1.000
-50.356,-24.957,-37.219,-27.377,-24.649,-15.701,-11.584,-27.051,0.009,0.973,-0.174,-0.031,0.336,1.434,73.333,212602.000,1.000
-53.645,-25.786,-38.847,-27.969,-24.161,-15.861,-11.142,-27.496,0.005,0.974,-0.174,0.031,0.397,1.526,73.333,212603.000,1.000
-57.415,-27.030,-40.898,-27.983,-23.211,-15.635,-10.349,-27.269,0.007,0.975,-0.175,-0.031,0.458,1.709,73.333,212604.000,1.000
-61.495,-28.728,-43.487,-27.886,-22.316,-14.876,-9.790,-26.661,0.007,0.975,-0.177,-0.061,0.488,1.556,73.333,212605.000,1.000
-65.263,-30.653,-46.316,-27.909,-21.856,-13.439,-9.548,-25.609,0.006,0.972,-0.178,0.031,0.458,1.465,73.333,212606.000,1.000
-68.014,-32.386,-48.859,-27.969,-21.970,-11.369,-9.220,-23.867,0.006,0.973,-0.177,0.061,0.519,1.434,73.333,212607.000,1.000
-69.475,-33.624,-50.682,-27.837,-22.585,-9.139,-8.461,-21.457,0.004,0.973,-0.176,0.122,0.610,1.556,73.333,212608.000,1.000
-69.862,-34.299,-51.557,-27.300,-23.439,-7.559,-7.379,-18.797,0.005,0.973,-0.179,0.183,0.610,1.648,73.333,212609.000,1.000
-69.647,-34.618,-51.526,-26.354,-24.240,-7.356,-6.519,-16.500,0.006,0.972,-0.177,0.153,0.610,1.709,73.333,212610.000,1.000
-69.335,-34.955,-50.908,-25.336,-24.828,-8.742,-6.568,-15.111,0.006,0.973,-0.179,0.275,0.610,1.648,73.333,212611.000,1.000
-69.272,-35.560,-50.125,-24.677,-25.153,-11.120,-7.667,-14.796,0.006,0.972,-0.178,0.244,0.549,1.556,73.333,212612.000,1.000
-69.423,-36.367,-49.403,-24.460,-25.045,-13.205,-9.068,-15.077,0.006,0.971,-0.175,0.214,0.519,1.740,73.333,212613.000,1.000
-69.483,-37.083,-48.765,-24.439,-24.340,-13.935,-9.734,-15.181,0.006,0.971,-0.177,0.336,0.488,1.617,73.333,212614.000,1.000
-69.292,-37.563,-48.328,-24.529,-23.312,-13.517,-9.415,-14.900,0.004,0.971,-0.173,0.336,0.427,1.648,73.333,212615.000,1.000
-68.860,-37.785,-48.179,-24.845,-22.493,-12.978,-8.594,-14.609,0.006,0.971,-0.175,0.427,0.427,1.648,73.333,212616.000,1.000
-68.070,-37.513,-48.068,-25.360,-22.148,-12.868,-7.642,-14.586,0.005,0.971,-0.175,0.366,0.305,1.648,73.333,212617.000,1.000
-66.586,-36.421,-47.482,-25.801,-22.215,-13.002,-6.938,-14.834,0.004,0.971,-0.177,0.458,0.305,1.678,73.333,212618.000,1.000
-64.100,-34.389,-46.052,-25.871,-22.569,-12.990,-7.048,-15.319,0.005,0.971,-0.178,0.397,0.244,1.709,73.333,212619.000,1.000
-60.716,-31.728,-43.879,-25.523,-23.117,-12.602,-8.163,-16.075,0.003,0.970,-0.177,0.458,0.244,1.678,73.333,212620.000,1.000
-57.002,-29.060,-41.465,-24.947,-23.766,-11.832,-9.844,-17.074,0.004,0.971,-0.175,0.488,0.244,1.648,73.333,212621.000,1.000
-53.669,-26.957,-39.408,-24.427,-24.554,-10.980,-11.548,-18.251,0.005,0.971,-0.174,0.458,0.092,1.709,73.333,212622.000,1.000
-51.039,-25.639,-38.010,-24.113,-25.599,-10.583,-13.191,-19.636,0.006,0.972,-0.176,0.519,0.092,1.770,73.333,212623.000,1.000
-48.770,-24.753,-37.052,-23.872,-26.771,-10.882,-14.721,-21.199,0.008,0.972,-0.175,0.519,-0.031,1.740,73.333,212624.000,1.000
-46.224,-23.679,-36.048,-23.437,-27.647,-11.526,-15.713,-22.721,0.009,0.971,-0.175,0.427,-0.061,1.648,73.333,212625.000,1.000
-43.081,-22.058,-34.646,-22.667,-27.815,-11.994,-15.760,-23.853,0.008,0.970,-0.177,0.488,-0.122,1.709,73.333,212626.000,1.000
-39.736,-20.099,-32.951,-21.710,-27.240,-12.184,-14.871,-24.272,0.007,0.970,-0.177,0.549,-0.153,1.801,73.333,212627.000,1.000
-37.116,-18.467,-31.499,-20.925,-26.302,-12.426,-13.535,-23.854,0.007,0.971,-0.171,0.580,-0.153,1.709,73.333,212628.000,1.000
-35.966,-17.655,-30.812,-20.539,-25.474,-12.947,-12.315,-22.681,0.004,0.971,-0.173,0.519,-0.244,1.648,73.333,212629.000,1.000
-36.349,-17.645,-31.027,-20.443,-25.030,-13.672,-11.513,-21.022,0.006,0.972,-0.176,0.488,-0.275,1.678,73.333,212630.000,1.000
-37.699,-18.029,-31.825,-20.307,-24.937,-14.417,-11.215,-19.287,0.008,0.971,-0.175,0.458,-0.305,1.709,73.333,212631.000,1.000
-39.354,-18.414,-32.755,-19.954,-25.041,-15.101,-11.364,-17.958,0.008,0.971,-0.176,0.488,-0.305,1.709,73.333,212632.000,1.000
-41.016,-18.809,-33.592,-19.559,-25.222,-15.657,-11.681,-17.308,0.010,0.970,-0.178,0.549,-0.305,1.831,73.333,212633.000,1.000
-42.584,-19.346,-34.221,-19.342,-25.300,-15.769,-11.490,-17.016,0.008,0.970,-0.174,0.488,-0.427,1.801,73.333,212634.000,1.000
-43.885,-19.972,-34.529,-19.319,-25.166,-15.199,-10.389,-16.504,0.009,0.970,-0.175,0.549,-0.519,1.892,73.333,212635.000,1.000
-44.749,-20.525,-34.550,-19.427,-25.013,-14.223,-8.910,-15.633,0.010,0.970,-0.176,0.519,-0.458,1.801,73.333,212636.000,1.000
-45.248,-20.908,-34.541,-19.659,-25.171,-13.330,-7.778,-14.691,0.011,0.970,-0.176,0.549,-0.458,1.953,73.333,212637.000,1.000
-45.707,-21.205,-34.814,-20.013,-25.728,-12.836,-7.259,-14.031,0.010,0.972,-0.174,0.488,-0.488,1.892,73.333,212638.000,1.000
-46.583,-21.641,-35.631,-20.519,-26.527,-12.824,-7.333,-13.997,0.010,0.974,-0.176,0.488,-0.427,1.892,73.333,212639.000,1.000
-48.361,-22.508,-37.215,-21.277,-27.370,-13.106,-7.777,-14.796,0.010,0.973,-0.176,0.305,-0.397,1.862,73.333,212640.000,1.000
-51.190,-23.865,-39.477,-22.228,-27.959,-13.063,-7.915,-16.037,0.009,0.971,-0.174,0.305,-0.458,1.801,73.333,212641.000,1.000
-54.567,-25.337,-41.846,-23.011,-27.959,-12.046,-6.968,-16.839,0.007,0.971,-0.175,0.336,-0.610,1.953,73.333,212642.000,1.000
-57.544,-26.441,-43.540,-23.175,-27.294,-10.120,-5.087,-16.651,0.008,0.971,-0.175,0.305,-0.519,1.831,73.333,212643.000,1.000
-59.331,-26.869,-44.007,-22.502,-26.208,-7.988,-3.282,-15.651,0.008,0.971,-0.176,0.336,-0.549,1.709,73.333,212644.000,1.000
-59.736,-26.588,-43.195,-21.202,-25.051,-6.340,-2.401,-14.521,0.010,0.969,-0.176,0.336,-0.610,1.648,73.333,212645.000,1.000
-59.068,-25.727,-41.449,-19.745,-24.094,-5.579,-2.722,-14.020,0.012,0.971,-0.176,0.336,-0.549,1.587,73.333,212646.000,1.000
-57.822,-24.460,-39.281,-18.581,-23.562,-5.898,-4.077,-14.595,0.014,0.972,-0.173,0.336,-0.549,1.495,73.333,212647.000,1.000
-56.423,-22.992,-37.159,-17.938,-23.542,-7.187,-5.947,-16.032,0.013,0.971,-0.176,0.427,-0.580,1.648,73.333,212648.000,1.000
-55.109,-21.469,-35.367,-17.782,-23.860,-9.017,-7.616,-17.503,0.015,0.969,-0.174,0.336,-0.519,1.678,73.333,212649.000,1.000
-54.109,-20.121,-34.127,-18.019,-24.297,-11.111,-8.763,-18.430,0.016,0.968,-0.177,0.366,-0.458,1.648,73.333,212650.000,1.000
-53.605,-19.225,-33.563,-18.612,-24.738,-13.400,-9.693,-18.997,0.015,0.965,-0.179,0.366,-0.366,1.709,73.333,212651.000,1.000
-53.446,-18.777,-33.478,-19.409,-25.020,-15.480,-10.594,-19.552,0.014,0.962,-0.180,0.488,-0.275,1.740,73.333,212652.000,1.000
-53.110,-18.502,-33.375,-20.052,-24.875,-16.570,-11.072,-19.934,0.013,0.963,-0.177,0.732,-0.244,1.831,73.333,212653.000,1.000
-52.184,-18.138,-32.858,-20.211,-24.243,-16.137,-10.566,-19.653,0.013,0.961,-0.178,0.854,-0.153,1.740,73.333,212654.000,1.000
-50.781,-17.695,-31.978,-19.854,-23.491,-14.387,-9.148,-18.510,0.013,0.965,-0.179,0.977,-0.153,1.648,73.333,212655.000,1.000
-49.301,-17.268,-30.977,-19.077,-22.993,-11.987,-7.544,-16.645,0.012,0.969,-0.180,1.099,-0.214,1.526,73.333,212656.000,1.000
-48.115,-16.772,-30.028,-17.937,-22.742,-9.541,-6.239,-14.227,0.013,0.973,-0.180,1.190,-0.153,1.770,73.333,212657.000,1.000
-47.579,-16.158,-29.363,-16.646,-22.562,-7.463,-5.198,-11.472,0.014,0.977,-0.180,1.160,-0.183,1.740,73.333,212658.000,1.000
-47.935,-15.533,-29.304,-15.648,-22.493,-5.953,-4.348,-8.870,0.015,0.977,-0.177,1.160,-0.183,1.740,73.333,212659.000,1.000
-49.026,-14.971,-29.952,-15.264,-22.718,-4.966,-3.961,-7.116,0.014,0.975,-0.179,1.007,-0.122,1.617,73.333,212660.000,1.000
-50.248,-14.284,-30.918,-15.376,-23.117,-4.183,-4.333,-6.610,0.014,0.976,-0.182,1.068,-0.122,1.648,73.333,212661.000,1.000
-51.021,-13.232,-31.688,-15.650,-23.236,-3.209,-5.211,-7.190,0.013,0.975,-0.180,1.007,-0.122,1.709,73.333,212662.000,1.000
-51.325,-12.067,-32.199,-15.979,-22.750,-1.985,-5.950,-8.410,0.009,0.974,-0.175,0.916,-0.183,1.556,73.333,212663.000,1.000
-51.664,-11.453,-32.787,-16.486,-21.767,-0.816,-5.884,-9.763,0.005,0.975,-0.177,0.793,-0.305,1.434,73.333,212664.000,1.000
-52.497,-11.906,-33.663,-17.207,-20.720,-0.173,-4.691,-10.802,0.005,0.978,-0.177,0.641,-0.336,1.251,73.333,212665.000,1.000
-53.669,-13.275,-34.549,-17.870,-20.001,-0.485,-2.843,-11.345,0.004,0.978,-0.179,0.580,-0.427,0.916,73.333,212666.000,1.000
-54.467,-14.666,-34.868,-18.046,-19.744,-1.784,-1.474,-11.664,0.004,0.979,-0.176,0.488,-0.580,0.732,73.333,212667.000,1.000
-54.140,-14.947,-34.167,-17.451,-19.792,-3.490,-1.557,-12.292,0.005,0.978,-0.177,0.336,-0.732,0.641,73.333,212668.000,1.000
-52.380,-13.410,-32.367,-16.124,-19.810,-4.716,-3.033,-13.465,0.007,0.978,-0.177,0.244,-0.916,0.458,73.333,212669.000,1.000
-49.559,-10.335,-29.885,-14.522,-19.645,-5.088,-5.081,-14.974,0.009,0.977,-0.177,0.305,-1.007,0.458,73.333,212670.000,1.000
-46.447,-6.809,-27.405,-13.327,-19.483,-5.045,-7.000,-16.445,0.009,0.976,-0.176,0.275,-1.160,0.244,73.333,212671.000,1.000
-43.646,-3.874,-25.412,-12.993,-19.643,-5.226,-8.436,-17.578,0.010,0.974,-0.177,0.336,-1.221,0.275,73.333,212672.000,1.000
-41.319,-1.992,-23.940,-13.447,-20.257,-5.932,-9.341,-18.186,0.008,0.974,-0.177,0.305,-1.373,0.397,73.333,212673.000,1.000
-39.301,-0.943,-22.673,-14.159,-21.128,-7.067,-9.809,-18.070,0.008,0.971,-0.179,0.214,-1.373,0.427,73.333,212674.000,1.000
-37.394,-0.170,-21.303,-14.520,-21.795,-8.142,-9.752,-17.138,0.008,0.970,-0.178,0.183,-1.404,0.458,73.333,212675.000,1.000
-35.568,0.804,-19.751,-14.137,-21.676,-8.211,-8.785,-15.552,0.006,0.972,-0.174,0.305,-1.556,0.519,73.333,212676.000,1.000
-33.980,2.211,-18.108,-12.925,-20.355,-6.409,-6.573,-13.625,0.005,0.972,-0.174,0.275,-1.678,0.580,73.333,212677.000,1.000
-32.740,4.103,-16.409,-11.038,-17.818,-2.850,-3.442,-11.671,0.007,0.971,-0.176,0.336,-1.831,0.641,73.333,212678.000,1.000
-31.746,6.447,-14.600,-8.757,-14.470,1.326,-0.297,-9.931,0.006,0.970,-0.175,0.305,-1.892,0.671,73.333,212679.000,1.000
-30.938,8.964,-12.786,-6.411,-10.994,4.786,2.028,-8.587,0.005,0.972,-0.173,0.427,-1.953,0.732,73.333,212680.000,1.000
-30.474,11.123,-11.237,-4.220,-7.995,6.840,3.256,-7.671,0.005,0.970,-0.173,0.366,-1.923,0.824,73.333,212681.000,1.000
-30.594,12.403,-10.184,-2.280,-5.853,7.455,3.524,-7.120,0.004,0.971,-0.173,0.397,-2.045,0.732,73.333,212682.000,1.000
-31.466,12.371,-9.937,-0.843,-4.963,6.665,2.674,-7.171,0.004,0.970,-0.173,0.458,-2.106,0.854,73.333,212683.000,1.000
-33.123,10.814,-11.006,-0.473,-5.788,4.536,0.401,-8.383,0.005,0.970,-0.173,0.458,-2.136,1.007,73.333,212684.000,1.000
-35.414,7.929,-13.673,-1.589,-8.290,1.593,-2.827,-10.900,0.005,0.969,-0.177,0.519,-2.075,1.007,73.333,212685.000,1.000
-38.086,4.281,-17.528,-4.033,-11.614,-1.340,-5.714,-13.982,0.007,0.969,-0.177,0.549,-2.289,1.068,73.333,212686.000,1.000
-41.043,0.462,-21.799,-7.394,-14.800,-3.780,-7.202,-16.856,0.008,0.969,-0.178,0.519,-2.319,1.251,73.333,212687.000,1.000
-44.237,-3.021,-25.710,-11.303,-17.340,-5.538,-7.260,-19.555,0.008,0.968,-0.177,0.610,-2.380,1.312,73.333,212688.000,1.000
-47.400,-5.576,-28.548,-15.273,-19.047,-6.313,-6.529,-22.495,0.010,0.965,-0.176,0.671,-2.289,1.190,73.333,212689.000,1.000
-50.309,-6.941,-30.089,-18.826,-20.100,-6.116,-5.861,-25.868,0.010,0.963,-0.176,0.671,-2.228,1.221,73.333,212690.000,1.000
-53.016,-7.551,-30.866,-21.725,-21.062,-5.686,-6.079,-29.555,0.011,0.965,-0.178,0.763,-2.136,1.190,73.333,212691.000,1.000
-55.603,-8.097,-31.708,-23.886,-22.497,-6.026,-7.545,-33.167,0.011,0.962,-0.177,0.977,-2.136,1.160,73.333,212692.000,1.000
-57.826,-8.946,-32.994,-25.157,-24.464,-7.689,-10.022,-36.098,0.011,0.960,-0.173,1.251,-2.075,1.190,73.333,212693.000,1.000
-59.175,-9.887,-34.398,-25.329,-26.441,-10.389,-12.747,-37.621,0.013,0.961,-0.177,1.404,-1.862,1.190,73.333,212694.000,1.000
-59.322,-10.450,-35.378,-24.473,-27.793,-13.208,-14.759,-37.277,0.015,0.962,-0.181,1.587,-1.770,1.160,73.333,212695.000,1.000
-58.350,-10.285,-35.681,-23.099,-28.208,-15.081,-15.390,-35.247,0.016,0.963,-0.179,1.678,-1.617,1.129,73.333,212696.000,1.000
-56.642,-9.321,-35.433,-21.924,-27.811,-15.340,-14.568,-32.346,0.016,0.963,-0.180,1.770,-1.495,1.099,73.333,212697.000,1.000
-54.559,-7.718,-34.792,-21.390,-26.867,-14.050,-12.805,-29.513,0.018,0.965,-0.182,1.892,-1.434,1.068,73.333,212698.000,1.000
-52.197,-5.514,-33.549,-21.325,-25.374,-11.675,-10.474,-27.129,0.017,0.964,-0.184,2.075,-1.282,1.068,73.333,212699.000,1.000
-49.531,-2.656,-31.322,-21.208,-23.200,-8.675,-7.476,-25.065,0.017,0.966,-0.181,2.106,-1.038,1.007,73.333,212700.000,1.000
-46.641,0.699,-28.037,-20.651,-20.542,-5.516,-4.037,-23.229,0.017,0.968,-0.183,2.197,-0.916,1.007,73.333,212701.000,1.000
-43.766,4.147,-24.101,-19.553,-17.986,-2.699,-1.235,-21.800,0.016,0.968,-0.181,2.197,-0.763,1.038,73.333,212702.000,1.000
-41.329,7.115,-20.212,-18.039,-16.100,-0.690,-0.459,-21.199,0.015,0.969,-0.182,2.167,-0.610,1.099,73.333,212703.000,1.000
-39.812,9.079,-17.036,-16.401,-15.115,0.214,-2.368,-21.929,0.014,0.971,-0.181,2.075,-0.366,1.099,73.333,212704.000,1.000
-39.404,9.751,-14.942,-14.980,-14.855,-0.003,-6.322,-24.110,0.015,0.971,-0.185,2.014,-0.305,1.099,73.333,212705.000,1.000
-39.738,9.235,-13.895,-13.958,-14.780,-0.944,-10.582,-27.030,0.014,0.974,-0.185,1.984,-0.214,1.190,73.333,212706.000,1.000
-40.132,7.975,-13.572,-13.324,-14.288,-1.966,-13.209,-29.471,0.012,0.976,-0.183,1.953,0.000,1.129,73.333,212707.000,1.000
-40.011,6.444,-13.570,-12.913,-12.988,-2.563,-13.229,-30.435,0.008,0.975,-0.182,1.831,0.031,1.038,73.333,212708.000,1.000
-39.238,5.031,-13.596,-12.533,-10.801,-2.428,-10.837,-29.484,0.010,0.978,-0.181,1.678,0.061,1.038,73.333,212709.000,1.000
-38.251,3.922,-13.688,-12.225,-8.160,-1.523,-7.008,-26.841,0.007,0.976,-0.179,1.587,0.122,0.977,73.333,212710.000,1.000
-37.683,3.100,-14.097,-12.243,-5.949,-0.177,-3.144,-23.253,0.008,0.975,-0.180,1.465,0.061,0.977,73.333,212711.000,1.000
-37.894,2.494,-14.956,-12.739,-4.995,1.036,-0.336,-19.545,0.005,0.972,-0.177,1.221,0.031,0.824,73.333,212712.000,1.000
-38.829,2.068,-16.058,-13.432,-5.350,1.761,1.420,-16.004,0.006,0.969,-0.177,1.007,-0.122,0.854,73.333,212713.000,1.000
-40.091,2.020,-16.813,-13.609,-6.148,2.332,3.101,-12.255,0.009,0.970,-0.178,0.885,-0.092,0.916,73.333,212714.000,1.000
-41.182,2.657,-16.643,-12.722,-6.491,3.273,5.168,-8.320,0.011,0.969,-0.179,0.885,-0.183,0.916,73.333,212715.000,1.000
-41.822,4.018,-15.473,-10.978,-6.366,4.457,6.501,-5.361,0.010,0.971,-0.180,0.854,-0.092,1.007,73.333,212716.000,1.000
-42.154,5.661,-13.889,-9.267,-6.555,5.192,5.646,-4.710,0.009,0.974,-0.181,0.793,-0.061,1.007,73.333,212717.000,1.000
-42.579,6.745,-12.886,-8.602,-7.849,4.808,2.582,-6.500,0.009,0.974,-0.183,0.671,-0.122,1.038,73.333,212718.000,1.000
-43.408,6.454,-13.432,-9.626,-10.584,2.953,-1.307,-9.672,0.009,0.975,-0.179,0.549,-0.092,1.129,73.333,212719.000,1.000
-44.627,4.402,-15.996,-12.329,-14.555,-0.270,-4.569,-12.878,0.010,0.973,-0.180,0.427,-0.183,1.312,73.333,212720.000,1.000
-45.713,1.010,-20.003,-15.797,-18.829,-4.053,-6.243,-14.746,0.011,0.971,-0.182,0.427,-0.122,1.465,73.333,212721.000,1.000
-45.950,-2.654,-24.085,-18.700,-22.241,-7.379,-6.056,-14.539,0.011,0.970,-0.182,0.336,-0.092,1.526,73.333,212722.000,1.000
-45.081,-5.702,-27.092,-20.380,-24.521,-10.121,-5.537,-13.657,0.010,0.969,-0.181,0.397,-0.122,1.617,73.333,212723.000,1.000
-43.417,-7.749,-28.604,-21.158,-26.406,-13.050,-7.511,-15.075,0.007,0.970,-0.181,0.427,-0.092,1.770,73.333,212724.000,1.000
-41.388,-8.672,-28.661,-21.586,-28.463,-16.645,-13.294,-20.377,0.004,0.970,-0.181,0.427,-0.183,1.617,73.333,212725.000,1.000
-39.172,-8.353,-27.393,-21.749,-30.207,-20.155,-21.023,-28.138,0.000,0.970,-0.180,0.336,-0.336,1.373,73.333,212726.000,1.000
-36.827,-6.710,-25.015,-21.314,-30.504,-22.004,-26.938,-35.201,0.001,0.972,-0.180,0.305,-0.610,1.282,73.333,212727.000,1.000
-34.506,-3.999,-21.929,-19.989,-28.558,-21.158,-28.201,-38.804,0.001,0.973,-0.176,0.214,-0.702,1.160,73.333,212728.000,1.000
-32.351,-0.767,-18.548,-17.729,-24.455,-17.948,-24.639,-37.849,0.003,0.972,-0.181,0.244,-0.946,1.038,73.333,212729.000,1.000
-30.270,2.388,-15.109,-14.721,-19.066,-13.751,-18.432,-33.191,0.005,0.970,-0.184,0.244,-1.007,0.763,73.333,212730.000,1.000
-27.971,5.075,-11.678,-11.327,-13.547,-10.005,-12.383,-26.939,0.006,0.969,-0.184,0.244,-1.160,0.610,73.333,212731.000,1.000
-25.259,7.268,-8.323,-7.961,-8.833,-7.332,-8.003,-21.092,0.006,0.970,-0.183,0.275,-1.251,0.610,73.333,212732.000,1.000
-22.281,9.172,-5.189,-4.918,-5.285,-5.341,-5.030,-16.483,0.005,0.971,-0.181,0.214,-1.221,0.519,73.333,212733.000,1.000
-19.582,10.937,-2.532,-2.385,-2.796,-3.394,-2.569,-12.861,0.006,0.973,-0.180,0.092,-1.373,0.549,73.333,212734.000,1.000
-17.882,12.438,-0.688,-0.508,-1.149,-1.556,-0.404,-9.792,0.007,0.972,-0.177,0.092,-1.495,0.488,73.333,212735.000,1.000
-17.557,13.510,0.207,0.706,-0.085,-0.368,0.960,-7.260,0.006,0.974,-0.178,0.000,-1.495,0.549,73.333,212736.000,1.000
-18.408,14.251,0.378,1.428,0.745,0.071,1.333,-5.487,0.006,0.971,-0.179,-0.031,-1.587,0.458,73.333,212737.000,1.000
-19.681,15.011,0.431,2.030,1.940,0.541,1.712,-4.171,0.006,0.971,-0.177,-0.214,-1.587,0.549,73.333,212738.000,1.000
-20.381,16.241,1.123,2.974,4.142,2.222,3.738,-2.379,0.006,0.973,-0.177,-0.336,-1.678,0.580,73.333,212739.000,1.000
-20.044,17.878,2.655,4.239,7.194,5.379,7.600,0.238,0.006,0.973,-0.180,-0.275,-1.678,0.671,73.333,212740.000,1.000
-19.165,19.069,4.322,5.076,9.893,8.833,11.294,2.827,0.006,0.973,-0.178,-0.397,-1.862,0.732,73.333,212741.000,1.000
-18.788,18.790,5.008,4.549,10.830,10.946,12.464,4.150,0.006,0.974,-0.177,-0.488,-1.892,0.702,73.333,212742.000,1.000
-19.773,16.531,3.905,2.252,9.274,10.817,10.110,3.500,0.004,0.973,-0.178,-0.610,-1.862,0.702,73.333,212743.000,1.000
-22.340,12.621,0.979,-1.445,5.479,8.676,5.045,0.909,0.004,0.972,-0.175,-0.641,-1.923,0.854,73.333,212744.000,1.000
-26.028,8.022,-3.037,-5.656,0.493,5.439,-0.713,-3.158,0.004,0.972,-0.175,-0.641,-2.014,0.854,73.333,212745.000,1.000
-29.872,3.912,-6.970,-9.410,-4.288,2.066,-5.241,-8.020,0.004,0.971,-0.174,-0.641,-2.075,0.916,73.333,212746.000,1.000
-32.886,1.231,-9.845,-12.057,-7.802,-0.794,-7.701,-12.849,0.004,0.969,-0.177,-0.702,-2.228,1.007,73.333,212747.000,1.000
-34.585,0.243,-11.363,-13.496,-9.772,-2.881,-8.391,-16.780,0.004,0.968,-0.175,-0.763,-2.289,0.916,73.333,212748.000,1.000
-35.036,0.599,-11.746,-14.027,-10.524,-4.089,-7.886,-19.062,0.006,0.969,-0.177,-0.671,-2.258,1.007,73.333,212749.000,1.000
-34.530,1.628,-11.368,-14.031,-10.565,-4.345,-6.488,-19.368,0.005,0.970,-0.177,-0.549,-2.258,1.038,73.333,212750.000,1.000
-33.339,2.627,-10.581,-13.791,-10.387,-3.788,-4.526,-18.069,0.008,0.968,-0.178,-0.458,-2.258,1.068,73.333,212751.000,1.000
-31.821,3.010,-9.806,-13.547,-10.522,-2.970,-2.608,-16.094,0.007,0.970,-0.177,-0.397,-2.289,1.038,73.333,212752.000,1.000
-30.423,2.335,-9.455,-13.500,-11.381,-2.571,-1.286,-14.331,0.009,0.970,-0.176,-0.336,-2.228,1.068,73.333,212753.000,1.000
-29.421,0.690,-9.572,-13.655,-12.875,-2.693,-0.433,-13.097,0.008,0.969,-0.178,-0.214,-2.258,1.007,73.333,212754.000,1.000
-28.761,-1.064,-9.698,-13.807,-14.373,-2.742,0.436,-12.284,0.008,0.969,-0.179,-0.092,-2.228,0.916,73.333,212755.000,1.000
-28.096,-1.694,-9.110,-13.672,-15.107,-2.022,1.325,-11.857,0.009,0.968,-0.175,-0.031,-2.136,0.885,73.333,212756.000,1.000
-27.021,-0.418,-7.338,-13.095,-14.742,-0.368,1.748,-12.156,0.010,0.968,-0.178,0.122,-2.106,0.946,73.333,212757.000,1.000
-25.224,2.644,-4.425,-12.071,-13.464,1.766,1.326,-13.532,0.010,0.967,-0.178,0.275,-1.984,1.007,73.333,212758.000,1.000
-22.577,6.849,-0.787,-10.576,-11.610,3.734,0.359,-15.621,0.011,0.969,-0.178,0.336,-1.923,0.916,73.333,212759.000,1.000
-19.412,11.283,2.812,-8.699,-9.548,4.977,-0.487,-17.454,0.009,0.968,-0.178,0.336,-1.892,0.824,73.333,212760.000,1.000
-16.592,14.879,5.431,-6.838,-7.690,5.245,-0.907,-18.225,0.010,0.969,-0.179,0.519,-1.770,0.671,73.333,212761.000,1.000
-15.095,16.784,6.438,-5.573,-6.364,4.785,-0.995,-17.700,0.010,0.968,-0.178,0.610,-1.740,0.610,73.333,212762.000,1.000
-15.413,16.689,5.868,-5.281,-5.714,4.100,-1.116,-16.150,0.008,0.970,-0.176,0.671,-1.678,0.671,73.333,212763.000,1.000
-17.266,14.963,4.333,-5.864,-5.694,3.694,-1.643,-14.084,0.008,0.972,-0.177,0.610,-1.617,0.641,73.333,212764.000,1.000
-19.840,12.406,2.592,-6.854,-6.093,4.024,-2.510,-12.028,0.007,0.971,-0.177,0.641,-1.556,0.580,73.333,212765.000,1.000
-22.230,9.931,1.299,-7.683,-6.547,5.329,-3.177,-10.386,0.007,0.971,-0.178,0.732,-1.556,0.580,73.333,212766.000,1.000
-23.782,8.315,0.872,-7.968,-6.782,7.229,-3.147,-9.397,0.005,0.971,-0.177,0.763,-1.495,0.488,73.333,212767.000,1.000
-24.183,7.892,1.379,-7.703,-6.808,8.706,-2.591,-9.166,0.006,0.972,-0.177,0.885,-1.495,0.397,73.333,212768.000,1.000
-23.393,8.539,2.561,-7.179,-6.833,8.867,-2.138,-9.653,0.003,0.973,-0.177,0.793,-1.434,0.336,73.333,212769.000,1.000
-21.680,9.729,3.922,-6.725,-7.070,7.608,-2.103,-10.628,0.007,0.974,-0.177,0.763,-1.495,0.427,73.333,212770.000,1.000
-19.530,10.708,4.958,-6.501,-7.639,5.460,-2.225,-11.631,0.006,0.974,-0.175,0.671,-1.465,0.427,73.333,212771.000,1.000
-17.447,10.855,5.393,-6.525,-8.585,2.970,-2.066,-12.201,0.006,0.974,-0.177,0.641,-1.404,0.305,73.333,212772.000,1.000
-15.759,9.955,5.275,-6.733,-9.803,0.516,-1.549,-12.201,0.002,0.973,-0.177,0.580,-1.404,0.336,73.333,212773.000,1.000
-14.582,8.291,4.858,-7.017,-11.049,-1.515,-1.095,-11.896,0.002,0.973,-0.177,0.610,-1.465,0.244,73.333,212774.000,1.000
-13.940,6.371,4.353,-7.274,-12.156,-2.875,-1.389,-11.733,0.003,0.974,-0.179,0.580,-1.465,0.366,73.333,212775.000,1.000
-13.726,4.753,3.969,-7.301,-12.949,-3.527,-2.631,-11.721,0.004,0.972,-0.178,0.488,-1.495,0.397,73.333,212776.000,1.000
-13.672,4.021,3.973,-6.825,-13.143,-3.503,-4.080,-11.244,0.004,0.972,-0.179,0.580,-1.556,0.427,73.333,212777.000,1.000
-13.401,4.537,4.577,-5.730,-12.495,-2.939,-4.830,-9.714,0.003,0.971,-0.174,0.488,-1.587,0.458,73.333,212778.000,1.000
-12.605,6.244,5.792,-4.195,-11.036,-2.094,-4.444,-7.163,0.002,0.973,-0.175,0.427,-1.617,0.488,73.333,212779.000,1.000
-11.303,8.633,7.366,-2.677,-9.154,-1.203,-2.836,-4.322,0.002,0.970,-0.174,0.488,-1.648,0.580,73.333,212780.000,1.000
-9.714,11.138,8.973,-1.630,-7.345,-0.252,-0.283,-2.217,0.002,0.970,-0.176,0.427,-1.709,0.610,73.333,212781.000,1.000
-8.037,13.501,10.362,-1.252,-6.031,0.810,2.127,-1.671,0.000,0.971,-0.172,0.427,-1.709,0.732,73.333,212782.000,1.000
-6.495,15.610,11.317,-1.500,-5.516,1.661,2.630,-3.001,0.003,0.969,-0.177,0.519,-1.678,0.793,73.333,212783.000,1.000
-5.445,17.326,11.656,-2.246,-5.920,1.822,0.215,-5.842,0.001,0.969,-0.179,0.549,-1.678,0.763,73.333,212784.000,1.000
-5.341,18.432,11.241,-3.399,-7.113,1.156,-4.392,-9.226,0.001,0.968,-0.179,0.580,-1.617,0.916,73.333,212785.000,1.000
-6.399,18.758,10.127,-4.728,-8.568,0.053,-9.173,-11.802,0.001,0.968,-0.179,0.610,-1.709,0.946,73.333,212786.000,1.000
-8.337,18.364,8.644,-5.723,-9.468,-0.810,-11.919,-12.336,0.001,0.968,-0.175,0.641,-1.678,0.916,73.333,212787.000,1.000
-10.407,17.498,7.305,-5.846,-9.200,-0.962,-11.596,-10.521,0.002,0.969,-0.176,0.641,-1.617,1.007,73.333,212788.000,1.000
-11.623,16.590,6.683,-4.854,-7.772,-0.372,-8.945,-7.258,0.003,0.970,-0.175,0.702,-1.556,1.038,73.333,212789.000,1.000
-11.174,16.036,7.189,-2.903,-5.701,0.649,-5.666,-3.875,0.002,0.971,-0.177,0.702,-1.587,1.129,73.333,212790.000,1.000
-8.898,15.882,8.806,-0.456,-3.611,1.674,-3.121,-1.113,0.001,0.971,-0.179,0.702,-1.648,1.312,73.333,212791.000,1.000
-5.478,15.812,10.996,1.865,-2.051,2.175,-1.956,0.960,0.003,0.970,-0.175,0.732,-1.465,1.221,73.333,212792.000,1.000
-2.062,15.396,13.007,3.558,-1.423,1.542,-2.525,2.419,0.004,0.970,-0.176,0.763,-1.434,1.160,73.333,212793.000,1.000
0.246,14.389,14.238,4.444,-1.896,-0.543,-4.701,3.309,0.004,0.970,-0.175,0.671,-1.495,1.099,73.333,212794.000,1.000
0.676,12.714,14.350,4.578,-3.378,-3.781,-7.642,3.683,0.005,0.971,-0.177,0.671,-1.465,1.251,73.333,212795.000,1.000
-0.926,10.550,13.395,4.134,-5.466,-7.250,-10.278,3.596,0.007,0.971,-0.180,0.580,-1.404,1.312,73.333,212796.000,1.000
-4.035,8.447,11.829,3.308,-7.522,-9.652,-11.752,3.056,0.005,0.971,-0.181,0.610,-1.282,1.373,73.333,212797.000,1.000
-7.696,7.042,10.286,2.295,-8.862,-9.894,-11.679,2.154,0.008,0.971,-0.177,0.549,-1.190,1.312,73.333,212798.000,1.000
-10.909,6.761,9.285,1.367,-8.993,-7.780,-10.183,1.295,0.007,0.971,-0.177,0.610,-1.129,1.465,73.333,212799.000,1.000
-12.954,7.592,9.041,0.815,-7.868,-4.176,-7.764,1.030,0.007,0.973,-0.176,0.519,-1.038,1.495,73.333,212800.000,1.000
-13.480,9.176,9.542,0.850,-5.846,-0.284,-5.003,1.760,0.007,0.971,-0.177,0.549,-1.068,1.404,73.333,212801.000,1.000
-12.542,11.113,10.683,1.540,-3.456,3.234,-2.254,3.593,0.007,0.972,-0.179,0.519,-0.946,1.617,73.333,212802.000,1.000
-10.611,13.079,12.261,2.755,-1.156,6.408,0.312,6.261,0.008,0.971,-0.180,0.519,-0.854,1.617,73.333,212803.000,1.000
-8.470,14.853,13.935,4.121,0.742,9.421,2.537,9.136,0.008,0.971,-0.178,0.519,-0.641,1.556,73.333,212804.000,1.000
-6.950,16.176,15.267,5.074,1.956,11.925,3.968,11.366,0.009,0.970,-0.177,0.427,-0.671,1.587,73.333,212805.000,1.000
-6.527,16.709,15.966,5.195,2.279,13.079,3.984,12.348,0.010,0.970,-0.177,0.427,-0.488,1.648,73.333,212806.000,1.000
-7.142,16.225,15.946,4.464,1.708,12.207,2.563,12.122,0.010,0.969,-0.179,0.519,-0.366,1.587,73.333,212807.000,1.000
-8.358,14.749,15.215,3.214,0.516,9.391,0.493,11.272,0.008,0.970,-0.177,0.580,-0.427,1.617,73.333,212808.000,1.000
-9.705,12.618,13.813,1.830,-0.920,5.611,-1.217,10.409,0.007,0.971,-0.180,0.519,-0.275,1.709,73.333,212809.000,1.000
-11.020,10.252,11.808,0.462,-2.423,2.126,-2.188,9.648,0.008,0.971,-0.179,0.641,-0.214,1.678,73.333,212810.000,1.000
-12.364,8.032,9.446,-0.876,-3.950,-0.290,-2.851,8.746,0.008,0.971,-0.179,0.641,-0.061,1.648,73.333,212811.000,1.000
-13.871,6.201,7.082,-2.230,-5.507,-1.555,-3.771,7.502,0.009,0.970,-0.181,0.549,0.031,1.770,73.333,212812.000,1.000
-15.700,4.659,4.895,-3.775,-7.233,-2.103,-5.146,5.798,0.011,0.970,-0.181,0.488,0.122,1.770,73.333,212813.000,1.000
-17.714,3.352,3.072,-5.537,-9.162,-2.405,-6.657,3.731,0.007,0.970,-0.181,0.458,0.244,1.678,73.333,212814.000,1.000
-19.153,2.676,2.181,-7.024,-10.834,-2.584,-7.668,1.815,0.007,0.972,-0.178,0.488,0.305,1.709,73.333,212815.000,1.000
-18.942,3.181,2.933,-7.463,-11.453,-2.409,-7.617,0.770,0.009,0.973,-0.179,0.458,0.366,1.709,73.333,212816.000,1.000
-16.575,4.946,5.419,-6.492,-10.628,-1.600,-6.262,0.966,0.008,0.971,-0.177,0.458,0.366,1.709,73.333,212817.000,1.000
-12.584,7.320,8.818,-4.463,-8.752,-0.200,-3.941,2.166,0.008,0.969,-0.179,0.397,0.305,1.740,73.333,212818.000,1.000
-8.217,9.353,11.868,-2.155,-6.687,1.383,-1.444,3.848,0.008,0.972,-0.181,0.366,0.458,1.617,73.333,212819.000,1.000
-4.849,10.275,13.453,-0.428,-5.312,2.480,0.268,5.369,0.007,0.971,-0.179,0.397,0.519,1.526,73.333,212820.000,1.000
-3.450,9.814,13.023,0.066,-5.177,2.548,0.329,5.996,0.007,0.969,-0.181,0.458,0.488,1.587,73.333,212821.000,1.000
-4.247,8.330,10.799,-0.836,-6.254,1.717,-1.406,5.324,0.007,0.970,-0.177,0.427,0.427,1.556,73.333,212822.000,1.000
-6.668,6.521,7.705,-2.667,-7.863,0.788,-4.082,3.701,0.006,0.973,-0.177,0.336,0.488,1.556,73.333,212823.000,1.000
-9.606,5.138,5.033,-4.531,-8.967,0.675,-6.255,2.045,0.005,0.970,-0.178,0.366,0.366,1.648,73.333,212824.000,1.000
-11.872,4.762,3.887,-5.540,-8.721,1.871,-6.741,1.280,0.005,0.972,-0.176,0.397,0.244,1.648,73.333,212825.000,1.000
-12.497,5.770,4.794,-5.118,-6.820,4.328,-5.197,2.060,0.005,0.972,-0.176,0.397,0.244,1.495,73.333,212826.000,1.000
-11.052,8.256,7.514,-3.258,-3.647,7.457,-2.153,4.512,0.008,0.973,-0.176,0.397,0.214,1.617,73.333,212827.000,1.000
-7.897,11.807,11.125,-0.604,-0.141,10.285,1.157,7.904,0.006,0.972,-0.180,0.397,0.153,1.648,73.333,212828.000,1.000
-3.924,15.710,14.578,1.968,2.710,12.092,3.462,10.862,0.004,0.972,-0.179,0.427,0.061,1.556,73.333,212829.000,1.000
-0.053,19.226,17.171,3.895,4.278,12.730,4.009,12.075,0.006,0.971,-0.179,0.488,0.061,1.556,73.333,212830.000,1.000
3.085,21.714,18.636,5.044,4.363,12.289,2.639,10.934,0.007,0.971,-0.177,0.427,0.000,1.526,73.333,212831.000,1.000
5.127,22.761,19.015,5.487,3.124,10.841,-0.131,7.743,0.009,0.971,-0.175,0.427,-0.061,1.617,73.333,212832.000,1.000
5.918,22.313,18.619,5.392,1.095,8.590,-3.238,3.479,0.008,0.970,-0.175,0.519,0.000,1.648,73.333,212833.000,1.000
5.456,20.645,17.782,4.959,-1.055,5.968,-5.571,-0.671,0.007,0.971,-0.176,0.427,-0.122,1.556,73.333,212834.000,1.000
3.752,18.003,16.463,4.223,-2.949,3.371,-6.567,-3.763,0.008,0.972,-0.178,0.366,-0.153,1.587,73.333,212835.000,1.000
0.948,14.620,14.451,3.117,-4.434,1.152,-6.233,-5.185,0.008,0.972,-0.178,0.397,-0.214,1.587,73.333,212836.000,1.000
-2.532,10.913,11.804,1.614,-5.378,-0.299,-4.878,-4.817,0.007,0.972,-0.179,0.519,-0.336,1.648,73.333,212837.000,1.000
-6.013,7.379,8.956,-0.231,-5.746,-0.791,-3.275,-3.309,0.008,0.971,-0.177,0.458,-0.397,1.587,73.333,212838.000,1.000
-8.675,4.635,6.632,-2.139,-5.585,-0.354,-2.306,-1.595,0.007,0.972,-0.179,0.519,-0.427,1.648,73.333,212839.000,1.000
-9.935,3.290,5.530,-3.632,-4.910,0.843,-2.151,-0.109,0.006,0.972,-0.179,0.397,-0.458,1.495,73.333,212840.000,1.000
-9.860,3.527,5.844,-4.323,-3.774,2.438,-2.143,1.318,0.007,0.970,-0.177,0.488,-0.610,1.526,73.333,212841.000,1.000
-9.155,4.884,7.047,-4.224,-2.530,3.912,-1.448,2.950,0.008,0.969,-0.176,0.488,-0.763,1.526,73.333,212842.000,1.000
-8.688,6.400,8.158,-3.825,-1.873,4.806,-0.031,4.627,0.010,0.970,-0.176,0.458,-0.732,1.587,73.333,212843.000,1.000
-9.005,7.124,8.210,-3.920,-2.617,4.871,1.088,5.607,0.008,0.969,-0.176,0.519,-0.854,1.617,73.333,212844.000,1.000
-10.184,6.515,6.682,-5.149,-5.242,3.975,0.466,4.967,0.008,0.969,-0.179,0.641,-0.885,1.709,73.333,212845.000,1.000
-11.856,4.717,3.896,-7.394,-9.399,2.174,-2.651,2.432,0.008,0.968,-0.178,0.580,-0.946,1.526,73.333,212846.000,1.000
-13.548,2.486,0.868,-9.802,-14.003,-0.158,-7.602,-1.323,0.008,0.969,-0.175,0.549,-1.007,1.556,73.333,212847.000,1.000
-15.096,0.634,-1.367,-11.442,-17.808,-2.358,-12.747,-5.145,0.009,0.968,-0.176,0.549,-1.038,1.526,73.333,212848.000,1.000
-16.550,-0.273,-2.232,-11.794,-19.827,-3.564,-16.236,-7.856,0.010,0.968,-0.177,0.580,-1.068,1.373,73.333,212849.000,1.000
-17.729,0.064,-1.573,-10.796,-19.523,-3.081,-16.782,-8.607,0.011,0.969,-0.178,0.641,-1.099,1.373,73.333,212850.000,1.000
-17.979,1.806,0.595,-8.592,-16.876,-0.731,-14.321,-7.209,0.011,0.968,-0.179,0.610,-1.038,1.465,73.333,212851.000,1.000
-16.582,4.934,4.058,-5.457,-12.477,3.018,-9.988,-4.314,0.011,0.970,-0.183,0.641,-1.099,1.465,73.333,212852.000,1.000
-13.482,8.894,8.163,-1.928,-7.513,6.951,-5.663,-1.150,0.010,0.972,-0.179,0.549,-1.099,1.404,73.333,212853.000,1.000
-9.477,12.654,11.944,1.228,-3.374,9.463,-3.047,1.252,0.011,0.971,-0.180,0.580,-1.129,1.495,73.333,212854.000,1.000
-5.735,15.188,14.565,3.323,-1.047,9.499,-2.770,2.522,0.009,0.970,-0.180,0.580,-1.129,1.526,73.333,212855.000,1.000
-3.115,16.042,15.674,4.100,-0.731,7.285,-4.317,2.727,0.010,0.971,-0.178,0.488,-1.160,1.465,73.333,212856.000,1.000
-1.868,15.517,15.432,3.794,-1.974,4.095,-6.632,2.040,0.009,0.969,-0.178,0.519,-1.129,1.343,73.333,212857.000,1.000
-1.682,14.343,14.388,2.930,-4.027,1.330,-8.902,0.643,0.008,0.969,-0.183,0.458,-1.251,1.312,73.333,212858.000,1.000
-1.972,13.255,13.231,2.031,-6.156,-0.208,-10.727,-1.189,0.009,0.970,-0.180,0.488,-1.251,1.190,73.333,212859.000,1.000
-2.243,12.671,12.452,1.464,-7.846,-0.448,-11.804,-3.040,0.010,0.970,-0.181,0.519,-1.282,1.221,73.333,212860.000,1.000
-2.291,12.606,12.184,1.432,-8.792,0.250,-11.781,-4.405,0.011,0.971,-0.179,0.519,-1.221,1.190,73.333,212861.000,1.000
-2.336,12.672,12.165,1.876,-8.977,1.317,-10.578,-4.955,0.016,0.972,-0.179,0.580,-1.251,1.221,73.333,212862.000,1.000
-2.809,12.226,11.962,2.525,-8.599,2.159,-8.799,-4.737,0.016,0.974,-0.181,0.458,-1.190,1.160,73.333,212863.000,1.000
-3.905,10.907,11.329,3.077,-7.914,2.490,-7.370,-4.150,0.015,0.973,-0.180,0.366,-1.099,1.251,73.333,212864.000,1.000
-5.558,8.761,10.170,3.110,-7.380,2.201,-7.093,-3.949,0.015,0.969,-0.180,0.244,-1.038,1.343,73.333,212865.000,1.000
-7.585,6.081,8.481,2.173,-7.649,1.079,-8.596,-4.922,0.015,0.965,-0.183,0.214,-0.946,1.495,73.333,212866.000,1.000
-9.650,3.359,6.536,0.262,-9.095,-0.992,-11.920,-7.245,0.016,0.962,-0.183,0.275,-0.916,1.404,73.333,212867.000,1.000
-11.212,1.198,4.921,-1.903,-11.352,-3.652,-16.016,-10.084,0.017,0.961,-0.182,0.366,-0.824,1.495,73.333,212868.000,1.000
-11.731,0.213,4.255,-3.258,-13.419,-6.031,-18.989,-11.911,0.016,0.960,-0.187,0.549,-0.732,1.526,73.333,212869.000,1.000
-11.140,0.623,4.678,-3.187,-14.395,-7.314,-19.362,-11.617,0.017,0.965,-0.185,0.732,-0.671,1.526,73.333,212870.000,1.000
-10.093,1.967,5.593,-2.027,-14.112,-7.271,-17.091,-9.428,0.014,0.968,-0.183,0.763,-0.580,1.465,73.333,212871.000,1.000
-9.571,3.439,5.997,-0.824,-13.125,-6.196,-13.221,-6.696,0.014,0.972,-0.183,0.793,-0.458,1.404,73.333,212872.000,1.000
-10.022,4.604,5.342,-0.462,-12.044,-4.479,-9.008,-4.746,0.015,0.975,-0.182,0.671,-0.397,1.465,73.333,212873.000,1.000
-11.010,5.774,4.012,-1.050,-11.076,-2.373,-5.344,-4.016,0.015,0.977,-0.182,0.519,-0.305,1.343,73.333,212874.000,1.000
-11.901,7.321,2.720,-2.234,-10.349,-0.315,-2.761,-4.313,0.016,0.976,-0.181,0.366,-0.275,1.373,73.333,212875.000,1.000
-12.499,8.998,1.817,-3.682,-10.170,1.139,-1.480,-5.377,0.015,0.975,-0.185,0.214,-0.244,1.282,73.333,212876.000,1.000
-12.889,10.302,1.351,-5.073,-10.672,1.882,-1.272,-6.968,0.013,0.977,-0.181,0.122,-0.244,1.282,73.333,212877.000,1.000
-13.000,11.076,1.403,-5.964,-11.515,2.209,-1.717,-8.674,0.010,0.977,-0.182,0.122,-0.244,1.221,73.333,212878.000,1.000
-12.598,11.606,2.111,-5.929,-12.190,2.338,-2.440,-9.928,0.009,0.974,-0.182,0.061,-0.214,1.068,73.333,212879.000,1.000
-11.640,12.189,3.447,-4.820,-12.444,2.382,-3.112,-10.359,0.006,0.977,-0.178,-0.122,-0.214,0.793,73.333,212880.000,1.000
-10.422,12.889,5.142,-2.853,-12.339,2.540,-3.443,-9.952,0.004,0.979,-0.176,-0.336,-0.366,0.580,73.333,212881.000,1.000
-9.580,13.478,6.646,-0.673,-12.289,2.805,-3.319,-9.037,0.003,0.981,-0.177,-0.488,-0.519,0.397,73.333,212882.000,1.000
-9.904,13.396,7.147,0.760,-13.024,2.664,-3.034,-8.287,0.003,0.980,-0.177,-0.671,-0.549,0.214,73.333,212883.000,1.000
-11.889,12.153,5.958,0.694,-15.152,1.620,-2.953,-8.413,0.003,0.978,-0.180,-0.763,-0.763,0.000,73.333,212884.000,1.000
-15.273,9.821,3.082,-0.821,-18.601,-0.192,-3.011,-9.609,0.005,0.977,-0.179,-0.854,-1.038,-0.092,73.333,212885.000,1.000
-18.947,7.185,-0.555,-2.864,-22.586,-2.208,-2.939,-11.444,0.006,0.977,-0.177,-0.977,-1.190,-0.092,73.333,212886.000,1.000
-21.648,5.265,-3.730,-4.414,-26.333,-4.145,-2.877,-13.586,0.003,0.974,-0.180,-1.099,-1.251,-0.031,73.333,212887.000,1.000
-22.939,4.514,-5.840,-5.126,-29.579,-6.189,-3.387,-16.242,0.003,0.974,-0.177,-1.099,-1.282,-0.031,73.333,212888.000,1.000
-23.439,4.646,-7.147,-5.331,-32.376,-8.528,-4.692,-19.629,0.003,0.973,-0.177,-1.068,-1.465,0.153,73.333,212889.000,1.000
-24.208,4.964,-8.384,-5.531,-34.830,-11.094,-6.430,-23.568,0.002,0.973,-0.181,-1.160,-1.556,0.031,73.333,212890.000,1.000
-25.979,4.830,-10.178,-5.987,-37.105,-13.695,-8.160,-27.665,0.002,0.971,-0.178,-1.160,-1.617,0.183,73.333,212891.000,1.000
-28.976,3.859,-12.866,-6.810,-39.576,-16.271,-9.583,-31.628,0.003,0.971,-0.176,-1.190,-1.709,0.275,73.333,212892.000,1.000
-32.999,1.956,-16.503,-8.071,-42.630,-18.840,-10.323,-35.273,0.003,0.973,-0.174,-1.068,-1.801,0.397,73.333,212893.000,1.000
-37.470,-0.508,-20.820,-9.683,-46.297,-21.206,-9.846,-38.416,0.003,0.971,-0.174,-1.068,-1.923,0.519,73.333,212894.000,1.000
-41.761,-2.920,-25.451,-11.524,-50.423,-23.252,-8.348,-41.352,0.001,0.969,-0.172,-1.038,-1.984,0.732,73.333,212895.000,1.000
-45.464,-4.745,-30.082,-13.542,-54.917,-25.295,-7.354,-44.975,0.001,0.970,-0.171,-0.854,-2.106,0.885,73.333,212896.000,1.000
-48.274,-5.542,-34.294,-15.508,-59.592,-27.714,-8.514,-49.800,0.002,0.971,-0.170,-0.824,-2.289,0.885,73.333,212897.000,1.000
-49.827,-5.103,-37.491,-16.823,-64.002,-30.436,-12.100,-55.217,0.001,0.971,-0.174,-0.732,-2.350,0.977,73.333,212898.000,1.000
-49.917,-3.668,-39.217,-16.878,-67.685,-33.053,-16.952,-60.018,0.001,0.971,-0.173,-0.702,-2.472,1.038,73.333,212899.000,1.000
-48.898,-2.067,-39.618,-15.657,-70.523,-35.472,-21.703,-63.458,0.001,0.971,-0.172,-0.549,-2.594,1.221,73.333,212900.000,1.000
-47.636,-1.320,-39.414,-13.802,-72.689,-38.001,-25.554,-65.563,0.003,0.970,-0.171,-0.549,-2.625,1.221,73.333,212901.000,1.000
-46.952,-1.967,-39.417,-12.091,-74.430,-40.779,-28.017,-66.728,0.006,0.969,-0.172,-0.305,-2.655,1.282,73.333,212902.000,1.000
-47.020,-3.841,-40.014,-10.825,-75.946,-43.549,-28.941,-67.338,0.007,0.968,-0.170,-0.214,-2.655,1.282,73.333,212903.000,1.000
-47.454,-6.330,-41.125,-9.783,-77.519,-45.993,-28.954,-67.787,0.006,0.969,-0.170,-0.183,-2.625,1.373,73.333,212904.000,1.000
-47.978,-8.918,-42.655,-8.781,-79.601,-48.010,-29.348,-68.664,0.007,0.967,-0.174,0.000,-2.563,1.312,73.333,212905.000,1.000
-48.569,-11.179,-44.475,-7.813,-82.220,-49.340,-30.903,-70.199,0.007,0.966,-0.175,0.183,-2.563,1.373,73.333,212906.000,1.000
-49.039,-12.432,-46.042,-6.671,-84.454,-49.326,-33.040,-71.686,0.007,0.965,-0.175,0.305,-2.502,1.343,73.333,212907.000,1.000
-48.920,-12.078,-46.593,-4.918,-85.018,-47.582,-34.764,-72.173,0.011,0.964,-0.175,0.580,-2.441,1.282,73.333,212908.000,1.000
-47.805,-10.132,-45.784,-2.280,-83.390,-44.614,-35.706,-71.482,0.011,0.965,-0.175,0.732,-2.411,1.160,73.333,212909.000,1.000
-45.590,-7.269,-43.877,1.128,-80.134,-41.489,-35.994,-70.158,0.012,0.963,-0.173,0.946,-2.289,1.129,73.333,212910.000,1.000
-42.419,-4.349,-41.348,4.956,-76.286,-39.063,-35.739,-68.741,0.010,0.963,-0.178,1.038,-2.075,1.038,73.333,212911.000,1.000
-38.725,-2.076,-38.674,8.676,-72.886,-37.821,-35.082,-67.634,0.012,0.964,-0.177,1.160,-2.075,1.007,73.333,212912.000,1.000
-35.188,-0.952,-36.314,11.677,-70.730,-38.081,-34.702,-67.338,0.013,0.963,-0.177,1.282,-1.831,0.946,73.333,212913.000,1.000
-32.314,-0.965,-34.437,13.691,-69.976,-39.656,-35.316,-67.999,0.011,0.964,-0.175,1.404,-1.709,0.946,73.333,212914.000,1.000
-30.094,-1.545,-32.810,14.996,-70.046,-41.591,-36.782,-68.917,0.013,0.967,-0.176,1.373,-1.495,0.977,73.333,212915.000,1.000
-28.098,-1.987,-31.073,16.121,-70.172,-42.703,-38.470,-69.031,0.013,0.967,-0.176,1.434,-1.404,0.977,73.333,212916.000,1.000
-25.930,-1.873,-29.102,17.415,-70.017,-42.414,-40.125,-67.803,0.014,0.967,-0.177,1.526,-1.282,0.977,73.333,212917.000,1.000
-23.544,-1.139,-27.009,18.957,-69.605,-40.929,-41.792,-65.429,0.014,0.969,-0.178,1.526,-0.977,1.068,73.333,212918.000,1.000
-21.179,0.236,-24.906,20.682,-68.879,-38.670,-43.151,-62.447,0.012,0.972,-0.179,1.526,-0.732,1.099,73.333,212919.000,1.000
-19.160,2.210,-22.889,22.376,-67.642,-35.976,-43.659,-59.513,0.011,0.973,-0.178,1.526,-0.702,1.221,73.333,212920.000,1.000
-17.677,4.554,-21.067,23.734,-65.802,-33.261,-43.183,-57.219,0.013,0.972,-0.181,1.404,-0.549,1.251,73.333,212921.000,1.000
-16.685,6.945,-19.529,24.554,-63.503,-31.092,-41.998,-55.830,0.013,0.974,-0.179,1.282,-0.488,1.282,73.333,212922.000,1.000
-15.970,8.997,-18.314,24.886,-61.039,-29.923,-40.493,-55.105,0.010,0.977,-0.179,1.160,-0.275,1.312,73.333,212923.000,1.000
-15.309,10.352,-17.390,24.980,-58.764,-29.761,-39.033,-54.482,0.009,0.979,-0.177,1.099,-0.183,1.251,73.333,212924.000,1.000
-14.654,10.730,-16.760,25.046,-57.106,-30.276,-38.081,-53.701,0.007,0.981,-0.175,0.854,-0.153,1.251,73.333,212925.000,1.000
-14.026,10.106,-16.423,25.183,-56.341,-30.983,-37.879,-52.883,0.006,0.981,-0.174,0.732,-0.122,1.160,73.333,212926.000,1.000
-13.333,8.856,-16.282,25.427,-56.283,-31.294,-37.928,-52.078,0.004,0.976,-0.174,0.488,-0.153,1.099,73.333,212927.000,1.000
-12.435,7.494,-16.184,25.706,-56.399,-30.834,-37.561,-51.323,0.005,0.975,-0.175,0.214,-0.061,1.129,73.333,212928.000,1.000
-11.304,6.411,-15.990,25.850,-56.244,-29.781,-36.785,-50.903,0.007,0.972,-0.179,0.061,0.000,1.221,73.333,212929.000,1.000
-9.986,5.799,-15.542,25.854,-55.622,-28.764,-36.266,-50.982,0.008,0.970,-0.182,0.031,0.122,1.221,73.333,212930.000,1.000
-8.425,5.784,-14.608,26.114,-54.373,-28.192,-36.525,-51.098,0.011,0.972,-0.180,0.031,0.061,1.251,73.333,212931.000,1.000
-6.629,6.342,-13.163,27.047,-52.476,-27.892,-37.265,-50.586,0.011,0.974,-0.181,0.122,0.183,1.343,73.333,212932.000,1.000
-4.877,7.020,-11.590,28.624,-50.248,-27.547,-37.882,-49.335,0.010,0.976,-0.180,0.061,0.214,1.404,73.333,212933.000,1.000
-3.481,7.299,-10.303,30.501,-48.089,-27.041,-38.156,-47.670,0.010,0.976,-0.176,-0.092,0.183,1.373,73.333,212934.000,1.000
-2.476,7.167,-9.353,32.432,-46.043,-26.269,-38.069,-45.757,0.011,0.974,-0.176,-0.122,0.244,1.465,73.333,212935.000,1.000
-1.529,7.209,-8.415,34.458,-43.732,-24.869,-37.346,-43.379,0.011,0.971,-0.177,-0.122,0.366,1.617,73.333,212936.000,1.000
-0.201,8.095,-7.158,36.714,-40.871,-22.504,-35.620,-40.335,0.011,0.973,-0.180,-0.153,0.427,1.740,73.333,212937.000,1.000
1.589,9.878,-5.628,39.092,-37.727,-19.369,-33.040,-36.908,0.011,0.971,-0.178,-0.092,0.458,1.923,73.333,212938.000,1.000
3.360,11.945,-4.260,41.140,-35.019,-16.135,-30.298,-33.765,0.009,0.972,-0.179,0.031,0.458,1.862,73.333,212939.000,1.000
4.399,13.467,-3.571,42.295,-33.459,-13.556,-28.250,-31.531,0.005,0.972,-0.178,0.061,0.458,1.801,73.333,212940.000,1.000
4.402,13.944,-3.732,42.300,-33.330,-12.140,-27.511,-30.456,0.002,0.972,-0.174,0.000,0.336,1.678,73.333,212941.000,1.000
3.664,13.450,-4.465,41.358,-34.394,-11.927,-28.059,-30.357,0.000,0.970,-0.174,-0.031,0.275,1.617,73.333,212942.000,1.000
2.860,12.521,-5.189,40.071,-35.889,-12.352,-29.157,-30.632,-0.001,0.969,-0.175,-0.153,0.183,1.434,73.333,212943.000,1.000
2.762,11.987,-5.216,39.263,-36.696,-12.420,-29.592,-30.323,0.001,0.967,-0.176,0.000,-0.092,1.129,73.333,212944.000,1.000
3.876,12.438,-4.137,39.495,-36.025,-11.531,-28.640,-28.863,0.002,0.967,-0.177,0.061,-0.244,1.068,73.333,212945.000,1.000
6.171,13.865,-2.099,40.659,-33.939,-9.897,-26.863,-26.836,0.005,0.967,-0.177,0.153,-0.275,1.068,73.333,212946.000,1.000
9.101,15.885,0.280,42.080,-31.102,-7.990,-25.377,-25.444,0.004,0.968,-0.178,0.153,-0.275,0.946,73.333,212947.000,1.000
11.967,18.101,2.394,43.082,-28.042,-5.905,-24.629,-25.161,0.005,0.970,-0.177,0.244,-0.397,0.824,73.333,212948.000,1.000
14.341,20.393,4.116,43.484,-24.776,-3.335,-23.921,-25.211,0.006,0.970,-0.177,0.244,-0.458,0.854,73.333,212949.000,1.000
16.076,22.699,5.659,43.545,-21.156,-0.102,-22.189,-24.453,0.006,0.971,-0.175,0.305,-0.549,0.702,73.333,212950.000,1.000
17.098,24.707,7.169,43.619,-17.289,3.470,-19.302,-22.431,0.004,0.973,-0.177,0.153,-0.641,0.885,73.333,212951.000,1.000
17.408,26.050,8.665,43.960,-13.525,6.729,-16.280,-19.516,0.007,0.973,-0.177,0.092,-0.641,0.946,73.333,212952.000,1.000
17.350,26.662,10.306,44.792,-10.091,9.093,-14.247,-16.241,0.007,0.973,-0.176,0.031,-0.732,0.946,73.333,212953.000,1.000
17.656,26.918,12.410,46.301,-6.992,10.369,-13.409,-12.818,0.006,0.974,-0.176,-0.031,-0.763,0.977,73.333,212954.000,1.000
18.927,27.212,15.027,48.368,-4.268,10.730,-13.281,-9.450,0.005,0.974,-0.176,-0.031,-0.854,1.007,73.333,212955.000,1.000
21.113,27.542,17.718,50.459,-2.109,10.517,-13.417,-6.658,0.004,0.976,-0.175,0.000,-0.824,1.038,73.333,212956.000,1.000
23.500,27.556,19.751,51.879,-0.752,9.972,-13.602,-5.056,0.003,0.977,-0.173,-0.122,-0.946,1.190,73.333,212957.000,1.000
25.271,26.903,20.589,52.195,-0.263,9.142,-13.844,-4.856,0.003,0.974,-0.175,-0.214,-1.038,1.129,73.333,212958.000,1.000
26.164,25.756,20.364,51.550,-0.334,8.322,-14.104,-5.578,0.004,0.973,-0.175,-0.214,-1.007,1.251,73.333,212959.000,1.000
26.546,24.803,19.832,50.563,-0.371,8.318,-14.017,-6.290,0.005,0.974,-0.176,-0.305,-1.099,1.343,73.333,212960.000,1.000
26.993,24.745,19.878,49.937,0.188,9.847,-13.079,-6.120,0.004,0.972,-0.176,-0.305,-1.221,1.343,73.333,212961.000,1.000
27.747,25.776,20.898,50.011,1.428,12.761,-11.085,-4.766,0.005,0.972,-0.176,-0.275,-1.282,1.373,73.333,212962.000,1.000
28.578,27.383,22.599,50.611,2.871,16.047,-8.523,-2.680,0.006,0.972,-0.176,-0.244,-1.373,1.343,73.333,212963.000,1.000
29.064,28.738,24.340,51.247,3.794,18.356,-6.415,-0.720,0.007,0.971,-0.175,-0.244,-1.495,1.282,73.333,212964.000,1.000
29.007,29.202,25.671,51.517,3.747,18.514,-5.647,0.472,0.005,0.970,-0.175,-0.244,-1.648,1.221,73.333,212965.000,1.000
28.821,28.827,26.800,51.580,3.099,16.344,-6.207,0.963,0.006,0.968,-0.173,-0.092,-1.587,1.282,73.333,212966.000,1.000
29.368,28.392,28.430,52.106,2.930,13.120,-7.162,1.339,0.005,0.969,-0.173,-0.061,-1.648,1.312,73.333,212967.000,1.000
31.237,28.683,31.028,53.607,4.198,10.733,-7.533,2.187,0.007,0.968,-0.176,-0.061,-1.678,1.343,73.333,212968.000,1.000
34.313,29.954,34.378,55.929,7.081,10.463,-6.858,3.846,0.008,0.968,-0.175,0.031,-1.648,1.190,73.333,212969.000,1.000
37.983,31.940,37.818,58.406,11.011,12.448,-5.220,6.278,0.006,0.968,-0.176,0.092,-1.648,1.160,73.333,212970.000,1.000
41.631,34.280,40.854,60.396,15.183,15.986,-3.012,9.149,0.008,0.970,-0.176,0.153,-1.770,1.068,73.333,212971.000,1.000
44.859,36.774,43.386,61.579,18.883,20.005,-0.692,11.963,0.008,0.969,-0.177,0.305,-1.770,1.007,73.333,212972.000,1.000
47.555,39.250,45.562,61.978,21.655,23.495,1.209,14.088,0.010,0.967,-0.174,0.397,-1.770,1.038,73.333,212973.000,1.000
50.020,41.653,47.712,62.028,23.573,26.080,2.478,15.120,0.010,0.967,-0.174,0.458,-1.709,1.068,73.333,212974.000,1.000
52.814,44.130,50.274,62.444,25.235,28.063,3.464,15.276,0.010,0.967,-0.176,0.580,-1.770,1.099,73.333,212975.000,1.000
56.277,46.758,53.465,63.731,27.212,29.814,4.649,15.276,0.010,0.968,-0.176,0.702,-1.648,1.038,73.333,212976.000,1.000
60.092,49.101,56.782,65.616,29.313,31.193,6.094,15.696,0.010,0.969,-0.173,0.763,-1.617,0.946,73.333,212977.000,1.000
63.481,50.270,59.114,67.187,30.681,31.613,7.275,16.540,0.007,0.969,-0.172,0.854,-1.556,0.854,73.333,212978.000,1.000
65.900,49.783,59.703,67.771,30.756,30.797,7.696,17.566,0.007,0.970,-0.177,0.916,-1.556,0.885,73.333,212979.000,1.000
67.252,47.921,58.665,67.433,29.736,29.056,7.357,18.644,0.007,0.970,-0.176,0.946,-1.617,0.916,73.333,212980.000,1.000
67.668,45.319,56.683,66.711,28.220,26.898,6.505,19.738,0.007,0.969,-0.172,0.885,-1.465,0.763,73.333,212981.000,1.000
67.392,42.573,54.493,66.105,26.678,24.634,5.269,20.587,0.006,0.970,-0.172,0.916,-1.465,0.824,73.333,212982.000,1.000
66.799,40.118,52.644,65.812,25.339,22.328,3.518,20.651,0.007,0.972,-0.174,0.946,-1.526,0.732,73.333,212983.000,1.000
66.237,38.368,51.489,65.808,24.398,20.153,1.310,19.688,0.006,0.973,-0.176,0.977,-1.526,0.702,73.333,212984.000,1.000
65.774,37.601,51.102,65.946,24.100,18.575,-0.741,18.149,0.008,0.974,-0.174,0.977,-1.495,0.793,73.333,212985.000,1.000
65.342,37.794,51.298,66.068,24.624,18.112,-1.697,17.017,0.006,0.974,-0.175,0.916,-1.495,0.793,73.333,212986.000,1.000
64.995,38.681,51.783,66.117,25.908,19.014,-0.748,17.322,0.009,0.973,-0.174,0.946,-1.587,0.793,73.333,212987.000,1.000
64.839,39.775,52.251,66.117,27.567,21.078,2.197,19.480,0.008,0.974,-0.178,0.824,-1.526,0.885,73.333,212988.000,1.000
64.757,40.475,52.360,65.957,28.900,23.594,6.133,22.722,0.009,0.974,-0.175,0.793,-1.465,0.916,73.333,212989.000,1.000
64.315,40.145,51.663,65.229,29.014,25.347,9.136,25.248,0.008,0.976,-0.177,0.702,-1.465,0.854,73.333,212990.000,1.000
63.135,38.496,49.915,63.593,27.456,25.303,9.681,25.679,0.009,0.977,-0.177,0.732,-1.373,0.885,73.333,212991.000,1.000
61.262,35.989,47.434,61.260,24.755,23.500,8.035,24.343,0.007,0.976,-0.179,0.641,-1.221,0.916,73.333,212992.000,1.000
59.041,33.496,44.898,58.877,22.011,20.907,5.581,22.651,0.008,0.975,-0.175,0.427,-1.221,0.916,73.333,212993.000,1.000
56.819,31.727,42.889,57.003,20.039,18.595,3.423,21.618,0.009,0.977,-0.176,0.366,-1.221,1.068,73.333,212994.000,1.000
54.824,30.897,41.648,55.768,19.021,17.196,2.056,21.291,0.008,0.976,-0.176,0.366,-1.099,1.160,73.333,212995.000,1.000
53.233,30.841,41.197,55.028,18.840,16.873,1.682,21.321,0.008,0.975,-0.175,0.153,-1.038,1.221,73.333,212996.000,1.000
52.035,31.200,41.419,54.600,19.344,17.367,2.342,21.590,0.008,0.975,-0.175,0.183,-1.007,1.251,73.333,212997.000,1.000
50.898,31.449,41.988,54.302,20.313,18.026,3.668,22.139,0.009,0.973,-0.177,0.183,-0.793,1.129,73.333,212998.000,1.000
49.484,31.196,42.517,53.994,21.486,18.213,5.083,22.983,0.009,0.972,-0.174,0.183,-0.854,1.190,73.333,212999.000,1.000
47.833,30.404,42.793,53.650,22.672,17.786,6.333,24.163,0.009,0.973,-0.173,0.153,-0.793,1.251,73.333,213000.000,1.000
46.253,29.358,42.873,53.326,23.799,17.176,7.552,25.731,0.009,0.973,-0.174,0.214,-0.763,1.282,73.333,213001.000,1.000
44.898,28.561,42.988,53.079,24.923,17.119,9.007,27.540,0.007,0.974,-0.176,0.031,-0.610,1.251,73.333,213002.000,1.000
43.669,28.428,43.333,52.918,26.182,18.148,10.759,29.207,0.008,0.970,-0.176,0.061,-0.671,1.282,73.333,213003.000,1.000
42.391,28.936,43.787,52.695,27.550,20.027,12.508,30.366,0.006,0.971,-0.176,0.092,-0.610,1.343,73.333,213004.000,1.000
40.924,29.500,43.844,52.080,28.689,21.898,13.726,30.837,0.009,0.969,-0.174,0.122,-0.610,1.282,73.333,213005.000,1.000
39.333,29.480,43.107,50.889,29.323,23.286,14.171,30.788,0.009,0.971,-0.178,0.244,-0.580,1.221,73.333,213006.000,1.000
37.900,28.672,41.721,49.324,29.480,24.404,14.110,30.655,0.008,0.970,-0.177,0.336,-0.519,1.221,73.333,213007.000,1.000
36.827,27.202,40.190,47.813,29.323,25.516,13.911,30.816,0.006,0.971,-0.177,0.244,-0.519,1.221,73.333,213008.000,1.000
36.000,25.439,38.957,46.712,28.958,26.698,13.977,31.470,0.009,0.972,-0.176,0.366,-0.488,1.160,73.333,213009.000,1.000
35.107,23.838,38.175,46.138,28.389,27.901,14.712,32.635,0.008,0.972,-0.175,0.366,-0.366,1.282,73.333,213010.000,1.000
34.070,22.767,37.838,46.008,27.642,28.947,16.181,34.206,0.012,0.972,-0.175,0.397,-0.397,1.251,73.333,213011.000,1.000
33.190,22.394,37.877,46.093,26.767,29.634,18.037,35.905,0.012,0.972,-0.175,0.458,-0.397,1.343,73.333,213012.000,1.000
32.831,22.551,38.094,46.036,25.741,29.770,19.549,37.130,0.010,0.971,-0.176,0.458,-0.366,1.434,73.333,213013.000,1.000
33.070,22.820,38.134,45.472,24.399,29.095,19.878,37.197,0.008,0.972,-0.176,0.488,-0.305,1.465,73.333,213014.000,1.000
33.599,22.654,37.588,44.178,22.549,27.276,18.548,35.881,0.010,0.971,-0.176,0.458,-0.305,1.465,73.333,213015.000,1.000
34.005,21.647,36.334,42.261,20.264,24.236,15.791,33.643,0.010,0.970,-0.175,0.397,-0.275,1.434,73.333,213016.000,1.000
34.120,19.843,34.708,40.139,17.937,20.421,12.476,31.318,0.010,0.969,-0.176,0.458,-0.214,1.495,73.333,213017.000,1.000
34.260,17.807,33.446,38.414,16.170,16.721,9.522,29.735,0.011,0.970,-0.176,0.519,-0.214,1.495,73.333,213018.000,1.000
35.104,16.452,33.434,37.724,15.618,14.260,7.562,29.463,0.009,0.970,-0.174,0.458,-0.275,1.465,73.333,213019.000,1.000
37.052,16.374,35.098,38.318,16.547,13.760,6.746,30.378,0.010,0.970,-0.177,0.519,-0.214,1.495,73.333,213020.000,1.000
39.745,17.391,37.991,39.769,18.497,14.902,6.588,31.631,0.008,0.969,-0.173,0.458,-0.244,1.587,73.333,213021.000,1.000
42.308,18.841,41.092,41.256,20.537,16.527,6.408,32.314,0.007,0.970,-0.171,0.458,-0.244,1.556,73.333,213022.000,1.000
44.068,20.109,43.538,42.155,21.977,17.537,6.012,32.183,0.005,0.969,-0.175,0.427,-0.275,1.495,73.333,213023.000,1.000
44.968,20.926,45.048,42.365,22.807,17.595,5.906,31.778,0.009,0.971,-0.175,0.397,-0.275,1.495,73.333,213024.000,1.000
45.272,21.192,45.711,42.119,23.450,16.905,6.566,31.817,0.007,0.970,-0.175,0.427,-0.336,1.434,73.333,213025.000,1.000
45.143,20.804,45.677,41.670,24.296,15.732,7.625,32.507,0.009,0.969,-0.176,0.488,-0.458,1.434,73.333,213026.000,1.000
44.566,19.755,45.049,41.137,25.432,14.366,8.194,33.370,0.009,0.970,-0.173,0.549,-0.458,1.465,73.333,213027.000,1.000
43.571,18.211,43.962,40.558,26.679,13.282,7.759,33.676,0.011,0.971,-0.174,0.549,-0.488,1.434,73.333,213028.000,1.000
42.405,16.573,42.704,40.004,27.747,12.978,6.650,33.099,0.011,0.969,-0.173,0.549,-0.336,1.434,73.333,213029.000,1.000
41.434,15.294,41.662,39.613,28.397,13.541,5.571,31.947,0.011,0.970,-0.176,0.488,-0.305,1.465,73.333,213030.000,1.000
40.995,14.701,41.226,39.605,28.694,14.716,5.084,31.073,0.011,0.972,-0.175,0.610,-0.397,1.465,73.333,213031.000,1.000
41.247,14.951,41.640,40.144,28.993,16.288,5.584,31.445,0.011,0.974,-0.174,0.610,-0.488,1.526,73.333,213032.000,1.000
42.020,15.955,42.831,41.115,29.634,18.120,7.173,33.435,0.008,0.974,-0.173,0.580,-0.549,1.373,73.333,213033.000,1.000
42.829,17.427,44.394,42.109,30.703,20.062,9.701,36.613,0.008,0.974,-0.172,0.488,-0.519,1.373,73.333,213034.000,1.000
43.129,18.868,45.723,42.685,32.004,21.881,12.864,40.140,0.008,0.974,-0.176,0.458,-0.519,1.465,73.333,213035.000,1.000
42.705,19.787,46.384,42.704,33.257,23.360,16.052,43.209,0.009,0.974,-0.174,0.488,-0.641,1.465,73.333,213036.000,1.000
41.733,20.138,46.405,42.404,34.359,24.603,18.564,45.400,0.008,0.971,-0.173,0.458,-0.641,1.404,73.333,213037.000,1.000
40.546,20.344,46.249,42.228,35.510,26.050,20.081,46.914,0.010,0.973,-0.173,0.366,-0.641,1.282,73.333,213038.000,1.000
39.382,20.892,46.433,42.469,36.950,28.009,20.710,48.211,0.010,0.972,-0.176,0.427,-0.671,1.312,73.333,213039.000,1.000
38.262,21.719,47.002,42.943,38.526,30.124,20.409,49.249,0.010,0.972,-0.176,0.275,-0.702,1.404,73.333,213040.000,1.000
37.150,22.231,47.534,43.146,39.776,31.626,19.019,49.563,0.009,0.971,-0.175,0.275,-0.702,1.373,73.333,213041.000,1.000
36.130,21.918,47.642,42.780,40.401,32.050,17.036,49.070,0.010,0.973,-0.176,0.275,-0.671,1.312,73.333,213042.000,1.000
35.452,20.730,47.395,42.055,40.564,31.520,15.517,48.361,0.012,0.971,-0.174,0.336,-0.763,1.282,73.333,213043.000,1.000
35.461,19.085,47.244,41.489,40.681,30.482,15.251,48.179,0.012,0.973,-0.177,0.244,-0.763,1.343,73.333,213044.000,1.000
36.365,17.510,47.533,41.440,40.945,29.232,16.095,48.695,0.010,0.972,-0.174,0.305,-0.763,1.434,73.333,213045.000,1.000
38.095,16.408,48.249,41.907,41.199,27.902,17.125,49.416,0.008,0.972,-0.172,0.488,-0.793,1.282,73.333,213046.000,1.000
40.260,15.941,49.040,42.569,41.183,26.788,17.573,49.682,0.009,0.973,-0.172,0.427,-0.854,1.312,73.333,213047.000,1.000
42.189,15.792,49.334,42.905,40.763,26.231,17.327,49.200,0.009,0.972,-0.174,0.458,-0.977,1.343,73.333,213048.000,1.000
43.153,15.326,48.618,42.455,39.940,26.209,16.720,48.280,0.010,0.969,-0.175,0.366,-1.038,1.343,73.333,213049.000,1.000
42.681,14.003,46.720,41.084,38.703,26.153,15.974,47.494,0.011,0.969,-0.175,0.458,-0.946,1.373,73.333,213050.000,1.000
40.859,11.696,43.947,39.040,37.028,25.300,14.907,47.173,0.010,0.970,-0.178,0.519,-0.946,1.312,73.333,213051.000,1.000
38.290,8.688,40.865,36.692,34.935,23.215,13.269,47.170,0.009,0.970,-0.179,0.641,-1.038,1.312,73.333,213052.000,1.000
35.697,5.430,37.944,34.254,32.571,20.057,11.070,47.039,0.009,0.970,-0.176,0.793,-0.977,1.251,73.333,213053.000,1.000
33.534,2.513,35.475,31.800,30.303,16.708,8.879,46.505,0.010,0.970,-0.177,0.854,-1.038,1.251,73.333,213054.000,1.000
31.995,0.576,33.712,29.439,28.704,14.536,7.780,45.710,0.008,0.971,-0.171,0.854,-1.129,1.282,73.333,213055.000,1.000
31.331,0.135,33.042,27.493,28.383,14.640,8.708,45.043,0.010,0.973,-0.174,0.824,-1.007,1.343,73.333,213056.000,1.000
31.899,1.378,33.890,26.448,29.632,16.981,11.666,44.774,0.010,0.971,-0.178,0.763,-1.099,1.373,73.333,213057.000,1.000
33.927,3.974,36.443,26.743,32.302,20.359,15.523,44.964,0.010,0.971,-0.174,0.793,-1.221,1.343,73.333,213058.000,1.000
37.271,7.352,40.512,28.553,36.054,23.561,18.996,45.737,0.010,0.971,-0.176,0.916,-1.221,1.221,73.333,213059.000,1.000
41.279,10.953,45.474,31.631,40.574,26.293,21.787,47.415,0.012,0.971,-0.174,0.977,-1.221,1.221,73.333,213060.000,1.000
44.942,14.222,50.412,35.335,45.558,28.824,24.574,50.351,0.011,0.969,-0.176,0.946,-1.251,1.221,73.333,213061.000,1.000
47.322,16.586,54.387,38.792,50.414,31.099,27.863,54.365,0.009,0.970,-0.175,0.916,-1.251,1.251,73.333,213062.000,1.000
48.076,17.608,56.820,41.196,54.249,32.625,30.978,58.303,0.008,0.970,-0.173,0.916,-1.190,1.343,73.333,213063.000,1.000
47.607,17.360,57.761,42.144,56.388,33.182,32.756,60.663,0.009,0.972,-0.178,1.007,-1.282,1.251,73.333,213064.000,1.000
46.643,16.298,57.674,41.735,56.794,33.046,32.804,60.730,0.009,0.973,-0.174,0.916,-1.312,1.343,73.333,213065.000,1.000
45.830,14.925,57.094,40.394,55.955,32.623,31.528,58.936,0.010,0.970,-0.175,1.007,-1.404,1.343,73.333,213066.000,1.000
45.556,13.658,56.365,38.567,54.444,32.119,29.325,56.251,0.011,0.970,-0.175,1.007,-1.190,1.373,73.333,213067.000,1.000
45.840,12.682,55.526,36.538,52.653,31.465,26.190,53.554,0.013,0.968,-0.179,1.007,-1.190,1.526,73.333,213068.000,1.000
46.338,12.013,54.450,34.480,50.861,30.676,22.442,51.542,0.014,0.967,-0.180,1.129,-1.221,1.465,73.333,213069.000,1.000
46.567,11.658,53.094,32.555,49.332,30.137,19.058,50.541,0.015,0.967,-0.177,1.221,-1.068,1.678,73.333,213070.000,1.000
46.310,11.796,51.703,30.976,48.364,30.485,17.016,50.359,0.015,0.969,-0.180,1.373,-1.099,1.587,73.333,213071.000,1.000
45.812,12.757,50.771,30.030,48.307,32.296,16.984,50.749,0.014,0.970,-0.177,1.465,-1.038,1.556,73.333,213072.000,1.000
45.611,14.601,50.717,29.918,49.387,35.630,19.165,51.778,0.012,0.972,-0.175,1.343,-0.977,1.617,73.333,213073.000,1.000
46.072,16.852,51.456,30.444,51.270,39.609,22.903,53.373,0.011,0.973,-0.174,1.373,-0.946,1.617,73.333,213074.000,1.000
47.014,18.675,52.381,30.981,53.013,42.714,26.738,54.916,0.010,0.973,-0.175,1.373,-0.885,1.526,73.333,213075.000,1.000
47.924,19.496,52.938,30.996,53.839,43.956,29.369,55.801,0.010,0.970,-0.176,1.282,-0.946,1.434,73.333,213076.000,1.000
48.356,19.377,52.950,30.411,53.661,43.499,30.495,55.934,0.009,0.969,-0.177,1.221,-0.977,1.312,73.333,213077.000,1.000
48.197,18.746,52.499,29.507,52.920,42.108,30.488,55.621,0.009,0.967,-0.175,1.312,-0.946,1.190,73.333,213078.000,1.000
47.732,18.092,51.853,28.721,52.216,40.508,29.887,55.409,0.009,0.967,-0.177,1.373,-0.916,1.160,73.333,213079.000,1.000
47.376,17.707,51.382,28.405,51.998,39.171,29.096,55.718,0.009,0.968,-0.179,1.404,-0.946,1.007,73.333,213080.000,1.000
47.327,17.600,51.364,28.601,52.382,38.289,28.231,56.415,0.011,0.968,-0.180,1.465,-0.977,0.977,73.333,213081.000,1.000
47.321,17.474,51.649,28.880,52.986,37.553,27.152,56.821,0.011,0.971,-0.179,1.526,-0.946,0.916,73.333,213082.000,1.000
46.778,16.756,51.654,28.537,53.079,36.205,25.547,56.245,0.012,0.971,-0.177,1.404,-0.824,0.763,73.333,213083.000,1.000
45.382,15.158,50.976,27.207,52.216,33.842,23.403,54.642,0.014,0.971,-0.178,1.343,-0.824,0.763,73.333,213084.000,1.000
43.475,13.092,49.844,25.234,50.653,31.022,21.311,52.775,0.014,0.967,-0.181,1.312,-0.824,0.885,73.333,213085.000,1.000
41.852,11.472,48.931,23.426,49.147,28.873,20.126,51.822,0.015,0.963,-0.183,1.343,-0.702,0.977,73.333,213086.000,1.000
41.093,11.051,48.727,22.387,48.358,28.183,20.471,52.575,0.014,0.961,-0.183,1.373,-0.641,1.068,73.333,213087.000,1.000
41.197,11.885,49.232,22.147,48.482,28.905,22.301,54.722,0.012,0.961,-0.183,1.617,-0.641,1.007,73.333,213088.000,1.000
41.841,13.531,50.193,22.370,49.319,30.435,24.996,57.026,0.011,0.963,-0.184,1.617,-0.610,0.946,73.333,213089.000,1.000
42.529,15.306,51.239,22.595,50.387,32.007,27.571,58.173,0.009,0.967,-0.184,1.770,-0.580,0.977,73.333,213090.000,1.000
42.555,16.365,51.771,22.332,51.095,32.997,29.036,57.556,0.009,0.972,-0.182,1.740,-0.580,1.007,73.333,213091.000,1.000
41.257,15.970,51.090,21.236,50.996,33.142,29.148,55.578,0.009,0.976,-0.181,1.648,-0.671,1.007,73.333,213092.000,1.000
38.615,13.851,48.855,19.335,49.969,32.339,28.238,53.214,0.011,0.978,-0.180,1.587,-0.702,1.160,73.333,213093.000,1.000
35.497,10.488,45.458,17.022,48.154,30.420,26.302,51.172,0.011,0.979,-0.183,1.404,-0.671,1.190,73.333,213094.000,1.000
33.260,6.944,41.926,14.822,45.905,27.485,23.099,49.543,0.010,0.976,-0.184,1.190,-0.702,1.343,73.333,213095.000,1.000
33.161,4.453,39.546,13.259,43.874,24.362,19.147,48.285,0.009,0.974,-0.185,1.038,-0.763,1.282,73.333,213096.000,1.000
35.703,3.879,39.200,12.647,42.719,22.153,15.818,47.515,0.007,0.974,-0.183,0.916,-0.793,1.373,73.333,213097.000,1.000
40.220,5.208,40.845,12.890,42.654,21.424,14.210,47.229,0.005,0.975,-0.182,0.977,-0.885,1.282,73.333,213098.000,1.000
45.228,7.755,43.654,13.606,43.424,22.189,14.539,47.192,0.002,0.976,-0.181,0.854,-0.916,1.099,73.333,213099.000,1.000
49.193,10.581,46.515,14.380,44.549,24.036,16.244,47.118,0.000,0.980,-0.180,0.610,-1.068,1.007,73.333,213100.000,1.000
51.190,12.857,48.567,14.984,45.658,26.266,18.482,47.022,0.000,0.982,-0.180,0.458,-1.221,0.732,73.333,213101.000,1.000
51.119,14.247,49.517,15.457,46.675,28.308,20.705,47.276,0.001,0.982,-0.177,0.153,-1.373,0.671,73.333,213102.000,1.000
49.504,14.856,49.519,15.963,47.639,29.979,22.671,48.159,0.004,0.981,-0.182,-0.031,-1.526,0.580,73.333,213103.000,1.000
47.158,14.974,48.842,16.524,48.394,31.347,24.242,49.458,0.005,0.981,-0.183,-0.214,-1.617,0.519,73.333,213104.000,1.000
44.867,14.804,47.660,16.869,48.547,32.342,25.141,50.474,0.007,0.979,-0.183,-0.336,-1.740,0.488,73.333,213105.000,1.000
43.184,14.430,46.163,16.674,47.850,32.727,25.046,50.606,0.009,0.979,-0.179,-0.580,-1.740,0.580,73.333,213106.000,1.000
42.307,13.941,44.683,15.894,46.497,32.477,24.201,49.899,0.010,0.976,-0.177,-0.610,-1.831,0.580,73.333,213107.000,1.000
42.097,13.389,43.592,14.778,45.001,31.841,23.459,48.844,0.009,0.974,-0.177,-0.671,-1.923,0.671,73.333,213108.000,1.000
42.286,12.812,43.116,13.657,43.859,31.101,23.693,47.900,0.008,0.972,-0.178,-0.641,-1.801,0.732,73.333,213109.000,1.000
42.695,12.243,43.247,12.809,43.335,30.421,25.186,47.255,0.008,0.970,-0.178,-0.763,-1.892,0.885,73.333,213110.000,1.000
43.338,11.711,43.844,12.460,43.442,29.840,27.453,46.804,0.009,0.971,-0.179,-0.793,-1.984,0.977,73.333,213111.000,1.000
44.225,11.231,44.633,12.684,43.943,29.314,29.575,46.251,0.005,0.969,-0.177,-0.732,-1.862,0.977,73.333,213112.000,1.000
45.107,10.800,45.259,13.341,44.561,28.946,30.587,45.456,0.005,0.968,-0.176,-0.702,-1.923,0.916,73.333,213113.000,1.000
45.550,10.607,45.553,14.204,45.311,29.310,30.323,44.845,0.006,0.968,-0.174,-0.671,-2.106,1.129,73.333,213114.000,1.000
45.252,10.892,45.599,15.061,46.460,31.082,29.754,45.087,0.005,0.968,-0.173,-0.580,-2.228,1.160,73.333,213115.000,1.000
44.257,11.624,45.550,15.707,48.044,34.076,29.768,46.280,0.006,0.967,-0.173,-0.488,-2.136,1.190,73.333,213116.000,1.000
42.797,12.432,45.424,15.894,49.544,36.970,30.096,47.727,0.007,0.969,-0.174,-0.458,-2.136,1.190,73.333,213117.000,1.000
41.058,12.794,45.127,15.428,50.285,38.402,29.968,48.722,0.008,0.966,-0.172,-0.366,-1.984,1.251,73.333,213118.000,1.000
39.170,12.415,44.604,14.314,49.995,38.170,29.318,49.264,0.010,0.964,-0.170,-0.336,-2.045,1.251,73.333,213119.000,1.000
37.344,11.360,43.901,12.773,48.845,36.987,28.513,49.715,0.009,0.965,-0.172,-0.244,-1.984,1.221,73.333,213120.000,1.000
36.038,10.032,43.300,11.247,47.319,35.690,27.596,50.236,0.010,0.964,-0.171,-0.061,-1.953,1.251,73.333,213121.000,1.000
35.795,9.010,43.261,10.310,46.071,34.927,26.588,50.856,0.009,0.965,-0.173,0.031,-1.923,1.312,73.333,213122.000,1.000
36.929,8.765,44.199,10.461,45.729,35.037,25.895,51.738,0.010,0.963,-0.175,0.305,-1.984,1.312,73.333,213123.000,1.000
39.355,9.595,46.264,11.876,46.666,35.918,26.058,53.074,0.008,0.966,-0.172,0.244,-1.831,1.190,73.333,213124.000,1.000
42.471,11.423,49.106,14.165,48.743,37.021,27.081,54.632,0.010,0.966,-0.173,0.397,-1.862,1.190,73.333,213125.000,1.000
45.305,13.680,51.931,16.463,51.296,37.677,28.255,55.783,0.012,0.965,-0.173,0.549,-1.740,1.221,73.333,213126.000,1.000
46.917,15.495,53.834,17.823,53.357,37.407,28.733,55.902,0.015,0.967,-0.172,0.671,-1.648,1.373,73.333,213127.000,1.000
46.927,16.109,54.278,17.740,54.150,36.044,28.106,54.724,0.013,0.965,-0.173,0.824,-1.556,1.282,73.333,213128.000,1.000
45.756,15.386,53.389,16.470,53.545,33.756,26.648,52.532,0.013,0.966,-0.176,0.977,-1.312,1.343,73.333,213129.000,1.000
44.220,13.704,51.737,14.760,51.938,30.784,24.875,49.939,0.014,0.966,-0.178,1.068,-1.221,1.312,73.333,213130.000,1.000
43.072,11.644,50.067,13.394,49.950,27.518,23.127,47.578,0.014,0.966,-0.178,1.129,-1.099,1.221,73.333,213131.000,1.000
42.829,9.858,49.117,12.872,48.209,24.786,21.675,45.896,0.013,0.966,-0.177,1.129,-0.946,1.221,73.333,213132.000,1.000
43.717,8.809,49.385,13.270,47.160,23.478,20.663,45.071,0.013,0.967,-0.177,1.221,-1.007,1.160,73.333,213133.000,1.000
45.597,8.566,50.929,14.352,46.951,23.772,20.186,45.212,0.013,0.967,-0.178,1.312,-0.793,1.160,73.333,213134.000,1.000
47.971,8.724,53.226,15.691,47.356,24.897,20.371,46.307,0.014,0.968,-0.176,1.404,-0.671,1.007,73.333,213135.000,1.000
50.263,8.682,55.380,16.765,47.870,25.779,21.036,47.735,0.014,0.968,-0.177,1.495,-0.549,1.160,73.333,213136.000,1.000
52.119,8.121,56.627,17.171,47.970,25.748,21.507,48.299,0.013,0.969,-0.176,1.495,-0.549,1.099,73.333,213137.000,1.000
53.442,7.124,56.761,16.910,47.520,24.703,21.074,47.254,0.013,0.971,-0.176,1.495,-0.397,1.160,73.333,213138.000,1.000
54.236,6.122,56.193,16.428,46.973,23.153,19.838,45.147,0.011,0.972,-0.178,1.587,-0.336,1.129,73.333,213139.000,1.000
54.512,5.630,55.646,16.304,47.042,22.007,18.621,43.327,0.011,0.974,-0.177,1.556,-0.183,1.099,73.333,213140.000,1.000
54.297,5.907,55.676,16.854,48.075,21.936,17.970,42.788,0.011,0.976,-0.179,1.526,-0.031,1.099,73.333,213141.000,1.000
53.456,6.546,56.026,17.661,49.447,22.615,17.614,43.285,0.011,0.977,-0.180,1.526,-0.122,1.099,73.333,213142.000,1.000
51.656,6.496,55.656,17.699,49.813,22.816,16.796,43.501,0.009,0.977,-0.177,1.465,-0.092,1.038,73.333,213143.000,1.000
48.814,5.031,53.810,16.288,48.310,21.649,15.232,42.326,0.008,0.978,-0.176,1.373,0.000,1.129,73.333,213144.000,1.000
45.319,2.317,50.664,13.638,45.202,19.279,13.357,39.649,0.005,0.978,-0.174,1.190,-0.122,1.160,73.333,213145.000,1.000
41.795,-0.862,47.044,10.519,41.532,16.571,11.829,36.178,0.007,0.974,-0.177,1.007,-0.183,1.007,73.333,213146.000,1.000
38.835,-3.491,43.982,7.816,38.580,14.606,11.311,33.024,0.008,0.972,-0.178,0.854,-0.092,0.977,73.333,213147.000,1.000
36.827,-4.791,42.291,6.189,37.365,14.254,12.081,31.162,0.007,0.968,-0.176,0.885,-0.183,0.946,73.333,213148.000,1.000
35.707,-4.695,42.016,5.652,38.021,15.631,13.635,30.813,0.010,0.967,-0.180,0.977,-0.336,0.946,73.333,213149.000,1.000
34.867,-4.033,42.247,5.491,39.596,17.857,14.935,31.357,0.011,0.970,-0.186,1.038,-0.336,1.038,73.333,213150.000,1.000
33.591,-3.942,41.834,4.917,40.814,19.766,15.338,32.119,0.010,0.973,-0.183,1.190,-0.275,1.068,73.333,213151.000,1.000
31.526,-4.997,40.268,3.675,40.978,20.861,15.223,32.999,0.009,0.977,-0.180,1.129,-0.275,1.099,73.333,213152.000,1.000
28.748,-7.083,37.834,1.942,40.113,21.261,15.247,33.996,0.011,0.979,-0.181,1.038,-0.153,1.190,73.333,213153.000,1.000
25.578,-9.742,35.171,-0.082,38.516,21.062,15.409,34.530,0.012,0.977,-0.181,0.977,-0.153,1.312,73.333,213154.000,1.000
22.457,-12.481,32.800,-2.236,36.519,20.184,15.171,33.814,0.014,0.973,-0.184,0.824,-0.214,1.343,73.333,213155.000,1.000
19.922,-14.731,31.055,-4.181,34.668,18.850,14.312,31.929,0.015,0.971,-0.183,0.885,-0.122,1.495,73.333,213156.000,1.000
18.445,-15.828,30.169,-5.492,33.648,17.726,13.409,29.987,0.011,0.971,-0.181,0.946,-0.153,1.556,73.333,213157.000,1.000
18.269,-15.385,30.288,-5.912,33.861,17.385,13.279,29.175,0.008,0.972,-0.181,0.946,-0.031,1.587,73.333,213158.000,1.000
19.292,-13.592,31.323,-5.526,35.078,17.771,14.077,29.842,0.002,0.974,-0.177,0.977,-0.214,1.556,73.333,213159.000,1.000
20.986,-11.277,32.805,-4.742,36.500,18.140,14.839,31.264,0.000,0.972,-0.178,0.885,-0.336,1.373,73.333,213160.000,1.000
22.749,-9.332,34.277,-3.952,37.452,17.839,14.290,32.355,0.002,0.972,-0.179,0.854,-0.488,1.190,73.333,213161.000,1.000
24.417,-7.918,35.793,-3.167,38.044,17.241,12.374,32.685,0.001,0.969,-0.179,0.793,-0.702,1.068,73.333,213162.000,1.000
26.347,-6.454,37.793,-2.051,39.073,17.613,10.547,32.816,0.003,0.966,-0.181,0.702,-0.763,0.977,73.333,213163.000,1.000
28.860,-4.364,40.460,-0.332,41.221,19.901,10.593,33.702,0.005,0.962,-0.179,0.824,-0.885,0.824,73.333,213164.000,1.000
31.697,-1.817,43.351,1.815,44.349,23.598,13.037,35.758,0.008,0.962,-0.183,0.977,-1.068,0.732,73.333,213165.000,1.000
34.217,0.498,45.832,3.920,47.662,27.106,16.825,38.662,0.009,0.961,-0.181,1.038,-1.068,0.763,73.333,213166.000,1.000
35.876,2.112,47.594,5.559,50.298,29.168,20.463,41.813,0.009,0.963,-0.182,1.099,-1.099,0.793,73.333,213167.000,1.000
36.503,3.009,48.724,6.557,51.775,29.669,22.850,44.697,0.010,0.964,-0.181,1.190,-1.190,0.824,73.333,213168.000,1.000
36.413,3.577,49.531,7.096,52.173,29.461,23.620,47.097,0.010,0.964,-0.179,1.190,-1.190,0.702,73.333,213169.000,1.000
36.242,4.302,50.332,7.591,52.076,29.676,23.346,49.154,0.010,0.966,-0.180,1.190,-1.221,0.763,73.333,213170.000,1.000
36.586,5.438,51.312,8.398,52.260,31.010,23.123,51.195,0.010,0.969,-0.181,1.221,-1.190,0.824,73.333,213171.000,1.000
37.605,6.856,52.348,9.492,53.152,33.229,23.539,53.258,0.011,0.972,-0.179,1.312,-1.129,0.854,73.333,213172.000,1.000
38.982,8.089,53.044,10.468,54.511,35.306,24.033,54.805,0.010,0.973,-0.179,1.221,-1.190,0.946,73.333,213173.000,1.000
40.204,8.653,53.052,10.859,55.638,36.236,23.640,55.128,0.009,0.972,-0.179,1.129,-1.099,1.007,73.333,213174.000,1.000
40.856,8.257,52.240,10.415,55.821,35.636,22.022,53.936,0.008,0.976,-0.180,1.099,-1.221,1.160,73.333,213175.000,1.000
40.840,6.968,50.734,9.238,54.840,33.764,19.682,51.620,0.007,0.976,-0.179,0.977,-1.251,1.190,73.333,213176.000,1.000
40.347,5.150,48.807,7.684,52.988,30.990,17.360,48.864,0.006,0.978,-0.181,0.885,-1.251,1.160,73.333,213177.000,1.000
39.617,3.112,46.704,6.129,50.680,27.396,15.221,46.034,0.007,0.977,-0.180,0.671,-1.282,1.190,73.333,213178.000,1.000
38.756,1.089,44.631,4.783,48.210,23.185,13.069,43.202,0.006,0.975,-0.183,0.549,-1.282,1.160,73.333,213179.000,1.000
37.640,-0.737,42.735,3.604,45.750,19.089,11.072,40.536,0.005,0.975,-0.181,0.458,-1.312,1.160,73.333,213180.000,1.000
36.062,-2.274,41.084,2.435,43.432,15.988,9.718,38.320,0.006,0.974,-0.180,0.397,-1.404,1.068,73.333,213181.000,1.000
33.973,-3.503,39.669,1.229,41.372,14.172,9.126,36.590,0.007,0.972,-0.179,0.336,-1.495,1.129,73.333,213182.000,1.000
31.567,-4.459,38.485,0.111,39.773,13.240,8.756,35.176,0.007,0.969,-0.182,0.305,-1.526,1.129,73.333,213183.000,1.000
29.227,-5.004,37.662,-0.720,39.029,12.831,8.233,34.179,0.008,0.967,-0.182,0.275,-1.587,0.946,73.333,213184.000,1.000
27.381,-4.854,37.409,-1.162,39.496,13.077,7.953,33.907,0.009,0.965,-0.185,0.336,-1.587,0.854,73.333,213185.000,1.000
26.364,-3.848,37.851,-1.257,41.137,14.350,8.481,34.431,0.009,0.965,-0.185,0.366,-1.648,0.946,73.333,213186.000,1.000
26.217,-2.163,38.874,-1.136,43.429,16.732,9.800,35.426,0.009,0.966,-0.183,0.488,-1.587,0.916,73.333,213187.000,1.000
26.675,-0.298,40.165,-0.918,45.720,19.759,11.369,36.415,0.010,0.964,-0.183,0.519,-1.556,0.793,73.333,213188.000,1.000
27.401,1.356,41.478,-0.622,47.632,22.763,12.834,37.128,0.011,0.964,-0.183,0.549,-1.404,0.671,73.333,213189.000,1.000
28.165,2.711,42.748,-0.207,49.130,25.269,14.268,37.677,0.011,0.966,-0.189,0.793,-1.434,0.732,73.333,213190.000,1.000
28.855,3.850,44.057,0.407,50.411,27.136,15.822,38.447,0.010,0.967,-0.187,0.916,-1.495,0.580,73.333,213191.000,1.000
29.396,4.875,45.478,1.301,51.675,28.428,17.456,39.713,0.009,0.969,-0.184,0.946,-1.434,0.580,73.333,213192.000,1.000
29.789,5.787,46.987,2.498,53.006,29.202,18.902,41.327,0.010,0.971,-0.183,0.977,-1.343,0.580,73.333,213193.000,1.000
30.171,6.613,48.527,3.890,54.386,29.520,20.027,42.829,0.010,0.972,-0.184,1.068,-1.434,0.549,73.333,213194.000,1.000
30.726,7.492,50.078,5.275,55.732,29.528,20.975,43.738,0.007,0.971,-0.184,1.068,-1.312,0.549,73.333,213195.000,1.000
31.548,8.574,51.650,6.479,56.886,29.353,21.857,43.838,0.008,0.973,-0.182,0.977,-1.373,0.488,73.333,213196.000,1.000
32.419,9.695,53.048,7.300,57.514,28.948,22.642,43.252,0.006,0.974,-0.182,0.946,-1.404,0.427,73.333,213197.000,1.000
32.833,10.281,53.792,7.485,57.258,28.194,23.278,42.394,0.005,0.974,-0.185,0.885,-1.434,0.458,73.333,213198.000,1.000
32.379,9.842,53.453,6.945,56.064,27.172,23.811,41.824,0.005,0.973,-0.187,0.824,-1.434,0.336,73.333,213199.000,1.000
31.033,8.345,51.987,5.850,54.229,26.119,24.176,41.757,0.005,0.974,-0.184,0.824,-1.526,0.214,73.333,213200.000,1.000
29.272,6.277,49.868,4.588,52.301,25.359,24.219,41.865,0.005,0.975,-0.181,0.824,-1.587,0.244,73.333,213201.000,1.000
27.856,4.428,47.869,3.593,50.783,25.153,24.067,41.584,0.003,0.974,-0.179,0.702,-1.556,0.153,73.333,213202.000,1.000
27.386,3.464,46.641,3.153,49.815,25.403,23.940,40.474,0.002,0.974,-0.182,0.702,-1.587,0.214,73.333,213203.000,1.000
28.022,3.751,46.527,3.391,49.168,25.665,23.767,38.557,0.004,0.972,-0.183,0.610,-1.740,0.214,73.333,213204.000,1.000
29.451,5.168,47.441,4.201,48.459,25.380,23.119,36.308,0.004,0.972,-0.181,0.549,-1.831,0.183,73.333,213205.000,1.000
30.969,6.970,48.732,5.075,47.313,24.067,21.527,34.254,0.003,0.972,-0.184,0.488,-1.831,0.275,73.333,213206.000,1.000
31.638,8.057,49.322,5.168,45.440,21.543,18.909,32.582,0.004,0.973,-0.184,0.488,-1.862,0.153,73.333,213207.000,1.000
30.861,7.677,48.445,3.915,42.903,18.287,15.816,31.245,0.004,0.973,-0.182,0.366,-1.953,0.244,73.333,213208.000,1.000
28.926,6.073,46.279,1.578,40.269,15.439,13.403,30.289,0.003,0.973,-0.183,0.397,-1.953,0.336,73.333,213209.000,1.000
26.653,4.034,43.595,-1.064,38.120,13.720,12.378,29.649,0.004,0.970,-0.185,0.458,-1.984,0.366,73.333,213210.000,1.000
24.632,2.070,41.008,-3.425,36.478,12.686,12.127,28.895,0.004,0.970,-0.187,0.366,-2.014,0.275,73.333,213211.000,1.000
22.997,0.352,38.714,-5.353,34.913,11.579,11.653,27.601,0.002,0.972,-0.185,0.305,-2.045,0.336,73.333,213212.000,1.000
21.740,-1.031,36.736,-6.830,33.140,10.366,10.782,25.825,0.003,0.971,-0.188,0.183,-2.075,0.427,73.333,213213.000,1.000
20.871,-2.069,35.051,-7.814,31.194,9.449,10.014,23.910,0.004,0.970,-0.181,0.244,-2.075,0.580,73.333,213214.000,1.000
20.312,-3.020,33.521,-8.421,29.125,8.851,9.691,22.023,0.006,0.969,-0.182,0.153,-2.106,0.641,73.333,213215.000,1.000
20.002,-4.148,32.083,-8.843,26.974,8.285,9.739,20.301,0.003,0.968,-0.181,0.092,-1.984,0.671,73.333,213216.000,1.000
19.959,-5.438,30.848,-9.186,24.833,7.488,9.819,18.968,0.003,0.967,-0.180,0.061,-2.045,0.732,73.333,213217.000,1.000
20.249,-6.726,30.023,-9.443,22.885,6.223,9.397,18.143,0.004,0.968,-0.181,0.000,-2.045,0.732,73.333,213218.000,1.000
20.997,-7.693,29.848,-9.515,21.486,4.486,8.169,17.779,0.006,0.967,-0.182,-0.031,-1.984,0.824,73.333,213219.000,1.000
22.256,-7.973,30.396,-9.344,21.022,2.727,6.422,17.613,0.004,0.968,-0.184,-0.092,-1.923,0.916,73.333,213220.000,1.000
23.898,-7.344,31.492,-8.923,21.739,1.717,5.017,17.404,0.004,0.967,-0.184,-0.214,-1.831,0.885,73.333,213221.000,1.000
25.705,-5.844,32.857,-8.210,23.558,2.005,5.016,17.344,0.006,0.969,-0.185,-0.153,-1.740,0.946,73.333,213222.000,1.000
27.564,-3.882,34.209,-7.193,25.882,3.387,6.741,17.870,0.006,0.970,-0.182,-0.183,-1.678,1.038,73.333,213223.000,1.000
29.441,-2.084,35.223,-6.078,27.686,4.964,9.197,19.005,0.007,0.970,-0.181,-0.244,-1.617,1.068,73.333,213224.000,1.000
31.194,-1.060,35.537,-5.298,28.027,5.673,10.586,20.100,0.006,0.970,-0.178,-0.336,-1.526,1.160,73.333,213225.000,1.000
32.699,-0.973,35.171,-5.046,26.867,5.115,9.846,20.547,0.009,0.970,-0.177,-0.366,-1.465,1.282,73.333,213226.000,1.000
34.119,-1.283,34.780,-4.954,25.247,3.927,7.704,20.387,0.009,0.971,-0.177,-0.519,-1.465,1.343,73.333,213227.000,1.000
35.822,-1.227,35.157,-4.493,24.367,3.091,5.585,19.884,0.010,0.971,-0.178,-0.580,-1.282,1.434,73.333,213228.000,1.000
38.037,-0.419,36.577,-3.506,24.599,3.132,4.204,19.075,0.011,0.972,-0.178,-0.732,-1.160,1.465,73.333,213229.000,1.000
40.694,0.986,38.763,-2.107,25.645,4.057,3.665,18.099,0.010,0.974,-0.178,-0.824,-1.038,1.617,73.333,213230.000,1.000
43.613,2.761,41.462,-0.166,27.415,5.800,4.182,17.716,0.009,0.973,-0.177,-0.977,-0.916,1.556,73.333,213231.000,1.000
46.500,4.868,44.458,2.481,30.027,8.229,6.051,18.832,0.010,0.972,-0.179,-1.007,-0.824,1.587,73.333,213232.000,1.000
48.678,6.984,46.971,5.265,32.979,10.752,8.910,21.366,0.011,0.972,-0.177,-1.160,-0.763,1.770,73.333,213233.000,1.000
49.198,8.374,47.765,6.915,35.010,12.583,11.804,24.109,0.010,0.972,-0.180,-1.343,-0.458,1.831,73.333,213234.000,1.000
47.540,8.472,46.154,6.501,35.056,13.409,13.982,25.813,0.010,0.972,-0.178,-1.404,-0.305,1.831,73.333,213235.000,1.000
44.264,7.507,42.724,4.229,33.142,13.532,15.233,26.135,0.011,0.973,-0.177,-1.495,-0.275,1.831,73.333,213236.000,1.000
40.664,6.293,38.836,1.124,30.166,13.358,15.621,25.440,0.013,0.972,-0.180,-1.404,-0.122,1.831,73.333,213237.000,1.000
37.713,5.370,35.587,-1.819,27.092,12.933,15.210,24.234,0.011,0.972,-0.178,-1.495,-0.031,1.770,73.333,213238.000,1.000
35.464,4.748,33.308,-4.085,24.480,12.175,14.378,23.114,0.011,0.972,-0.177,-1.495,0.061,1.953,73.333,213239.000,1.000
33.327,4.186,31.681,-5.678,22.457,11.212,13.812,22.603,0.010,0.970,-0.179,-1.556,0.122,1.862,73.333,213240.000,1.000
30.743,3.513,30.139,-6.964,20.864,10.367,13.807,22.597,0.012,0.970,-0.177,-1.495,0.275,1.709,73.333,213241.000,1.000
27.600,2.799,28.299,-8.332,19.522,9.956,14.090,22.455,0.014,0.970,-0.177,-1.434,0.336,1.648,73.333,213242.000,1.000
24.265,2.297,26.322,-9.747,18.633,10.207,14.472,21.932,0.012,0.969,-0.175,-1.404,0.488,1.770,73.333,213243.000,1.000
21.420,2.329,24.857,-10.682,18.690,11.236,15.265,21.591,0.010,0.969,-0.176,-1.282,0.580,1.770,73.333,213244.000,1.000
19.693,2.920,24.430,-10.679,19.748,12.781,16.455,22.056,0.010,0.969,-0.174,-1.251,0.610,1.709,73.333,213245.000,1.000
19.303,3.665,24.987,-9.860,21.122,14.272,17.174,23.319,0.012,0.970,-0.176,-1.099,0.671,1.648,73.333,213246.000,1.000
19.956,4.104,26.033,-8.895,21.929,15.367,16.732,24.787,0.010,0.970,-0.175,-1.007,0.824,1.617,73.333,213247.000,1.000
21.256,4.258,27.279,-8.329,21.928,16.262,15.406,25.818,0.009,0.972,-0.173,-0.854,0.824,1.648,73.333,213248.000,1.000
23.182,4.822,29.038,-8.042,21.741,17.462,14.122,26.202,0.008,0.971,-0.175,-0.824,0.702,1.648,73.333,213249.000,1.000
25.988,6.561,31.793,-7.467,22.270,19.258,13.748,26.175,0.008,0.971,-0.174,-0.702,0.671,1.617,73.333,213250.000,1.000
29.835,9.650,35.647,-6.100,24.059,21.525,14.748,26.261,0.006,0.970,-0.172,-0.580,0.732,1.709,73.333,213251.000,1.000
34.470,13.559,40.153,-3.826,27.024,23.945,17.115,27.004,0.006,0.970,-0.173,-0.397,0.702,1.556,73.333,213252.000,1.000
39.178,17.315,44.523,-0.935,30.598,26.245,20.319,28.632,0.006,0.971,-0.175,-0.366,0.641,1.587,73.333,213253.000,1.000
43.087,20.085,48.069,2.157,34.117,28.201,23.589,31.017,0.005,0.972,-0.175,-0.244,0.519,1.434,73.333,213254.000,1.000
45.576,21.507,50.503,5.162,37.106,29.470,26.178,33.768,0.003,0.972,-0.173,-0.122,0.519,1.404,73.333,213255.000,1.000
46.651,21.817,52.038,8.015,39.516,29.828,27.598,36.441,0.003,0.971,-0.174,-0.092,0.397,1.434,73.333,213256.000,1.000
46.892,21.714,53.158,10.721,41.699,29.435,27.893,38.789,0.005,0.971,-0.174,-0.031,0.244,1.465,73.333,213257.000,1.000
47.006,21.872,54.243,13.168,44.127,28.715,27.449,40.756,0.004,0.971,-0.175,0.031,0.244,1.373,73.333,213258.000,1.000
47.400,22.620,55.366,15.101,46.996,28.181,26.729,42.198,0.004,0.970,-0.175,0.153,0.153,1.373,73.333,213259.000,1.000
47.958,23.775,56.280,16.165,49.930,28.228,26.074,42.739,0.005,0.970,-0.176,0.244,0.061,1.312,73.333,213260.000,1.000
48.277,24.908,56.743,16.173,52.283,29.067,25.765,42.227,0.006,0.972,-0.176,0.275,-0.031,1.373,73.333,213261.000,1.000
48.127,25.823,56.845,15.397,53.693,30.807,26.176,41.135,0.007,0.971,-0.177,0.397,-0.122,1.495,73.333,213262.000,1.000
47.682,26.629,56.978,14.525,54.347,33.399,27.513,40.342,0.007,0.970,-0.175,0.397,-0.214,1.495,73.333,213263.000,1.000
47.371,27.638,57.556,14.287,54.877,36.766,29.836,40.777,0.004,0.971,-0.176,0.580,-0.305,1.404,73.333,213264.000,1.000
47.483,29.000,58.619,14.938,55.835,40.819,33.094,42.949,0.007,0.972,-0.176,0.641,-0.397,1.434,73.333,213265.000,1.000
47.890,30.357,59.674,16.030,57.080,45.166,36.753,46.566,0.008,0.972,-0.176,0.732,-0.488,1.404,73.333,213266.000,1.000
48.071,30.972,59.946,16.728,57.764,49.020,39.896,50.718,0.006,0.970,-0.175,0.763,-0.610,1.404,73.333,213267.000,1.000
47.521,30.284,58.907,16.435,57.124,51.685,41.903,54.554,0.006,0.971,-0.173,0.854,-0.732,1.404,73.333,213268.000,1.000
46.213,28.540,56.695,15.195,55.192,53.121,42.879,57.637,0.006,0.970,-0.174,0.916,-0.885,1.465,73.333,213269.000,1.000
44.497,26.515,53.945,13.461,52.556,53.627,43.031,59.528,0.007,0.969,-0.176,0.946,-0.885,1.434,73.333,213270.000,1.000
42.684,24.721,51.292,11.639,49.635,53.091,42.031,59.594,0.010,0.971,-0.176,1.007,-0.977,1.617,73.333,213271.000,1.000
40.868,23.137,49.034,9.897,46.404,50.953,39.420,57.526,0.009,0.970,-0.176,1.038,-1.007,1.526,73.333,213272.000,1.000
39.212,21.632,47.304,8.367,42.904,47.037,35.274,53.861,0.009,0.968,-0.177,1.068,-0.916,1.526,73.333,213273.000,1.000
38.139,20.458,46.369,7.351,39.709,42.245,30.632,49.934,0.010,0.969,-0.177,1.038,-0.916,1.465,73.333,213274.000,1.000
37.954,19.976,46.371,7.064,37.552,38.047,27.077,47.047,0.010,0.969,-0.175,1.129,-1.068,1.373,73.333,213275.000,1.000
38.509,20.208,46.995,7.354,36.705,35.466,25.582,45.666,0.012,0.969,-0.175,1.099,-1.129,1.434,73.333,213276.000,1.000
39.365,20.876,47.670,7.858,36.812,34.635,25.833,45.339,0.011,0.970,-0.176,1.129,-1.129,1.465,73.333,213277.000,1.000
40.171,21.606,48.046,8.354,37.251,34.924,26.550,45.175,0.011,0.970,-0.176,1.251,-1.068,1.526,73.333,213278.000,1.000
40.758,22.112,48.136,8.816,37.530,35.392,26.531,44.427,0.011,0.970,-0.179,1.251,-1.038,1.526,73.333,213279.000,1.000
40.985,22.215,48.060,9.230,37.466,35.313,25.438,42.877,0.011,0.971,-0.177,1.129,-0.946,1.556,73.333,213280.000,1.000
40.819,22.022,47.965,9.603,37.220,34.629,23.876,40.944,0.009,0.972,-0.177,1.068,-1.007,1.556,73.333,213281.000,1.000
40.459,21.939,48.031,10.024,37.067,33.879,22.804,39.243,0.009,0.971,-0.175,0.946,-1.007,1.465,73.333,213282.000,1.000
40.226,22.211,48.340,10.591,37.123,33.501,22.571,37.975,0.009,0.970,-0.177,0.977,-0.946,1.343,73.333,213283.000,1.000
40.346,22.661,48.809,11.298,37.348,33.315,22.728,36.892,0.008,0.970,-0.177,1.007,-1.099,1.251,73.333,213284.000,1.000
40.784,22.803,49.266,12.016,37.718,32.757,22.657,35.683,0.008,0.971,-0.177,0.946,-1.007,1.251,73.333,213285.000,1.000
41.359,22.412,49.734,12.723,38.460,31.755,22.523,34.454,0.010,0.972,-0.177,0.946,-1.007,1.190,73.333,213286.000,1.000
41.892,21.875,50.483,13.601,39.986,31.063,23.473,33.776,0.013,0.973,-0.177,0.885,-1.068,1.129,73.333,213287.000,1.000
42.188,21.791,51.743,14.774,42.499,31.507,26.205,34.158,0.015,0.972,-0.177,0.885,-1.068,1.190,73.333,213288.000,1.000
42.086,22.564,53.516,16.117,45.807,33.304,29.905,35.665,0.017,0.973,-0.178,0.885,-0.977,1.282,73.333,213289.000,1.000
41.580,24.283,55.629,17.377,49.518,36.164,33.156,37.968,0.016,0.972,-0.178,0.793,-0.946,1.282,73.333,213290.000,1.000
40.803,26.703,57.804,18.339,53.231,39.581,35.231,40.481,0.016,0.968,-0.176,0.763,-0.885,1.312,73.333,213291.000,1.000
39.737,29.093,59.436,18.641,56.222,42.648,35.988,42.275,0.015,0.967,-0.177,0.793,-0.732,1.404,73.333,213292.000,1.000
38.038,30.229,59.540,17.618,57.278,43.998,35.064,42.157,0.013,0.965,-0.179,0.854,-0.702,1.343,73.333,213293.000,1.000
35.344,29.147,57.353,14.759,55.470,42.653,32.365,39.554,0.013,0.965,-0.178,0.977,-0.732,1.495,73.333,213294.000,1.000
31.805,26.023,53.169,10.462,51.245,39.091,29.046,35.422,0.012,0.966,-0.179,1.160,-0.610,1.495,73.333,213295.000,1.000
28.271,22.239,48.462,6.174,46.520,35.277,26.973,31.826,0.010,0.970,-0.182,1.190,-0.580,1.587,73.333,213296.000,1.000
25.769,19.427,44.953,3.485,43.403,33.324,27.149,30.298,0.010,0.972,-0.185,1.099,-0.580,1.495,73.333,213297.000,1.000
24.867,18.360,43.559,3.120,42.874,33.997,29.006,30.866,0.013,0.975,-0.184,1.129,-0.610,1.556,73.333,213298.000,1.000
25.560,18.801,44.148,4.736,44.485,36.393,31.307,32.644,0.013,0.976,-0.182,1.068,-0.580,1.465,73.333,213299.000,1.000
27.396,19.877,45.812,7.266,46.863,38.594,33.040,34.648,0.013,0.975,-0.182,1.007,-0.549,1.526,73.333,213300.000,1.000
29.581,20.540,47.321,9.402,48.455,38.805,33.562,36.081,0.012,0.974,-0.181,0.977,-0.519,1.556,73.333,213301.000,1.000
31.204,20.082,47.663,10.130,48.171,36.327,32.641,36.395,0.011,0.975,-0.181,0.885,-0.580,1.587,73.333,213302.000,1.000
31.781,18.532,46.643,9.249,45.868,31.904,30.482,35.509,0.010,0.974,-0.176,0.854,-0.671,1.404,73.333,213303.000,1.000
31.577,16.753,44.973,7.441,42.387,27.363,27.742,33.962,0.008,0.975,-0.178,0.671,-0.671,1.373,73.333,213304.000,1.000
31.241,15.782,43.600,5.667,38.997,24.449,25.248,32.622,0.005,0.976,-0.178,0.641,-0.824,1.129,73.333,213305.000,1.000
31.337,16.158,43.112,4.605,36.845,23.876,23.820,32.354,0.003,0.977,-0.178,0.549,-0.977,0.977,73.333,213306.000,1.000
32.112,17.829,43.629,4.464,36.589,25.402,24.355,33.744,0.002,0.980,-0.177,0.427,-1.038,0.763,73.333,213307.000,1.000
33.451,20.332,44.937,5.019,38.135,28.415,27.217,36.682,0.004,0.980,-0.175,0.305,-1.190,0.763,73.333,213308.000,1.000
34.994,23.135,46.703,5.810,40.632,32.265,31.507,40.231,0.006,0.979,-0.177,0.092,-1.282,0.641,73.333,213309.000,1.000
36.288,25.758,48.526,6.334,42.849,36.109,35.319,43.071,0.005,0.979,-0.177,-0.122,-1.434,0.580,73.333,213310.000,1.000
36.980,27.841,50.018,6.288,43.925,38.994,37.035,44.387,0.007,0.979,-0.178,-0.244,-1.495,0.458,73.333,213311.000,1.000
36.997,29.344,51.015,5.773,43.966,40.493,36.514,44.425,0.007,0.978,-0.180,-0.366,-1.495,0.366,73.333,213312.000,1.000
36.536,30.466,51.658,5.274,43.952,41.018,35.002,44.113,0.010,0.979,-0.177,-0.366,-1.556,0.366,73.333,213313.000,1.000
35.880,31.473,52.197,5.324,44.930,41.438,34.249,44.271,0.009,0.977,-0.179,-0.427,-1.556,0.519,73.333,213314.000,1.000
35.267,32.470,52.742,6.157,47.195,42.418,35.412,45.225,0.008,0.976,-0.175,-0.549,-1.587,0.549,73.333,213315.000,1.000
34.793,33.245,53.144,7.574,50.068,43.938,38.193,46.788,0.008,0.976,-0.176,-0.702,-1.709,0.671,73.333,213316.000,1.000
34.190,33.216,52.908,8.890,52.228,45.299,41.026,48.279,0.008,0.975,-0.176,-0.763,-1.831,0.488,73.333,213317.000,1.000
32.935,31.718,51.453,9.229,52.552,45.740,42.340,48.901,0.008,0.972,-0.177,-0.763,-1.923,0.702,73.333,213318.000,1.000
30.756,28.640,48.632,8.145,50.831,45.085,41.808,48.389,0.006,0.973,-0.174,-0.702,-1.892,0.519,73.333,213319.000,1.000
27.923,24.548,44.888,5.903,47.651,43.684,40.111,47.031,0.007,0.973,-0.174,-0.763,-1.862,0.580,73.333,213320.000,1.000
25.175,20.366,41.071,3.300,43.897,42.067,38.026,45.325,0.006,0.971,-0.175,-0.702,-2.014,0.732,73.333,213321.000,1.000
23.346,16.993,38.078,1.253,40.365,40.594,36.206,43.851,0.005,0.969,-0.175,-0.641,-2.045,0.763,73.333,213322.000,1.000
22.893,14.866,36.429,0.387,37.546,39.186,34.983,43.102,0.005,0.967,-0.175,-0.519,-2.014,0.793,73.333,213323.000,1.000
23.549,13.869,35.995,0.739,35.503,37.484,34.074,43.176,0.008,0.969,-0.172,-0.366,-2.045,0.854,73.333,213324.000,1.000
24.303,13.382,36.019,1.650,33.886,35.164,32.706,43.620,0.008,0.966,-0.173,-0.366,-1.984,0.763,73.333,213325.000,1.000
23.995,12.648,35.565,2.154,32.262,32.193,30.265,43.792,0.007,0.964,-0.174,-0.244,-2.045,0.916,73.333,213326.000,1.000
22.106,11.307,34.094,1.584,30.455,28.975,26.958,43.395,0.007,0.963,-0.172,-0.092,-2.075,1.007,73.333,213327.000,1.000
19.118,9.594,31.806,0.014,28.749,26.287,23.811,42.749,0.009,0.961,-0.173,0.092,-2.045,0.977,73.333,213328.000,1.000
16.187,8.156,29.496,-1.845,27.692,24.980,22.042,42.495,0.011,0.961,-0.176,0.214,-2.106,0.885,73.333,213329.000,1.000
14.341,7.466,27.906,-3.269,27.499,25.277,21.957,42.770,0.012,0.960,-0.175,0.458,-2.045,0.824,73.333,213330.000,1.000
13.993,7.532,27.351,-3.940,27.905,26.465,22.575,42.935,0.010,0.962,-0.174,0.519,-2.075,1.007,73.333,213331.000,1.000
14.974,8.230,27.838,-3.875,28.624,27.603,22.689,42.255,0.010,0.963,-0.174,0.732,-1.984,1.099,73.333,213332.000,1.000
16.794,9.564,29.311,-3.186,29.784,28.377,21.982,40.731,0.012,0.964,-0.172,0.854,-1.862,1.038,73.333,213333.000,1.000
18.873,11.618,31.638,-1.996,31.747,29.149,21.297,39.265,0.011,0.964,-0.172,0.854,-1.770,1.038,73.333,213334.000,1.000
20.705,14.190,34.431,-0.502,34.532,30.222,21.692,38.841,0.011,0.964,-0.174,1.099,-1.740,1.068,73.333,213335.000,1.000
22.010,16.703,37.052,0.996,37.507,31.295,23.154,39.439,0.014,0.967,-0.173,1.190,-1.617,0.977,73.333,213336.000,1.000
22.645,18.487,38.762,2.044,39.619,31.569,24.445,39.889,0.014,0.969,-0.174,1.343,-1.617,1.160,73.333,213337.000,1.000
22.528,19.098,39.014,2.178,40.041,30.380,24.250,38.906,0.014,0.970,-0.177,1.373,-1.465,1.129,73.333,213338.000,1.000
21.716,18.606,37.797,1.241,38.667,27.906,22.491,36.154,0.013,0.970,-0.175,1.434,-1.282,1.068,73.333,213339.000,1.000
20.412,17.411,35.602,-0.489,36.009,25.048,20.182,32.217,0.012,0.970,-0.178,1.404,-1.190,1.129,73.333,213340.000,1.000
18.940,15.973,33.154,-2.407,32.822,22.711,18.149,28.063,0.015,0.971,-0.177,1.434,-1.129,1.129,73.333,213341.000,1.000
17.664,14.692,31.074,-3.941,29.753,21.323,16.500,24.613,0.015,0.972,-0.179,1.465,-0.946,1.190,73.333,213342.000,1.000
16.855,13.715,29.592,-4.898,27.144,20.769,15.089,22.429,0.013,0.972,-0.179,1.465,-0.885,1.312,73.333,213343.000,1.000
16.617,12.961,28.515,-5.500,25.038,20.692,14.079,21.458,0.013,0.973,-0.179,1.526,-0.793,1.373,73.333,213344.000,1.000
16.902,12.248,27.458,-6.132,23.372,20.839,13.757,21.006,0.013,0.975,-0.180,1.556,-0.610,1.251,73.333,213345.000,1.000
17.648,11.537,26.294,-6.997,22.232,21.163,14.062,20.302,0.010,0.976,-0.178,1.526,-0.519,1.312,73.333,213346.000,1.000
18.692,10.922,25.205,-8.058,21.675,21.447,14.456,18.973,0.012,0.977,-0.183,1.373,-0.488,1.282,73.333,213347.000,1.000
19.552,10.216,24.288,-9.251,21.328,21.054,14.041,16.935,0.012,0.979,-0.180,1.434,-0.427,1.251,73.333,213348.000,1.000
19.612,9.027,23.419,-10.522,20.558,19.534,12.356,14.369,0.011,0.978,-0.179,1.373,-0.458,1.160,73.333,213349.000,1.000
18.529,7.134,22.433,-11.754,19.037,17.141,9.984,11.906,0.009,0.977,-0.177,1.251,-0.366,1.221,73.333,213350.000,1.000
16.400,4.655,21.260,-12.815,16.963,14.499,7.941,10.367,0.009,0.976,-0.176,1.160,-0.427,1.099,73.333,213351.000,1.000
13.658,1.993,19.884,-13.673,14.753,12.084,6.736,10.126,0.007,0.971,-0.177,1.038,-0.427,1.190,73.333,213352.000,1.000
10.995,-0.317,18.381,-14.294,12.881,10.202,6.240,10.952,0.008,0.969,-0.178,1.038,-0.397,1.160,73.333,213353.000,1.000
9.231,-1.630,17.083,-14.511,11.896,9.184,6.250,12.414,0.010,0.968,-0.179,1.007,-0.488,1.129,73.333,213354.000,1.000
8.959,-1.472,16.549,-14.166,12.166,9.247,6.583,13.893,0.010,0.969,-0.181,1.038,-0.488,1.099,73.333,213355.000,1.000
10.245,0.141,17.259,-13.293,13.589,10.423,7.071,14.605,0.010,0.971,-0.182,1.129,-0.427,1.099,73.333,213356.000,1.000
12.582,2.732,19.266,-12.083,15.670,12.754,7.991,14.222,0.010,0.974,-0.182,1.099,-0.427,1.190,73.333,213357.000,1.000
15.105,5.461,22.025,-10.832,17.754,16.006,9.668,13.089,0.011,0.975,-0.183,1.099,-0.366,1.190,73.333,213358.000,1.000
16.812,7.298,24.461,-10.047,19.049,19.110,11.507,11.544,0.013,0.976,-0.180,0.977,-0.397,1.251,73.333,213359.000,1.000
16.955,7.460,25.455,-10.285,18.908,20.555,12.276,9.658,0.013,0.974,-0.181,0.946,-0.397,1.434,73.333,213360.000,1.000
15.636,6.128,24.706,-11.582,17.505,19.823,11.675,7.918,0.014,0.972,-0.182,0.885,-0.336,1.556,73.333,213361.000,1.000
13.823,4.405,22.969,-13.314,15.794,17.829,10.833,7.225,0.014,0.970,-0.183,0.916,-0.275,1.526,73.333,213362.000,1.000
12.672,3.398,21.479,-14.612,14.769,15.853,10.794,7.982,0.013,0.970,-0.183,1.007,-0.305,1.495,73.333,213363.000,1.000
12.885,3.670,21.235,-14.795,14.929,14.702,11.449,9.783,0.010,0.974,-0.180,0.946,-0.183,1.556,73.333,213364.000,1.000
14.391,5.108,22.475,-13.684,16.127,14.595,12.006,11.803,0.007,0.976,-0.182,0.793,-0.153,1.556,73.333,213365.000,1.000
16.538,7.088,24.655,-11.675,17.734,15.281,11.888,13.265,0.005,0.977,-0.178,0.732,-0.336,1.434,73.333,213366.000,1.000
18.590,8.935,26.917,-9.471,19.028,16.251,11.173,13.695,0.004,0.977,-0.178,0.519,-0.458,1.312,73.333,213367.000,1.000
20.089,10.234,28.593,-7.675,19.693,17.095,10.418,13.087,0.003,0.971,-0.180,0.397,-0.610,1.282,73.333,213368.000,1.000
20.901,10.997,29.435,-6.531,20.020,17.713,10.281,12.014,0.003,0.969,-0.181,0.458,-0.793,1.068,73.333,213369.000,1.000
21.104,11.517,29.590,-5.932,20.601,18.206,11.017,11.401,0.004,0.969,-0.182,0.458,-0.885,0.885,73.333,213370.000,1.000
20.950,12.165,29.529,-5.584,21.949,18.847,12.449,12.080,0.006,0.968,-0.179,0.336,-0.916,0.885,73.333,213371.000,1.000
20.749,13.090,29.740,-5.311,24.073,19.864,14.174,14.101,0.007,0.969,-0.181,0.519,-1.038,0.854,73.333,213372.000,1.000
20.707,13.916,30.335,-5.236,26.262,21.008,15.342,16.304,0.009,0.968,-0.179,0.427,-1.129,0.763,73.333,213373.000,1.000
20.911,14.108,31.061,-5.557,27.553,21.800,15.137,17.107,0.009,0.969,-0.181,0.580,-1.190,0.732,73.333,213374.000,1.000
21.297,13.394,31.464,-6.321,27.401,21.985,13.594,15.781,0.008,0.967,-0.185,0.580,-1.160,0.793,73.333,213375.000,1.000
21.595,11.858,31.074,-7.429,25.926,21.709,11.635,12.936,0.007,0.968,-0.183,0.641,-1.129,0.732,73.333,213376.000,1.000
21.394,9.911,29.649,-8.707,23.716,21.413,10.418,9.944,0.007,0.968,-0.184,0.641,-1.190,0.671,73.333,213377.000,1.000
20.436,8.171,27.424,-9.920,21.585,21.448,10.533,8.020,0.008,0.970,-0.182,0.763,-1.282,0.610,73.333,213378.000,1.000
18.836,7.289,25.101,-10.782,20.347,21.898,11.894,7.737,0.009,0.969,-0.180,0.793,-1.343,0.824,73.333,213379.000,1.000
17.072,7.590,23.484,-10.995,20.522,22.746,14.082,8.937,0.009,0.972,-0.181,0.793,-1.282,0.824,73.333,213380.000,1.000
15.894,8.976,23.140,-10.281,22.117,23.993,16.611,10.913,0.010,0.973,-0.181,0.732,-1.190,0.854,73.333,213381.000,1.000
15.997,11.048,24.144,-8.611,24.544,25.562,19.147,12.762,0.010,0.971,-0.179,0.793,-1.404,0.946,73.333,213382.000,1.000
17.630,13.173,26.103,-6.398,26.907,27.159,21.602,13.883,0.007,0.972,-0.178,0.671,-1.343,0.977,73.333,213383.000,1.000
20.353,14.680,28.334,-4.399,28.358,28.221,23.816,14.173,0.008,0.972,-0.180,0.641,-1.434,1.007,73.333,213384.000,1.000
23.041,14.889,29.864,-3.500,28.142,27.892,24.881,13.522,0.008,0.973,-0.180,0.519,-1.526,1.068,73.333,213385.000,1.000
24.471,13.377,29.737,-4.276,25.907,25.660,23.649,11.731,0.007,0.972,-0.178,0.519,-1.587,1.099,73.333,213386.000,1.000
24.142,10.531,27.747,-6.513,22.233,22.154,20.262,9.122,0.006,0.973,-0.181,0.519,-1.495,1.007,73.333,213387.000,1.000
22.397,7.424,24.627,-9.317,18.455,18.795,16.095,6.595,0.008,0.972,-0.177,0.366,-1.587,1.007,73.333,213388.000,1.000
19.893,5.082,21.401,-11.805,15.658,16.600,12.494,4.910,0.010,0.969,-0.179,0.275,-1.556,1.068,73.333,213389.000,1.000
17.254,3.890,18.839,-13.515,14.100,15.515,10.146,4.251,0.011,0.970,-0.178,0.275,-1.526,1.190,73.333,213390.000,1.000
15.124,3.737,17.477,-14.244,13.602,14.924,9.279,4.498,0.008,0.970,-0.178,0.275,-1.526,1.190,73.333,213391.000,1.000
13.969,4.301,17.461,-14.051,13.832,14.368,9.724,5.220,0.009,0.970,-0.180,0.244,-1.526,1.190,73.333,213392.000,1.000
13.866,5.051,18.309,-13.406,14.291,13.730,10.675,5.567,0.010,0.972,-0.181,0.214,-1.587,1.099,73.333,213393.000,1.000
14.736,5.571,19.309,-12.891,14.548,13.241,11.308,4.868,0.010,0.970,-0.180,0.305,-1.556,1.251,73.333,213394.000,1.000
16.529,5.817,20.106,-12.765,14.462,13.315,11.464,3.161,0.010,0.968,-0.180,0.183,-1.526,1.160,73.333,213395.000,1.000
18.994,5.957,20.689,-12.981,14.029,14.159,11.328,1.007,0.011,0.968,-0.179,0.092,-1.404,1.129,73.333,213396.000,1.000
21.414,6.023,20.927,-13.490,13.097,15.423,10.985,-0.904,0.011,0.970,-0.181,0.214,-1.312,1.160,73.333,213397.000,1.000
23.007,5.888,20.551,-14.249,11.490,16.326,10.370,-1.972,0.012,0.970,-0.179,0.244,-1.404,1.190,73.333,213398.000,1.000
23.650,5.716,19.601,-15.008,9.348,16.349,9.476,-1.934,0.013,0.970,-0.178,0.214,-1.343,1.160,73.333,213399.000,1.000
23.893,5.967,18.539,-15.421,7.205,15.726,8.443,-1.121,0.011,0.970,-0.181,0.214,-1.282,1.129,73.333,213400.000,1.000
24.281,6.934,17.924,-15.320,5.824,15.140,7.588,-0.162,0.013,0.971,-0.182,0.244,-1.068,1.068,73.333,213401.000,1.000
24.774,8.411,17.959,-14.804,5.765,14.908,7.224,0.582,0.012,0.970,-0.184,0.244,-1.160,0.916,73.333,213402.000,1.000
24.929,9.749,18.389,-14.087,7.022,14.703,7.295,1.163,0.011,0.971,-0.181,0.336,-1.160,0.916,73.333,213403.000,1.000
24.444,10.394,18.777,-13.335,9.004,14.154,7.523,1.786,0.013,0.970,-0.180,0.366,-1.129,1.007,73.333,213404.000,1.000
23.346,10.180,18.744,-12.713,10.844,13.251,7.661,2.467,0.011,0.970,-0.181,0.427,-1.068,0.916,73.333,213405.000,1.000
21.887,9.293,18.158,-12.360,11.938,12.312,7.664,3.050,0.010,0.971,-0.178,0.397,-1.068,0.946,73.333,213406.000,1.000
20.377,8.138,17.170,-12.326,12.234,11.723,7.715,3.369,0.009,0.974,-0.177,0.336,-1.038,0.885,73.333,213407.000,1.000
19.102,7.120,16.134,-12.521,12.128,11.643,7.935,3.323,0.009,0.974,-0.179,0.244,-1.068,0.763,73.333,213408.000,1.000
18.269,6.532,15.457,-12.714,12.221,12.024,8.505,3.057,0.008,0.974,-0.177,0.244,-1.038,0.763,73.333,213409.000,1.000
17.900,6.361,15.357,-12.656,12.985,12.623,9.669,2.967,0.009,0.975,-0.177,0.336,-1.099,0.580,73.333,213410.000,1.000
17.961,6.427,15.869,-12.128,14.590,12.970,11.318,3.486,0.008,0.973,-0.177,0.214,-1.099,0.641,73.333,213411.000,1.000
18.428,6.697,16.954,-11.012,16.880,12.653,12.955,4.844,0.008,0.972,-0.177,0.214,-1.068,0.580,73.333,213412.000,1.000
19.107,7.193,18.467,-9.432,19.457,11.777,14.118,7.013,0.008,0.972,-0.180,0.244,-1.190,0.580,73.333,213413.000,1.000
19.636,7.901,20.133,-7.723,21.875,11.098,15.015,9.866,0.009,0.971,-0.179,0.275,-1.221,0.427,73.333,213414.000,1.000
19.745,8.656,21.558,-6.342,23.667,11.321,16.198,12.859,0.005,0.973,-0.177,0.153,-1.190,0.427,73.333,213415.000,1.000
19.469,9.151,22.366,-5.737,24.353,12.458,17.508,14.716,0.005,0.973,-0.178,0.153,-1.343,0.488,73.333,213416.000,1.000
19.088,9.185,22.425,-6.076,23.663,13.946,17.973,14.147,0.004,0.972,-0.179,0.122,-1.465,0.488,73.333,213417.000,1.000
18.896,8.695,21.920,-7.061,21.733,14.951,16.671,10.930,0.004,0.973,-0.181,0.153,-1.434,0.488,73.333,213418.000,1.000
19.009,7.764,21.178,-8.096,19.035,14.710,13.654,6.179,0.004,0.971,-0.181,0.183,-1.526,0.610,73.333,213419.000,1.000
19.409,6.752,20.562,-8.581,16.331,13.236,10.180,1.778,0.006,0.970,-0.181,0.153,-1.587,0.580,73.333,213420.000,1.000
20.067,6.302,20.445,-8.149,14.516,11.599,8.019,-0.544,0.006,0.971,-0.183,0.244,-1.495,0.580,73.333,213421.000,1.000
20.791,6.783,20.829,-7.007,13.912,10.892,8.027,-0.343,0.005,0.971,-0.179,0.214,-1.617,0.488,73.333,213422.000,1.000
21.271,7.888,21.264,-5.872,13.964,11.247,9.235,1.211,0.002,0.969,-0.180,0.244,-1.770,0.671,73.333,213423.000,1.000
21.508,9.179,21.456,-5.302,13.955,12.256,9.978,2.486,0.002,0.969,-0.177,0.214,-1.862,0.610,73.333,213424.000,1.000
21.870,10.539,21.620,-5.249,13.723,13.543,9.493,2.717,0.003,0.967,-0.179,0.366,-1.862,0.732,73.333,213425.000,1.000
22.736,12.016,22.196,-5.158,13.651,14.726,8.269,2.347,0.000,0.967,-0.179,0.366,-1.892,0.671,73.333,213426.000,1.000
24.202,13.528,23.411,-4.394,14.159,15.366,7.355,2.316,0.001,0.969,-0.177,0.488,-1.953,0.671,73.333,213427.000,1.000
25.999,14.691,25.028,-2.714,15.257,15.115,7.239,3.060,0.004,0.968,-0.178,0.519,-1.984,0.641,73.333,213428.000,1.000
27.463,14.989,26.333,-0.557,16.431,13.905,7.471,4.177,0.002,0.968,-0.178,0.641,-2.136,0.793,73.333,213429.000,1.000
27.709,13.931,26.383,1.092,16.904,11.912,7.140,4.816,0.004,0.969,-0.173,0.641,-2.045,0.885,73.333,213430.000,1.000
26.225,11.430,24.691,1.366,16.252,9.567,5.675,4.463,0.006,0.969,-0.177,0.671,-2.075,0.793,73.333,213431.000,1.000
23.324,8.194,21.749,0.175,14.834,7.665,3.536,3.395,0.008,0.968,-0.177,0.732,-1.984,0.854,73.333,213432.000,1.000
19.995,5.409,18.762,-1.806,13.585,7.065,1.956,2.306,0.006,0.969,-0.177,0.702,-1.984,1.007,73.333,213433.000,1.000
17.346,4.041,16.862,-3.693,13.309,8.133,2.070,1.649,0.009,0.969,-0.179,0.671,-2.045,1.007,73.333,213434.000,1.000
16.096,4.335,16.509,-4.869,14.141,10.412,4.070,1.440,0.007,0.969,-0.180,0.610,-1.984,1.038,73.333,213435.000,1.000
16.434,5.893,17.515,-5.052,15.645,12.939,7.065,1.508,0.006,0.971,-0.180,0.641,-1.923,1.068,73.333,213436.000,1.000
18.033,7.976,19.262,-4.316,17.171,14.804,9.802,1.630,0.008,0.970,-0.179,0.610,-1.923,1.190,73.333,213437.000,1.000
20.135,9.684,20.924,-3.123,18.199,15.473,11.404,1.523,0.010,0.971,-0.181,0.610,-1.953,1.068,73.333,213438.000,1.000
21.833,10.363,21.801,-2.140,18.542,15.032,11.894,1.018,0.012,0.970,-0.181,0.610,-1.770,1.068,73.333,213439.000,1.000
22.398,9.835,21.587,-1.885,18.258,14.023,11.922,0.133,0.009,0.969,-0.180,0.580,-1.770,1.068,73.333,213440.000,1.000
21.499,8.311,20.356,-2.471,17.420,12.887,11.780,-1.066,0.009,0.971,-0.181,0.580,-1.709,1.007,73.333,213441.000,1.000
19.170,6.189,18.335,-3.668,15.975,11.740,11.151,-2.606,0.011,0.971,-0.179,0.610,-1.617,1.160,73.333,213442.000,1.000
15.815,3.912,15.916,-5.018,14.062,10.695,9.928,-4.319,0.010,0.972,-0.177,0.519,-1.495,1.099,73.333,213443.000,1.000
12.212,2.052,13.757,-5.969,12.257,10.097,8.691,-5.676,0.013,0.972,-0.180,0.458,-1.343,1.160,73.333,213444.000,1.000
9.254,1.097,12.464,-6.258,11.155,10.098,7.793,-6.324,0.012,0.972,-0.183,0.427,-1.190,1.251,73.333,213445.000,1.000
7.635,1.207,12.232,-6.074,10.930,10.411,6.857,-6.317,0.014,0.971,-0.181,0.214,-1.221,1.129,73.333,213446.000,1.000
7.674,2.256,12.891,-5.784,11.435,10.769,5.801,-5.724,0.011,0.969,-0.183,0.183,-1.129,1.099,73.333,213447.000,1.000
9.362,4.028,14.283,-5.478,12.650,11.445,5.463,-4.384,0.012,0.971,-0.181,0.153,-1.038,1.099,73.333,213448.000,1.000
12.360,6.374,16.391,-4.863,14.785,13.080,6.863,-2.148,0.011,0.971,-0.181,0.214,-0.854,1.007,73.333,213449.000,1.000
15.722,8.833,18.851,-3.769,17.701,15.744,9.994,0.600,0.010,0.969,-0.177,0.153,-0.793,1.129,73.333,213450.000,1.000
18.081,10.499,20.736,-2.492,20.542,18.540,13.632,2.886,0.010,0.971,-0.179,0.092,-0.702,1.038,73.333,213451.000,1.000
18.552,10.681,21.120,-1.505,22.164,20.249,16.205,3.693,0.012,0.972,-0.180,0.000,-0.397,0.916,73.333,213452.000,1.000
17.382,9.462,19.799,-1.012,21.903,20.053,16.459,2.556,0.013,0.972,-0.179,0.031,-0.366,0.977,73.333,213453.000,1.000
15.687,7.654,17.482,-0.835,20.007,17.889,14.085,-0.089,0.010,0.972,-0.178,-0.092,-0.244,0.946,73.333,213454.000,1.000
14.696,6.221,15.342,-0.577,17.501,14.475,10.015,-3.042,0.010,0.973,-0.177,-0.183,-0.214,1.007,73.333,213455.000,1.000
15.146,5.789,14.358,0.106,15.585,11.037,5.951,-5.009,0.010,0.970,-0.181,-0.275,-0.244,1.007,73.333,213456.000,1.000
16.857,6.358,14.675,1.085,14.728,8.656,3.394,-5.484,0.010,0.971,-0.181,-0.244,-0.183,0.946,73.333,213457.000,1.000
18.797,7.149,15.473,1.641,14.310,7.619,2.703,-5.055,0.008,0.974,-0.177,-0.305,-0.061,1.007,73.333,213458.000,1.000
19.839,7.119,15.682,1.087,13.351,7.504,3.164,-4.693,0.007,0.974,-0.177,-0.397,-0.092,0.977,73.333,213459.000,1.000
19.519,5.682,14.853,-0.557,11.529,7.605,3.816,-4.836,0.009,0.975,-0.178,-0.488,-0.092,1.038,73.333,213460.000,1.000
18.180,3.052,13.382,-2.584,9.437,7.206,4.146,-5.251,0.008,0.975,-0.176,-0.458,-0.153,1.007,73.333,213461.000,1.000
16.534,0.056,12.017,-4.234,7.925,5.849,4.190,-5.718,0.008,0.976,-0.174,-0.458,-0.122,0.916,73.333,213462.000,1.000
15.280,-2.385,11.362,-5.090,7.414,3.648,4.033,-6.435,0.007,0.974,-0.175,-0.519,-0.183,0.885,73.333,213463.000,1.000
14.969,-3.559,11.692,-5.018,7.740,1.312,3.556,-7.658,0.004,0.972,-0.177,-0.671,-0.153,1.007,73.333,213464.000,1.000
15.868,-3.200,12.914,-4.018,8.460,-0.336,2.702,-9.274,0.006,0.972,-0.176,-0.610,-0.153,1.038,73.333,213465.000,1.000
17.885,-1.524,14.733,-2.106,9.414,-0.644,1.944,-10.549,0.005,0.971,-0.176,-0.519,-0.305,1.068,73.333,213466.000,1.000
20.498,0.878,16.785,0.592,10.834,0.739,2.152,-10.450,0.004,0.971,-0.176,-0.488,-0.366,0.977,73.333,213467.000,1.000
22.826,3.125,18.611,3.627,12.845,3.514,3.683,-8.575,0.003,0.970,-0.174,-0.519,-0.458,1.099,73.333,213468.000,1.000
