EEG 1,EEG 2,EEG 3,EEG 4,EEG 5,EEG 6,EEG 7,EEG 8,Accelerometer X,Accelerometer Y,Accelerometer Z,Gyroscope X,Gyroscope Y,Gyroscope Z,Battery Level,Counter,Validation Indicator
6.231,13.316,8.646,7.733,8.182,9.404,6.929,5.101,-0.069,1.001,0.001,-1.038,-1.495,-0.153,73.333,829785.000,1.000
5.322,14.270,9.373,9.050,11.957,19.761,19.277,11.903,-0.068,1.003,0.004,-1.007,-1.526,-0.153,73.333,829786.000,1.000
3.951,12.920,8.419,8.403,12.500,24.240,24.446,14.758,-0.067,1.003,0.004,-0.977,-1.587,-0.183,73.333,829787.000,1.000
2.229,9.052,5.505,5.687,8.804,19.623,18.864,12.259,-0.068,1.001,0.007,-1.068,-1.617,-0.214,73.333,829788.000,1.000
0.859,4.221,2.099,2.438,2.997,9.016,6.838,6.752,-0.068,1.001,0.008,-1.068,-1.678,-0.214,73.333,829789.000,1.000
0.517,0.446,-0.031,0.545,-1.608,-1.609,-3.678,2.268,-0.068,1.000,0.008,-1.160,-1.770,-0.153,73.333,829790.000,1.000
1.458,-1.089,-0.069,0.929,-2.943,-7.747,-7.168,1.302,-0.068,1.001,0.002,-1.068,-1.831,-0.183,73.333,829791.000,1.000
3.481,-0.324,1.897,3.159,-1.028,-7.855,-2.900,3.432,-0.067,1.000,0.003,-1.007,-1.892,-0.122,73.333,829792.000,1.000
5.981,2.006,5.307,5.892,2.586,-3.027,5.811,6.407,-0.068,1.000,0.005,-0.946,-1.923,-0.122,73.333,829793.000,1.000
8.100,4.766,9.031,7.576,5.768,3.746,13.377,7.874,-0.068,1.000,0.005,-0.916,-1.831,0.000,73.333,829794.000,1.000
9.017,6.804,11.241,7.103,6.783,8.905,14.870,6.413,-0.068,0.999,0.008,-1.038,-1.923,0.000,73.333,829795.000,1.000
8.253,7.270,10.310,4.248,4.943,9.773,8.825,1.961,-0.069,1.000,0.010,-0.946,-1.953,0.000,73.333,829796.000,1.000
5.925,5.925,6.413,-0.134,0.844,5.673,-2.005,-4.059,-0.069,0.999,0.011,-0.854,-1.862,-0.031,73.333,829797.000,1.000
2.910,3.439,2.037,-4.303,-3.657,-1.184,-11.898,-9.110,-0.068,1.000,0.010,-0.854,-1.923,0.122,73.333,829798.000,1.000
0.430,1.144,0.154,-6.515,-6.187,-6.491,-15.240,-10.746,-0.066,1.002,0.008,-0.885,-1.892,0.092,73.333,829799.000,1.000
-0.842,0.102,1.527,-6.205,-5.396,-6.963,-10.300,-8.218,-0.066,1.003,0.009,-0.946,-1.831,0.183,73.333,829800.000,1.000
-1.156,0.409,4.216,-4.294,-1.871,-2.877,-0.293,-2.993,-0.067,1.003,0.010,-0.977,-1.862,0.153,73.333,829801.000,1.000
-1.236,1.375,5.769,-2.328,2.426,2.522,9.240,2.403,-0.066,1.003,0.009,-1.068,-1.892,0.214,73.333,829802.000,1.000
-1.672,2.138,5.320,-1.470,5.449,5.834,14.085,5.853,-0.067,1.001,0.008,-0.946,-1.831,0.275,73.333,829803.000,1.000
-2.670,2.224,3.649,-2.028,6.251,6.099,13.708,6.564,-0.065,1.002,0.002,-0.946,-1.740,0.397,73.333,829804.000,1.000
-4.050,1.780,1.868,-3.484,5.416,5.093,10.827,5.301,-0.066,1.003,0.002,-0.854,-1.617,0.366,73.333,829805.000,1.000
-5.384,1.242,0.406,-4.983,4.185,5.082,8.430,3.528,-0.063,1.000,0.005,-0.854,-1.678,0.366,73.333,829806.000,1.000
-6.152,0.901,-0.773,-5.821,3.337,6.632,7.600,2.340,-0.065,1.001,0.004,-0.916,-1.587,0.397,73.333,829807.000,1.000
-5.973,0.861,-1.476,-5.537,3.091,8.861,8.165,2.439,-0.065,1.001,0.007,-0.763,-1.617,0.519,73.333,829808.000,1.000
-4.867,1.147,-1.313,-4.054,3.422,10.946,9.808,4.137,-0.066,1.001,0.006,-0.763,-1.556,0.549,73.333,829809.000,1.000
-3.252,1.608,-0.420,-1.921,3.938,12.553,11.686,6.776,-0.066,1.003,0.005,-0.854,-1.404,0.488,73.333,829810.000,1.000
-1.652,1.854,0.384,-0.144,3.852,13.289,12.352,8.783,-0.064,1.001,0.006,-0.793,-1.404,0.671,73.333,829811.000,1.000
-0.434,1.493,0.361,0.424,2.473,12.605,10.858,8.612,-0.064,1.000,0.003,-0.763,-1.343,0.671,73.333,829812.000,1.000
0.214,0.379,-0.599,-0.498,-0.437,10.096,7.012,5.408,-0.066,0.999,0.001,-0.702,-1.343,0.671,73.333,829813.000,1.000
0.167,-1.436,-2.223,-2.677,-4.727,5.413,0.686,-0.758,-0.066,1.000,0.001,-0.580,-1.343,0.671,73.333,829814.000,1.000
-0.586,-3.735,-4.188,-5.475,-9.684,-1.287,-7.456,-8.379,-0.068,1.000,0.003,-0.671,-1.343,0.702,73.333,829815.000,1.000
-1.678,-5.894,-6.018,-7.859,-13.667,-8.013,-14.501,-14.425,-0.068,1.000,0.003,-0.641,-1.404,0.671,73.333,829816.000,1.000
-2.377,-7.024,-7.065,-8.764,-14.823,-11.450,-16.739,-15.948,-0.067,1.002,0.005,-0.610,-1.343,0.610,73.333,829817.000,1.000
-2.005,-6.624,-6.808,-7.677,-12.511,-9.962,-12.936,-12.115,-0.067,1.003,0.004,-0.641,-1.251,0.641,73.333,829818.000,1.000
-0.272,-4.835,-4.982,-4.835,-7.704,-5.045,-4.986,-4.630,-0.069,1.002,0.009,-0.580,-1.190,0.580,73.333,829819.000,1.000
2.607,-2.155,-1.777,-1.068,-2.267,0.306,3.468,3.223,-0.067,1.001,0.009,-0.824,-1.129,0.427,73.333,829820.000,1.000
5.909,0.805,1.910,2.523,1.988,3.807,8.562,8.176,-0.065,1.002,0.008,-0.854,-1.160,0.427,73.333,829821.000,1.000
8.584,3.402,4.787,5.024,4.071,4.874,8.213,8.608,-0.066,1.000,0.006,-0.916,-1.160,0.397,73.333,829822.000,1.000
9.632,4.997,5.849,6.003,3.966,4.068,3.379,5.112,-0.065,1.000,0.004,-0.885,-1.129,0.397,73.333,829823.000,1.000
8.547,5.100,4.900,5.523,2.279,2.047,-2.643,-0.135,-0.065,0.999,0.007,-0.824,-1.038,0.336,73.333,829824.000,1.000
5.593,3.628,2.504,4.024,-0.105,-0.578,-6.225,-4.662,-0.064,1.000,0.006,-0.824,-0.916,0.336,73.333,829825.000,1.000
1.676,0.989,-0.521,2.060,-2.385,-3.168,-5.807,-7.037,-0.063,0.999,0.004,-0.854,-0.946,0.336,73.333,829826.000,1.000
-2.019,-2.092,-3.460,0.065,-4.177,-5.442,-2.820,-7.341,-0.063,0.997,0.005,-0.885,-0.763,0.366,73.333,829827.000,1.000
-4.402,-4.797,-5.662,-1.592,-5.396,-7.331,0.031,-6.477,-0.063,0.996,0.005,-0.763,-0.580,0.275,73.333,829828.000,1.000
-4.921,-6.550,-6.555,-2.565,-6.102,-8.722,0.741,-5.477,-0.063,0.997,0.006,-0.854,-0.580,0.275,73.333,829829.000,1.000
-3.890,-7.363,-6.051,-2.767,-6.687,-9.953,-1.672,-5.409,-0.065,0.995,0.006,-0.732,-0.549,0.397,73.333,829830.000,1.000
-2.248,-7.621,-4.759,-2.463,-7.667,-11.757,-6.948,-7.049,-0.064,0.995,0.004,-0.702,-0.549,0.458,73.333,829831.000,1.000
-0.923,-7.482,-3.603,-1.995,-8.994,-14.108,-13.009,-10.089,-0.063,0.994,0.006,-0.580,-0.427,0.549,73.333,829832.000,1.000
-0.374,-6.587,-3.167,-1.477,-9.745,-15.342,-16.473,-12.938,-0.063,0.995,0.002,-0.488,-0.366,0.549,73.333,829833.000,1.000
-0.442,-4.409,-3.246,-0.808,-8.741,-13.077,-14.678,-13.644,-0.062,0.999,-0.001,-0.427,-0.336,0.610,73.333,829834.000,1.000
-0.571,-1.073,-3.179,0.025,-5.763,-6.944,-8.109,-11.414,-0.063,1.001,0.001,-0.397,-0.305,0.671,73.333,829835.000,1.000
-0.360,2.199,-2.686,0.666,-2.223,-0.226,-0.843,-7.508,-0.065,1.003,0.002,-0.366,-0.336,0.641,73.333,829836.000,1.000
0.122,3.758,-2.192,0.552,-0.263,2.418,2.333,-4.447,-0.068,1.005,0.001,-0.519,-0.214,0.793,73.333,829837.000,1.000
0.531,2.752,-2.350,-0.603,-1.047,-0.933,-0.256,-3.979,-0.068,1.006,0.004,-0.610,-0.183,0.793,73.333,829838.000,1.000
0.647,-0.171,-3.235,-2.435,-3.759,-7.657,-5.660,-5.640,-0.069,1.008,0.007,-0.671,-0.305,0.732,73.333,829839.000,1.000
0.592,-3.153,-4.016,-4.010,-6.097,-12.381,-8.288,-7.189,-0.070,1.009,0.008,-0.793,-0.244,0.702,73.333,829840.000,1.000
0.617,-4.436,-3.757,-4.572,-6.126,-11.238,-4.493,-6.659,-0.069,1.008,0.004,-0.946,-0.336,0.763,73.333,829841.000,1.000
0.641,-3.753,-2.700,-4.402,-4.095,-5.252,3.880,-4.385,-0.068,1.008,0.004,-1.129,-0.427,0.793,73.333,829842.000,1.000
0.172,-2.369,-2.366,-4.696,-2.283,0.612,10.750,-3.024,-0.065,1.005,0.007,-1.221,-0.519,0.824,73.333,829843.000,1.000
-1.177,-1.660,-3.965,-6.272,-2.684,2.086,11.345,-4.855,-0.058,1.002,0.005,-1.282,-0.488,0.793,73.333,829844.000,1.000
-3.166,-1.763,-6.888,-8.477,-4.888,-0.721,6.696,-8.865,-0.058,0.998,0.002,-1.343,-0.427,0.916,73.333,829845.000,1.000
-5.122,-1.843,-9.280,-9.778,-6.766,-4.527,1.892,-11.542,-0.059,0.999,0.002,-1.251,-0.183,1.007,73.333,829846.000,1.000
-6.671,-1.481,-10.052,-9.464,-7.092,-7.063,0.121,-10.885,-0.060,0.995,0.003,-1.129,-0.122,1.099,73.333,829847.000,1.000
-7.912,-1.155,-9.755,-8.253,-6.596,-8.648,-0.008,-8.535,-0.061,0.994,0.005,-1.129,0.031,1.190,73.333,829848.000,1.000
-8.858,-1.282,-9.401,-7.165,-6.423,-10.117,-1.123,-7.477,-0.063,0.995,0.008,-0.977,0.061,1.190,73.333,829849.000,1.000
-9.156,-1.462,-9.144,-6.413,-6.607,-10.986,-3.273,-8.695,-0.066,0.997,0.005,-0.916,0.031,1.282,73.333,829850.000,1.000
-8.499,-0.952,-8.427,-5.593,-6.377,-10.020,-4.563,-10.715,-0.064,1.001,0.006,-0.763,0.122,1.282,73.333,829851.000,1.000
-7.079,0.559,-6.952,-4.432,-5.161,-6.667,-3.760,-11.413,-0.065,1.004,0.006,-0.702,-0.061,1.404,73.333,829852.000,1.000
-5.587,2.697,-5.177,-3.087,-2.996,-1.650,-0.946,-9.615,-0.065,1.004,0.005,-0.824,-0.122,1.404,73.333,829853.000,1.000
-4.886,4.517,-4.006,-2.034,-0.565,3.088,2.950,-5.701,-0.065,1.004,0.004,-0.732,-0.092,1.343,73.333,829854.000,1.000
-5.505,4.947,-4.097,-1.761,1.015,5.004,6.309,-1.205,-0.063,1.004,0.002,-0.763,-0.153,1.373,73.333,829855.000,1.000
-7.147,3.679,-5.232,-2.314,1.131,3.161,8.012,2.443,-0.066,1.002,0.006,-0.854,-0.153,1.434,73.333,829856.000,1.000
-8.748,1.690,-6.410,-3.171,0.483,0.133,9.002,4.837,-0.069,1.002,0.003,-0.763,-0.183,1.404,73.333,829857.000,1.000
-9.315,0.329,-6.859,-3.808,0.215,-0.354,11.045,6.097,-0.070,1.001,0.006,-0.702,-0.275,1.373,73.333,829858.000,1.000
-8.747,-0.012,-6.814,-4.286,0.438,2.455,14.115,6.042,-0.071,1.003,0.009,-0.763,-0.397,1.190,73.333,829859.000,1.000
-7.668,0.068,-7.019,-4.973,0.325,6.298,16.405,4.395,-0.074,1.002,0.009,-0.763,-0.610,1.068,73.333,829860.000,1.000
-6.809,-0.275,-7.898,-5.986,-0.897,8.324,15.877,1.272,-0.076,1.004,0.010,-0.793,-0.732,0.793,73.333,829861.000,1.000
-6.709,-1.738,-9.454,-7.127,-3.459,6.322,11.379,-2.601,-0.077,1.004,0.008,-0.946,-0.885,0.610,73.333,829862.000,1.000
-7.535,-4.392,-11.319,-7.937,-6.588,0.169,4.219,-5.549,-0.074,1.006,0.010,-1.190,-1.068,0.397,73.333,829863.000,1.000
-8.894,-7.330,-12.646,-7.861,-8.623,-7.312,-1.989,-5.677,-0.070,1.006,0.007,-1.221,-1.221,0.244,73.333,829864.000,1.000
-10.045,-9.307,-12.590,-6.841,-8.537,-12.773,-4.921,-3.151,-0.067,1.007,0.005,-1.312,-1.404,0.214,73.333,829865.000,1.000
-10.315,-9.541,-10.918,-5.480,-6.781,-14.712,-5.325,-0.650,-0.065,1.007,0.005,-1.373,-1.434,0.122,73.333,829866.000,1.000
-9.271,-7.715,-7.869,-4.277,-4.085,-12.737,-4.259,-0.345,-0.061,1.007,0.004,-1.404,-1.495,0.092,73.333,829867.000,1.000
-6.922,-4.043,-3.935,-3.124,-0.592,-6.969,-1.494,-1.648,-0.060,1.006,0.006,-1.434,-1.373,0.153,73.333,829868.000,1.000
-3.963,0.304,-0.022,-1.802,3.280,0.662,2.504,-2.612,-0.058,1.006,0.007,-1.434,-1.282,0.183,73.333,829869.000,1.000
-1.509,3.524,2.719,-0.444,6.338,6.591,5.679,-2.169,-0.059,1.004,0.005,-1.434,-1.251,0.122,73.333,829870.000,1.000
-0.374,4.381,3.612,0.705,7.559,8.313,6.265,-0.438,-0.060,1.002,0.005,-1.312,-1.190,0.244,73.333,829871.000,1.000
-0.624,2.926,2.819,1.619,6.896,5.992,4.244,1.967,-0.058,1.002,0.007,-1.373,-1.038,0.336,73.333,829872.000,1.000
-1.676,0.157,1.006,2.397,4.979,1.496,0.761,4.164,-0.060,0.998,0.007,-1.190,-0.916,0.458,73.333,829873.000,1.000
-2.679,-2.632,-1.018,3.099,2.572,-2.987,-2.998,5.193,-0.059,0.998,0.006,-1.068,-0.824,0.458,73.333,829874.000,1.000
-2.903,-4.273,-2.387,3.825,0.543,-5.375,-5.758,4.859,-0.060,0.999,0.008,-0.946,-0.793,0.519,73.333,829875.000,1.000
-2.080,-4.034,-2.403,4.756,-0.141,-3.985,-5.702,4.149,-0.062,0.998,0.007,-0.916,-0.732,0.610,73.333,829876.000,1.000
-0.575,-2.057,-1.114,5.813,0.828,1.211,-1.975,4.022,-0.064,0.999,0.009,-0.854,-0.641,0.671,73.333,829877.000,1.000
0.859,0.538,0.450,6.455,2.412,7.564,3.295,4.091,-0.065,0.998,0.007,-0.702,-0.641,0.549,73.333,829878.000,1.000
1.639,2.342,1.040,6.145,2.987,11.289,6.256,3.246,-0.067,0.994,0.005,-0.641,-0.671,0.549,73.333,829879.000,1.000
1.801,2.688,0.298,5.027,1.932,10.728,5.074,1.244,-0.066,0.993,0.008,-0.610,-0.763,0.549,73.333,829880.000,1.000
2.010,2.142,-0.832,4.041,0.280,7.838,1.755,-0.824,-0.067,0.994,0.009,-0.458,-0.702,0.610,73.333,829881.000,1.000
3.071,1.972,-0.896,4.253,-0.239,6.108,-0.008,-1.335,-0.068,0.994,0.011,-0.427,-0.763,0.580,73.333,829882.000,1.000
5.203,2.953,0.702,5.923,1.211,7.141,1.581,0.707,-0.067,0.996,0.009,-0.336,-0.671,0.458,73.333,829883.000,1.000
7.791,4.723,3.199,8.246,3.941,9.702,5.239,4.878,-0.067,0.998,0.009,-0.275,-0.610,0.427,73.333,829884.000,1.000
9.929,6.326,5.282,10.007,6.489,11.717,8.260,9.348,-0.067,0.999,0.010,-0.214,-0.763,0.366,73.333,829885.000,1.000
11.063,7.132,6.193,10.466,7.797,12.435,8.832,11.901,-0.068,0.999,0.011,-0.244,-0.732,0.427,73.333,829886.000,1.000
11.169,7.176,6.059,9.707,7.781,12.521,7.108,11.402,-0.065,0.999,0.008,-0.122,-0.916,0.488,73.333,829887.000,1.000
10.585,6.797,5.376,8.301,6.915,12.435,4.053,8.311,-0.065,0.998,0.008,-0.244,-0.946,0.519,73.333,829888.000,1.000
9.711,6.155,4.498,6.769,5.514,11.349,-0.218,3.969,-0.066,1.001,0.008,-0.397,-0.885,0.488,73.333,829889.000,1.000
8.801,5.212,3.761,5.491,3.704,8.118,-5.983,-0.139,-0.064,1.000,0.009,-0.336,-0.885,0.610,73.333,829890.000,1.000
8.056,4.143,3.800,4.929,2.037,3.265,-11.868,-2.569,-0.063,1.000,0.009,-0.336,-0.854,0.580,73.333,829891.000,1.000
7.735,3.482,5.247,5.491,1.509,-0.901,-14.830,-2.352,-0.062,0.999,0.007,-0.397,-0.824,0.702,73.333,829892.000,1.000
7.956,3.599,7.921,6.996,2.491,-2.628,-13.206,0.057,-0.065,1.000,0.009,-0.519,-0.977,0.702,73.333,829893.000,1.000
8.506,4.294,10.712,8.574,4.194,-2.035,-8.473,2.760,-0.064,1.000,0.010,-0.458,-1.038,0.793,73.333,829894.000,1.000
8.914,4.863,12.319,9.200,5.245,-0.675,-4.087,3.714,-0.063,1.001,0.007,-0.488,-0.977,0.885,73.333,829895.000,1.000
8.612,4.219,11.818,8.143,4.224,-1.385,-3.980,1.727,-0.064,1.001,0.007,-0.610,-0.946,0.885,73.333,829896.000,1.000
7.328,1.549,9.052,5.390,0.473,-6.615,-10.262,-3.040,-0.063,1.000,0.007,-0.610,-0.854,0.946,73.333,829897.000,1.000
5.562,-2.582,5.027,2.016,-4.747,-15.220,-20.621,-8.685,-0.062,1.000,0.007,-0.671,-0.824,1.038,73.333,829898.000,1.000
4.311,-6.283,1.539,-0.364,-8.694,-22.607,-29.352,-12.319,-0.063,0.999,0.005,-0.702,-0.824,1.099,73.333,829899.000,1.000
4.170,-7.816,-0.015,-0.794,-9.252,-24.526,-31.424,-12.046,-0.063,1.000,0.005,-0.763,-0.793,1.068,73.333,829900.000,1.000
4.937,-6.631,0.634,0.537,-6.135,-19.313,-24.847,-8.164,-0.061,1.000,0.005,-0.793,-0.763,1.038,73.333,829901.000,1.000
6.061,-3.262,2.839,2.784,-0.504,-7.777,-10.836,-2.613,-0.061,1.000,0.006,-0.793,-0.671,1.129,73.333,829902.000,1.000
7.024,0.865,5.350,4.926,5.436,6.164,5.453,2.168,-0.064,1.002,0.009,-0.885,-0.702,1.190,73.333,829903.000,1.000
7.345,3.710,6.633,5.992,8.963,15.904,15.936,4.189,-0.063,1.003,0.003,-0.946,-0.732,1.099,73.333,829904.000,1.000
6.702,3.742,5.698,5.431,8.384,16.381,14.936,2.850,-0.064,1.002,0.005,-1.160,-0.641,0.916,73.333,829905.000,1.000
5.191,1.000,2.791,3.455,4.201,7.818,3.371,-0.684,-0.065,1.000,0.003,-1.160,-0.732,0.977,73.333,829906.000,1.000
3.311,-3.096,-0.869,0.922,-1.405,-5.052,-12.645,-4.255,-0.064,1.000,0.004,-1.221,-0.580,0.946,73.333,829907.000,1.000
1.654,-6.758,-3.952,-1.164,-5.922,-16.153,-25.728,-6.113,-0.066,1.002,0.007,-1.129,-0.549,0.946,73.333,829908.000,1.000
0.662,-8.686,-5.611,-2.154,-7.589,-20.919,-30.548,-5.693,-0.065,1.002,0.008,-1.160,-0.580,0.824,73.333,829909.000,1.000
0.538,-8.488,-5.618,-1.960,-5.997,-18.236,-25.836,-3.369,-0.066,1.004,0.007,-1.221,-0.580,0.824,73.333,829910.000,1.000
1.061,-6.793,-4.409,-1.112,-2.291,-10.885,-14.608,-0.196,-0.068,1.006,0.003,-1.373,-0.641,0.671,73.333,829911.000,1.000
1.482,-4.982,-3.053,-0.639,1.181,-3.943,-2.811,2.049,-0.068,1.008,0.008,-1.465,-0.671,0.641,73.333,829912.000,1.000
0.921,-4.342,-2.763,-1.468,2.146,-1.681,3.492,1.624,-0.068,1.007,0.009,-1.648,-0.732,0.610,73.333,829913.000,1.000
-0.931,-5.128,-4.074,-3.632,0.010,-4.764,1.978,-1.746,-0.067,1.005,0.011,-1.740,-0.763,0.549,73.333,829914.000,1.000
-3.504,-6.396,-6.429,-6.140,-3.664,-9.812,-3.978,-6.422,-0.068,1.004,0.011,-1.953,-0.885,0.549,73.333,829915.000,1.000
-5.756,-6.895,-8.625,-7.710,-6.437,-12.215,-8.280,-9.878,-0.065,1.003,0.010,-1.984,-0.824,0.488,73.333,829916.000,1.000
-6.987,-6.322,-9.801,-7.714,-7.056,-10.370,-7.976,-10.435,-0.064,1.000,0.008,-1.923,-0.854,0.488,73.333,829917.000,1.000
-7.299,-5.641,-10.083,-6.599,-6.337,-6.918,-5.602,-8.552,-0.063,0.999,0.009,-1.770,-0.732,0.549,73.333,829918.000,1.000
-7.256,-5.951,-10.168,-5.413,-5.959,-5.305,-5.286,-6.405,-0.062,1.001,0.005,-1.740,-0.732,0.671,73.333,829919.000,1.000
-7.279,-7.281,-10.401,-4.910,-6.674,-6.130,-7.989,-5.849,-0.060,1.002,0.005,-1.617,-0.763,0.671,73.333,829920.000,1.000
-7.540,-8.744,-10.514,-5.097,-7.904,-7.518,-11.308,-6.812,-0.061,1.000,0.007,-1.556,-0.793,0.732,73.333,829921.000,1.000
-8.105,-9.487,-10.094,-5.498,-8.622,-7.548,-12.289,-7.801,-0.060,0.997,0.007,-1.465,-0.671,0.885,73.333,829922.000,1.000
-8.773,-9.066,-8.877,-5.518,-7.979,-4.915,-8.920,-7.357,-0.061,0.995,0.007,-1.556,-0.519,0.946,73.333,829923.000,1.000
-8.937,-7.342,-6.690,-4.585,-5.410,1.227,-0.466,-4.709,-0.062,0.995,0.009,-1.282,-0.519,1.007,73.333,829924.000,1.000
-8.071,-4.736,-3.718,-2.544,-1.251,9.706,10.850,-0.151,-0.065,0.996,0.008,-1.221,-0.427,1.160,73.333,829925.000,1.000
-6.373,-2.496,-0.878,-0.205,2.602,16.127,19.059,4.349,-0.071,0.997,0.010,-0.977,-0.458,1.129,73.333,829926.000,1.000
-4.751,-2.168,0.478,0.827,3.492,15.101,17.848,5.695,-0.075,0.996,0.012,-0.946,-0.488,0.977,73.333,829927.000,1.000
-4.039,-4.436,-0.417,-0.649,0.062,4.588,5.708,2.031,-0.078,0.996,0.012,-0.824,-0.641,0.763,73.333,829928.000,1.000
-4.182,-8.355,-2.931,-4.274,-6.379,-11.807,-12.287,-5.359,-0.078,0.999,0.011,-0.732,-0.916,0.610,73.333,829929.000,1.000
-4.294,-11.866,-5.357,-8.345,-12.734,-27.212,-28.054,-13.001,-0.075,1.000,0.011,-0.641,-1.038,0.427,73.333,829930.000,1.000
-3.414,-13.095,-6.046,-11.018,-16.105,-35.806,-35.553,-17.578,-0.073,0.999,0.012,-0.641,-1.221,0.336,73.333,829931.000,1.000
-1.157,-11.111,-4.214,-11.155,-14.908,-34.723,-32.580,-17.173,-0.072,1.000,0.011,-0.641,-1.343,0.366,73.333,829932.000,1.000
2.028,-6.144,-0.127,-8.626,-9.198,-24.157,-20.352,-11.630,-0.070,1.001,0.010,-0.610,-1.373,0.244,73.333,829933.000,1.000
4.996,0.357,5.029,-4.390,-0.861,-7.673,-3.161,-2.777,-0.067,1.003,0.008,-0.488,-1.343,0.183,73.333,829934.000,1.000
6.509,6.208,9.605,-0.110,6.984,8.553,12.965,6.054,-0.066,1.003,0.007,-0.458,-1.465,0.305,73.333,829935.000,1.000
6.044,9.673,12.271,2.788,11.666,18.813,23.056,11.705,-0.067,1.002,0.003,-0.488,-1.556,0.336,73.333,829936.000,1.000
4.252,10.573,12.815,4.054,12.627,21.320,25.746,13.241,-0.066,1.003,0.009,-0.519,-1.465,0.397,73.333,829937.000,1.000
2.575,10.159,12.144,4.572,11.395,18.522,23.311,12.248,-0.065,1.005,0.002,-0.458,-1.495,0.427,73.333,829938.000,1.000
2.182,9.775,11.319,5.309,9.836,13.942,18.949,11.017,-0.065,1.003,0.004,-0.458,-1.495,0.549,73.333,829939.000,1.000
3.286,9.923,10.866,6.636,8.908,9.751,14.567,10.947,-0.063,1.005,0.004,-0.397,-1.434,0.488,73.333,829940.000,1.000
5.308,10.548,10.942,8.518,8.959,7.371,11.404,12.452,-0.065,1.003,0.004,-0.397,-1.373,0.641,73.333,829941.000,1.000
7.347,11.545,11.595,10.790,10.185,8.105,10.996,15.294,-0.064,1.002,0.005,-0.366,-1.312,0.763,73.333,829942.000,1.000
8.523,12.653,12.599,13.011,12.249,11.701,13.933,18.415,-0.064,1.001,0.007,-0.336,-1.343,0.763,73.333,829943.000,1.000
8.240,13.380,13.397,14.391,14.064,15.849,18.512,19.876,-0.064,1.002,0.007,-0.244,-1.251,0.824,73.333,829944.000,1.000
6.546,13.425,13.537,14.332,14.636,18.338,21.914,18.146,-0.064,1.002,0.010,-0.061,-1.251,0.885,73.333,829945.000,1.000
4.186,12.767,12.913,12.930,13.675,17.984,21.693,13.641,-0.066,1.001,0.008,-0.214,-1.221,0.885,73.333,829946.000,1.000
2.023,11.102,11.364,10.564,10.963,13.147,15.713,8.067,-0.064,1.000,0.008,-0.153,-1.129,0.854,73.333,829947.000,1.000
0.548,8.040,8.674,7.466,6.294,2.781,3.583,2.732,-0.065,1.000,0.008,-0.092,-1.068,0.916,73.333,829948.000,1.000
-0.007,4.082,5.213,4.064,0.560,-10.496,-10.965,-1.638,-0.063,0.998,0.005,-0.153,-1.068,0.885,73.333,829949.000,1.000
0.447,0.476,1.905,1.146,-4.376,-21.455,-21.991,-4.426,-0.063,0.998,0.004,-0.092,-1.007,0.885,73.333,829950.000,1.000
1.724,-1.816,-0.454,-0.614,-7.066,-26.225,-25.800,-5.250,-0.065,0.998,0.006,-0.031,-1.038,0.763,73.333,829951.000,1.000
3.439,-2.375,-1.375,-0.946,-6.952,-23.564,-21.936,-4.106,-0.065,0.999,0.005,0.092,-1.068,0.580,73.333,829952.000,1.000
5.188,-1.092,-0.607,0.037,-4.145,-14.213,-11.875,-1.370,-0.066,0.999,0.007,-0.061,-0.977,0.641,73.333,829953.000,1.000
6.460,1.515,1.445,1.686,0.251,-1.323,0.890,1.976,-0.067,0.998,0.007,0.000,-0.946,0.641,73.333,829954.000,1.000
6.667,4.146,3.534,2.894,4.143,9.890,11.202,4.545,-0.067,0.999,0.008,-0.031,-0.946,0.610,73.333,829955.000,1.000
5.604,5.611,4.402,2.840,5.824,15.390,15.379,5.590,-0.066,1.000,0.007,0.000,-0.916,0.580,73.333,829956.000,1.000
3.768,5.867,3.851,1.693,5.368,15.398,14.080,5.689,-0.066,1.001,0.010,-0.061,-0.946,0.488,73.333,829957.000,1.000
2.020,5.873,2.764,0.405,4.315,13.495,11.174,6.022,-0.068,1.001,0.010,-0.061,-1.007,0.458,73.333,829958.000,1.000
0.978,6.647,2.265,-0.064,4.239,13.229,10.357,7.243,-0.069,1.001,0.009,-0.092,-1.038,0.458,73.333,829959.000,1.000
0.758,8.534,2.981,0.734,5.690,15.695,12.624,9.175,-0.067,0.999,0.008,-0.214,-0.916,0.488,73.333,829960.000,1.000
1.058,10.894,4.636,2.512,7.772,18.838,15.279,10.867,-0.065,1.002,0.010,-0.244,-0.885,0.488,73.333,829961.000,1.000
1.418,12.468,6.236,4.489,8.821,19.289,14.095,11.158,-0.067,0.999,0.005,-0.305,-0.946,0.549,73.333,829962.000,1.000
1.596,12.461,6.964,6.086,8.065,16.006,7.969,9.879,-0.067,0.998,0.007,-0.214,-0.977,0.519,73.333,829963.000,1.000
1.648,11.070,6.707,7.158,6.130,11.099,0.013,7.853,-0.069,0.997,0.005,-0.305,-0.916,0.610,73.333,829964.000,1.000
1.711,9.030,5.804,7.630,3.976,7.265,-5.837,5.646,-0.068,0.998,0.002,-0.305,-0.916,0.641,73.333,829965.000,1.000
1.910,7.115,4.729,7.442,2.208,5.870,-7.418,3.325,-0.067,0.997,0.005,-0.244,-1.007,0.641,73.333,829966.000,1.000
2.348,5.791,3.858,6.679,0.981,6.366,-5.256,0.945,-0.067,0.996,0.004,-0.244,-1.007,0.580,73.333,829967.000,1.000
2.937,4.850,3.132,5.420,-0.194,6.224,-2.850,-1.560,-0.066,0.996,0.005,-0.275,-1.007,0.702,73.333,829968.000,1.000
3.250,3.491,2.002,3.640,-2.195,2.337,-4.507,-4.355,-0.065,0.997,0.007,-0.366,-1.038,0.824,73.333,829969.000,1.000
2.761,1.053,-0.024,1.411,-5.400,-6.361,-11.669,-7.281,-0.066,0.998,0.005,-0.244,-0.977,0.916,73.333,829970.000,1.000
1.320,-2.235,-2.771,-0.951,-9.149,-17.283,-21.674,-10.002,-0.066,0.998,0.006,-0.336,-1.007,0.977,73.333,829971.000,1.000
-0.605,-5.196,-5.326,-2.929,-11.977,-25.175,-29.566,-12.262,-0.066,0.999,0.006,-0.366,-0.977,0.885,73.333,829972.000,1.000
-2.139,-6.459,-6.558,-3.886,-12.323,-25.395,-30.891,-13.402,-0.067,1.001,0.003,-0.305,-1.038,0.916,73.333,829973.000,1.000
-2.520,-5.480,-5.873,-3.348,-9.474,-17.184,-24.203,-12.224,-0.068,1.001,0.005,-0.336,-1.160,0.946,73.333,829974.000,1.000
-1.556,-2.892,-3.586,-1.419,-4.136,-4.016,-11.772,-8.118,-0.066,1.001,0.007,-0.305,-1.190,0.916,73.333,829975.000,1.000
0.269,0.080,-0.674,1.111,1.969,9.216,2.204,-2.123,-0.065,1.001,0.006,-0.397,-1.221,0.946,73.333,829976.000,1.000
2.033,2.305,1.700,3.072,6.877,18.629,13.382,3.411,-0.067,1.002,0.009,-0.397,-1.160,0.946,73.333,829977.000,1.000
2.775,2.968,2.522,3.391,8.790,21.519,17.595,6.080,-0.065,1.001,0.007,-0.488,-1.160,0.946,73.333,829978.000,1.000
1.979,1.850,1.408,1.606,6.771,16.884,12.401,4.654,-0.065,1.000,0.007,-0.671,-1.190,0.946,73.333,829979.000,1.000
-0.067,-0.206,-0.870,-1.661,1.934,7.425,0.307,0.011,-0.066,0.999,0.005,-0.763,-1.099,0.946,73.333,829980.000,1.000
-2.508,-1.669,-2.737,-4.920,-2.769,-1.128,-11.556,-5.109,-0.063,1.000,0.005,-0.702,-0.977,0.793,73.333,829981.000,1.000
-4.633,-1.725,-3.131,-6.912,-4.972,-4.951,-17.183,-8.135,-0.062,1.000,0.007,-0.793,-0.885,0.824,73.333,829982.000,1.000
-6.191,-0.986,-2.306,-7.393,-4.687,-5.286,-16.145,-8.423,-0.063,1.001,0.007,-0.824,-0.946,0.793,73.333,829983.000,1.000
-7.053,-0.505,-1.188,-6.707,-3.287,-5.383,-11.610,-6.788,-0.064,1.003,0.007,-0.854,-0.885,0.671,73.333,829984.000,1.000
-6.919,-0.558,-0.322,-5.041,-1.660,-6.137,-6.121,-4.111,-0.064,1.003,0.007,-0.824,-0.793,0.671,73.333,829985.000,1.000
-5.496,-0.598,0.416,-2.363,0.199,-5.874,-0.264,-0.818,-0.064,1.003,0.007,-0.824,-0.824,0.610,73.333,829986.000,1.000
-2.917,-0.057,1.375,1.121,2.438,-3.010,5.982,2.670,-0.065,1.002,0.003,-0.885,-0.702,0.641,73.333,829987.000,1.000
0.078,1.001,2.517,4.704,4.701,2.116,11.804,5.542,-0.064,1.001,0.003,-0.854,-0.793,0.641,73.333,829988.000,1.000
2.486,2.037,3.359,7.524,6.361,7.670,15.893,7.234,-0.063,1.001,0.004,-0.763,-0.580,0.580,73.333,829989.000,1.000
3.537,2.410,3.302,8.939,6.826,11.242,16.993,7.747,-0.062,1.002,0.004,-0.793,-0.610,0.549,73.333,829990.000,1.000
2.908,1.514,1.901,8.540,5.381,10.402,13.769,6.673,-0.062,1.001,0.008,-0.854,-0.519,0.610,73.333,829991.000,1.000
0.967,-0.600,-0.588,6.499,2.021,5.023,6.974,3.508,-0.063,1.001,0.008,-0.732,-0.458,0.610,73.333,829992.000,1.000
-1.064,-2.571,-2.766,4.082,-1.353,-0.749,1.378,-0.526,-0.064,1.002,0.005,-0.763,-0.366,0.671,73.333,829993.000,1.000
-1.779,-2.736,-3.033,2.892,-2.298,-2.031,1.482,-2.981,-0.062,1.001,0.004,-0.732,-0.336,0.671,73.333,829994.000,1.000
-0.758,-0.983,-1.241,3.315,-0.667,1.108,5.638,-3.056,-0.062,1.000,0.008,-0.793,-0.397,0.732,73.333,829995.000,1.000
1.084,1.080,1.034,4.171,1.154,3.911,7.631,-2.443,-0.063,1.001,0.008,-0.671,-0.244,0.854,73.333,829996.000,1.000
2.396,1.749,1.983,4.014,0.901,2.383,3.579,-2.914,-0.065,1.004,0.008,-0.702,-0.183,0.885,73.333,829997.000,1.000
2.573,0.758,1.172,2.536,-1.365,-2.868,-4.271,-4.159,-0.064,1.001,0.006,-0.763,-0.092,0.885,73.333,829998.000,1.000
2.078,-0.672,-0.296,0.600,-3.674,-7.654,-10.145,-4.632,-0.064,1.000,0.006,-0.641,-0.031,0.916,73.333,829999.000,1.000
1.765,-1.006,-0.995,-0.834,-4.215,-8.153,-10.008,-3.782,-0.063,1.000,0.007,-0.610,-0.031,0.916,73.333,830000.000,1.000
2.191,0.555,-0.279,-1.418,-2.564,-3.540,-3.952,-2.443,-0.066,1.003,0.007,-0.610,-0.031,0.916,73.333,830001.000,1.000
3.421,3.781,1.555,-1.314,0.504,4.018,4.653,-1.587,-0.066,1.001,0.008,-0.671,-0.061,0.977,73.333,830002.000,1.000
5.004,7.497,3.608,-1.014,3.514,10.559,10.877,-1.635,-0.066,1.000,0.007,-0.580,-0.061,0.977,73.333,830003.000,1.000
6.089,10.100,4.855,-1.175,4.956,12.627,11.158,-2.611,-0.064,1.001,0.006,-0.580,-0.122,1.068,73.333,830004.000,1.000
5.994,10.552,4.755,-2.154,4.280,9.707,6.064,-4.096,-0.066,1.001,0.005,-0.549,-0.244,0.946,73.333,830005.000,1.000
4.768,9.024,3.570,-3.586,2.318,4.250,-0.409,-5.017,-0.067,1.002,0.004,-0.580,-0.244,1.068,73.333,830006.000,1.000
3.093,6.566,2.084,-4.672,0.576,-0.508,-4.177,-4.210,-0.067,1.003,0.007,-0.641,-0.214,0.977,73.333,830007.000,1.000
1.697,4.302,1.043,-4.851,0.098,-2.363,-3.626,-1.556,-0.068,1.001,0.009,-0.641,-0.336,0.916,73.333,830008.000,1.000
0.938,2.887,0.797,-4.037,1.038,-0.737,0.150,1.958,-0.066,1.003,0.008,-0.671,-0.427,0.977,73.333,830009.000,1.000
0.706,2.359,1.254,-2.414,2.901,3.050,4.671,5.415,-0.069,1.003,0.004,-0.763,-0.397,0.946,73.333,830010.000,1.000
0.581,2.319,1.984,-0.282,4.994,6.406,7.969,8.733,-0.066,1.004,0.006,-0.763,-0.458,0.916,73.333,830011.000,1.000
0.223,2.426,2.594,1.993,6.842,7.541,9.763,12.133,-0.067,1.003,0.005,-0.671,-0.549,1.007,73.333,830012.000,1.000
-0.351,2.653,2.988,3.997,8.134,6.642,10.480,15.015,-0.067,1.002,0.009,-0.702,-0.610,0.977,73.333,830013.000,1.000
-0.925,3.004,3.153,5.196,8.424,4.888,9.836,15.752,-0.067,1.000,0.008,-0.702,-0.610,0.946,73.333,830014.000,1.000
-1.354,3.238,2.919,5.083,7.317,3.181,7.252,13.022,-0.067,0.999,0.010,-0.671,-0.732,0.854,73.333,830015.000,1.000
-1.628,2.882,2.000,3.517,4.785,1.533,2.702,7.065,-0.064,0.998,0.009,-0.824,-0.854,0.885,73.333,830016.000,1.000
-1.847,1.399,0.135,0.813,1.067,-0.881,-3.366,-0.579,-0.063,0.998,0.008,-0.671,-0.824,0.916,73.333,830017.000,1.000
-2.142,-1.397,-2.701,-2.377,-3.258,-4.511,-9.785,-7.814,-0.064,0.997,0.008,-0.671,-0.793,0.916,73.333,830018.000,1.000
-2.521,-4.830,-5.960,-5.126,-6.845,-7.924,-13.914,-12.211,-0.063,0.998,0.005,-0.580,-0.732,0.854,73.333,830019.000,1.000
-2.747,-7.438,-8.458,-6.413,-7.866,-8.192,-12.550,-11.747,-0.063,1.000,0.007,-0.549,-0.763,0.793,73.333,830020.000,1.000
-2.522,-7.940,-9.046,-5.745,-5.417,-3.681,-4.956,-6.393,-0.065,0.999,0.004,-0.549,-0.824,0.793,73.333,830021.000,1.000
-1.798,-6.213,-7.510,-3.705,-0.590,3.861,5.596,1.249,-0.065,0.998,0.006,-0.519,-0.854,0.763,73.333,830022.000,1.000
-0.853,-3.199,-4.747,-1.649,4.264,10.836,14.288,7.489,-0.064,0.998,0.007,-0.549,-0.732,0.824,73.333,830023.000,1.000
-0.142,-0.146,-2.228,-0.912,7.093,14.610,17.960,9.729,-0.063,1.000,0.005,-0.427,-0.702,0.763,73.333,830024.000,1.000
-0.111,1.895,-1.268,-2.221,6.892,14.054,15.703,7.423,-0.061,0.999,0.005,-0.458,-0.610,0.702,73.333,830025.000,1.000
-0.895,2.444,-2.290,-5.323,3.895,9.189,8.571,1.996,-0.061,0.999,0.006,-0.427,-0.641,0.702,73.333,830026.000,1.000
-2.133,1.968,-4.497,-8.952,-0.302,1.804,-0.229,-3.751,-0.062,0.998,0.006,-0.427,-0.610,0.610,73.333,830027.000,1.000
-3.233,1.578,-6.414,-11.489,-3.417,-4.750,-6.357,-6.889,-0.062,0.998,0.006,-0.397,-0.519,0.580,73.333,830028.000,1.000
-3.825,2.050,-6.946,-11.973,-3.901,-7.709,-6.862,-5.877,-0.063,0.997,0.002,-0.336,-0.549,0.610,73.333,830029.000,1.000
-3.854,3.267,-5.879,-10.509,-1.788,-6.639,-1.830,-1.260,-0.063,1.000,0.003,-0.366,-0.610,0.519,73.333,830030.000,1.000
-3.403,4.548,-3.668,-7.936,1.626,-2.905,6.016,4.748,-0.064,1.001,0.005,-0.488,-0.580,0.488,73.333,830031.000,1.000
-2.608,5.209,-1.160,-5.291,4.600,1.694,12.763,9.314,-0.063,1.000,0.007,-0.366,-0.549,0.519,73.333,830032.000,1.000
-1.664,4.867,0.675,-3.359,5.745,5.429,15.221,10.391,-0.066,1.001,0.002,-0.488,-0.580,0.458,73.333,830033.000,1.000
-0.800,3.568,1.199,-2.352,4.679,6.798,12.740,7.983,-0.065,1.002,0.001,-0.488,-0.519,0.458,73.333,830034.000,1.000
-0.186,1.798,0.614,-1.827,2.318,5.403,7.682,4.403,-0.064,1.003,0.004,-0.580,-0.580,0.610,73.333,830035.000,1.000
0.179,0.334,-0.049,-0.990,0.424,2.816,3.995,2.831,-0.065,1.003,0.002,-0.519,-0.580,0.580,73.333,830036.000,1.000
0.280,-0.373,0.183,0.545,0.212,1.387,4.162,4.692,-0.066,1.002,0.004,-0.610,-0.641,0.519,73.333,830037.000,1.000
-0.166,-0.825,1.247,2.236,1.211,1.739,7.094,8.373,-0.065,1.002,0.003,-0.610,-0.671,0.549,73.333,830038.000,1.000
-1.422,-2.067,2.162,3.070,1.840,2.431,9.829,10.791,-0.066,1.002,0.002,-0.702,-0.671,0.610,73.333,830039.000,1.000
-3.208,-4.631,2.036,2.446,0.903,1.910,10.493,9.874,-0.065,1.003,0.002,-0.763,-0.763,0.641,73.333,830040.000,1.000
-4.722,-8.115,0.708,0.534,-1.717,-0.317,8.582,5.694,-0.065,1.001,0.006,-0.824,-0.824,0.580,73.333,830041.000,1.000
-5.175,-11.522,-1.267,-1.917,-5.195,-3.864,4.256,0.136,-0.066,1.002,0.007,-0.793,-0.885,0.641,73.333,830042.000,1.000
-4.229,-13.729,-2.854,-3.908,-8.053,-7.493,-0.848,-4.119,-0.067,1.000,0.009,-0.732,-0.977,0.671,73.333,830043.000,1.000
-2.083,-13.924,-2.961,-4.587,-8.759,-9.289,-3.648,-4.985,-0.068,1.001,0.006,-0.824,-1.038,0.763,73.333,830044.000,1.000
0.559,-12.164,-1.198,-3.812,-6.894,-8.165,-2.474,-2.449,-0.067,1.001,0.004,-0.793,-1.099,0.763,73.333,830045.000,1.000
2.629,-9.603,1.561,-2.406,-3.831,-5.423,0.572,1.197,-0.067,1.001,0.007,-0.732,-1.160,0.702,73.333,830046.000,1.000
3.200,-7.765,3.703,-1.551,-1.697,-3.921,1.554,3.358,-0.067,1.001,0.005,-0.702,-1.190,0.671,73.333,830047.000,1.000
2.181,-7.339,4.203,-1.791,-1.512,-5.336,-1.259,3.413,-0.068,1.002,0.009,-0.763,-1.099,0.702,73.333,830048.000,1.000
0.438,-7.713,3.320,-2.750,-2.583,-8.671,-6.235,2.615,-0.068,1.000,0.008,-0.732,-1.160,0.671,73.333,830049.000,1.000
-0.898,-7.676,2.078,-3.734,-3.546,-11.380,-10.539,2.240,-0.069,0.999,0.007,-0.763,-1.190,0.641,73.333,830050.000,1.000
-1.200,-6.295,1.389,-4.282,-3.341,-10.944,-11.673,2.719,-0.067,1.000,0.007,-0.641,-1.404,0.671,73.333,830051.000,1.000
-0.536,-3.226,1.705,-4.175,-1.366,-5.661,-7.640,4.122,-0.066,1.002,0.006,-0.732,-1.434,0.702,73.333,830052.000,1.000
0.551,1.053,2.933,-3.386,2.144,3.738,1.294,6.238,-0.065,1.002,0.004,-0.732,-1.526,0.763,73.333,830053.000,1.000
1.312,5.106,4.346,-2.203,5.694,13.007,11.038,8.302,-0.066,1.002,0.003,-0.763,-1.556,0.671,73.333,830054.000,1.000
1.138,7.320,5.007,-1.108,7.528,17.312,16.631,9.489,-0.066,1.000,0.004,-0.732,-1.404,0.671,73.333,830055.000,1.000
-0.124,7.098,4.559,-0.418,7.196,15.605,16.844,9.595,-0.065,1.000,0.001,-0.824,-1.404,0.732,73.333,830056.000,1.000
-2.186,4.989,3.342,-0.238,5.559,10.623,14.223,8.887,-0.065,0.999,0.005,-0.793,-1.434,0.732,73.333,830057.000,1.000
-4.618,1.885,1.759,-0.703,3.493,5.290,11.271,7.425,-0.064,0.999,0.005,-0.732,-1.404,0.702,73.333,830058.000,1.000
-6.986,-1.434,-0.117,-1.924,1.321,0.879,8.441,4.998,-0.064,1.000,0.003,-0.763,-1.434,0.732,73.333,830059.000,1.000
-8.733,-4.216,-2.223,-3.597,-0.728,-2.357,5.321,1.816,-0.064,1.000,0.004,-0.732,-1.404,0.702,73.333,830060.000,1.000
-9.215,-5.764,-4.132,-4.898,-2.099,-4.379,2.435,-0.975,-0.064,1.000,0.006,-0.732,-1.434,0.763,73.333,830061.000,1.000
-8.050,-5.612,-5.087,-4.853,-1.923,-4.702,1.980,-1.700,-0.063,1.001,0.004,-0.793,-1.434,0.702,73.333,830062.000,1.000
-5.476,-3.775,-4.522,-2.995,0.398,-2.486,6.222,0.624,-0.064,1.002,0.006,-0.854,-1.434,0.732,73.333,830063.000,1.000
-2.363,-0.993,-2.664,0.181,4.387,2.246,14.554,5.337,-0.064,1.002,0.006,-0.854,-1.312,0.732,73.333,830064.000,1.000
0.136,1.420,-0.542,3.380,8.416,7.915,22.993,10.265,-0.062,1.001,0.004,-1.007,-1.251,0.641,73.333,830065.000,1.000
0.997,2.066,0.512,5.088,10.453,11.958,26.855,12.612,-0.063,1.001,0.006,-0.977,-1.221,0.671,73.333,830066.000,1.000
-0.362,-0.021,-0.563,4.216,9.032,11.790,23.558,10.476,-0.063,1.000,0.007,-0.977,-1.221,0.641,73.333,830067.000,1.000
-3.715,-4.741,-3.912,0.768,4.247,6.370,14.116,4.499,-0.063,1.000,0.005,-1.099,-1.221,0.793,73.333,830068.000,1.000
-7.951,-10.582,-8.545,-4.038,-1.989,-2.428,2.906,-2.390,-0.064,0.999,0.002,-1.099,-1.160,0.732,73.333,830069.000,1.000
-11.640,-15.343,-12.953,-8.577,-7.219,-10.786,-5.156,-7.494,-0.064,1.001,0.003,-1.129,-1.129,0.793,73.333,830070.000,1.000
-13.697,-17.291,-15.863,-11.590,-9.857,-15.233,-7.516,-9.939,-0.062,1.000,0.003,-1.038,-1.068,0.702,73.333,830071.000,1.000
-13.648,-15.813,-16.503,-12.346,-9.422,-14.068,-4.022,-9.836,-0.063,1.001,0.002,-0.977,-1.068,0.732,73.333,830072.000,1.000
-11.745,-11.609,-14.817,-10.831,-6.422,-7.972,3.938,-7.417,-0.063,1.003,0.006,-1.099,-1.038,0.763,73.333,830073.000,1.000
-8.920,-6.438,-11.639,-7.953,-2.396,0.139,13.186,-3.506,-0.064,1.000,0.008,-1.190,-1.068,0.763,73.333,830074.000,1.000
-6.345,-2.355,-8.312,-5.173,0.492,6.174,18.892,0.084,-0.066,1.000,0.008,-1.221,-1.038,0.854,73.333,830075.000,1.000
-4.893,-0.851,-5.997,-3.690,0.457,6.515,16.562,1.278,-0.063,0.998,0.004,-1.251,-1.038,0.854,73.333,830076.000,1.000
-4.786,-2.224,-5.152,-3.844,-2.911,-0.060,4.970,-1.133,-0.067,0.999,0.007,-1.221,-0.977,0.885,73.333,830077.000,1.000
-5.501,-5.426,-5.333,-4.988,-8.318,-11.197,-12.231,-6.807,-0.067,0.998,0.005,-1.007,-1.038,0.916,73.333,830078.000,1.000
-6.042,-8.598,-5.468,-5.828,-13.321,-21.887,-27.828,-13.712,-0.067,0.997,0.005,-1.007,-0.946,0.793,73.333,830079.000,1.000
-5.581,-10.117,-4.553,-5.194,-15.633,-27.376,-35.077,-18.860,-0.066,0.999,0.007,-0.946,-0.946,0.854,73.333,830080.000,1.000
-3.937,-9.339,-2.267,-2.770,-14.256,-25.617,-31.419,-19.696,-0.066,1.002,0.009,-0.885,-1.007,0.977,73.333,830081.000,1.000
-1.490,-6.546,1.015,0.886,-9.671,-17.459,-19.051,-15.353,-0.068,1.001,0.006,-0.916,-0.977,1.038,73.333,830082.000,1.000
1.181,-2.624,4.577,4.766,-3.516,-5.850,-3.383,-7.384,-0.068,1.001,0.007,-0.916,-1.099,1.068,73.333,830083.000,1.000
3.546,1.232,7.648,7.857,1.972,5.034,9.188,0.710,-0.066,1.004,0.005,-0.977,-1.160,1.007,73.333,830084.000,1.000
5.302,3.945,9.688,9.556,5.000,11.509,14.445,5.547,-0.066,1.004,0.003,-1.038,-1.099,0.885,73.333,830085.000,1.000
6.464,4.971,10.598,9.883,5.100,12.189,12.427,5.856,-0.066,1.006,0.005,-1.099,-1.099,0.916,73.333,830086.000,1.000
7.206,4.368,10.600,9.248,3.018,8.258,6.147,2.610,-0.066,1.005,0.006,-1.038,-1.160,0.977,73.333,830087.000,1.000
7.593,2.634,9.960,8.107,0.015,2.422,-0.982,-2.183,-0.065,1.003,0.008,-1.099,-1.129,1.038,73.333,830088.000,1.000
7.540,0.507,8.859,6.837,-2.626,-2.400,-6.333,-6.507,-0.067,1.002,0.008,-0.977,-1.129,1.038,73.333,830089.000,1.000
7.052,-1.364,7.445,5.757,-4.008,-4.385,-8.628,-8.989,-0.067,1.002,0.009,-1.068,-1.129,1.099,73.333,830090.000,1.000
6.320,-2.698,5.831,5.042,-3.996,-3.659,-8.491,-9.365,-0.064,1.001,0.008,-1.007,-1.099,1.038,73.333,830091.000,1.000
5.556,-3.556,4.030,4.583,-3.241,-1.967,-7.904,-8.436,-0.065,1.000,0.007,-1.129,-1.038,1.068,73.333,830092.000,1.000
4.797,-4.081,2.068,4.057,-2.644,-1.239,-8.567,-7.325,-0.063,0.999,0.007,-0.977,-1.160,1.038,73.333,830093.000,1.000
3.920,-4.221,0.200,3.267,-2.500,-1.941,-10.281,-6.380,-0.061,0.999,0.007,-1.038,-1.068,1.007,73.333,830094.000,1.000
2.770,-3.694,-1.110,2.358,-2.261,-2.950,-11.088,-4.935,-0.064,1.000,0.006,-1.038,-1.038,0.916,73.333,830095.000,1.000
1.326,-2.324,-1.585,1.585,-1.398,-3.290,-9.629,-2.537,-0.062,1.000,0.011,-1.007,-1.038,1.038,73.333,830096.000,1.000
-0.165,-0.243,-1.336,1.057,-0.164,-3.366,-7.045,0.018,-0.063,0.999,0.009,-1.099,-0.977,1.038,73.333,830097.000,1.000
-1.181,2.270,-0.580,0.880,0.809,-4.180,-5.967,1.446,-0.065,1.001,0.010,-1.099,-0.946,1.099,73.333,830098.000,1.000
-1.055,5.127,0.734,1.404,1.463,-5.723,-7.562,1.432,-0.064,1.000,0.008,-1.007,-1.038,1.099,73.333,830099.000,1.000
0.727,8.460,2.881,3.058,2.485,-6.539,-10.028,0.851,-0.065,1.001,0.008,-0.977,-0.977,1.038,73.333,830100.000,1.000
4.086,12.201,5.860,5.843,4.550,-4.939,-10.246,0.924,-0.065,1.001,0.010,-0.916,-1.038,1.068,73.333,830101.000,1.000
8.242,15.842,9.142,9.188,7.744,-0.255,-6.384,2.580,-0.064,1.001,0.008,-1.007,-1.038,1.038,73.333,830102.000,1.000
12.154,18.643,11.977,12.296,11.552,6.798,1.086,6.012,-0.063,1.001,0.008,-0.946,-1.007,1.038,73.333,830103.000,1.000
15.057,19.995,13.804,14.495,15.099,14.401,10.062,10.353,-0.064,1.000,0.010,-0.977,-0.977,1.099,73.333,830104.000,1.000
16.714,19.753,14.535,15.474,17.591,20.447,18.041,14.210,-0.064,1.003,0.009,-1.038,-0.854,1.068,73.333,830105.000,1.000
17.250,18.248,14.455,15.337,18.648,23.441,23.046,16.581,-0.065,1.001,0.008,-1.007,-0.824,1.160,73.333,830106.000,1.000
16.821,15.917,13.796,14.313,18.182,22.954,24.186,16.994,-0.064,1.002,0.006,-1.007,-0.916,1.099,73.333,830107.000,1.000
15.464,12.931,12.434,12.438,16.017,19.176,21.336,15.081,-0.063,1.000,0.007,-1.007,-0.946,1.068,73.333,830108.000,1.000
13.193,9.177,10.010,9.605,11.883,12.136,14.464,10.718,-0.064,0.997,0.005,-0.946,-0.977,1.099,73.333,830109.000,1.000
10.179,4.707,6.450,5.983,6.122,2.471,4.566,4.821,-0.066,0.996,0.010,-0.885,-1.007,1.099,73.333,830110.000,1.000
6.846,0.169,2.351,2.274,0.315,-7.023,-5.102,-0.437,-0.066,0.994,0.007,-0.732,-0.885,1.129,73.333,830111.000,1.000
3.855,-3.352,-1.189,-0.600,-3.385,-12.353,-10.501,-2.805,-0.064,0.995,0.007,-0.610,-0.946,1.190,73.333,830112.000,1.000
1.858,-5.065,-3.199,-2.143,-3.919,-11.618,-9.972,-1.788,-0.064,0.994,0.007,-0.458,-1.038,1.160,73.333,830113.000,1.000
1.029,-5.120,-3.545,-2.713,-2.294,-6.787,-5.514,0.636,-0.065,0.996,0.004,-0.427,-0.946,1.160,73.333,830114.000,1.000
0.929,-4.389,-2.978,-3.212,-0.768,-1.896,-1.143,1.424,-0.062,0.999,0.004,-0.366,-0.854,1.190,73.333,830115.000,1.000
0.993,-3.577,-2.428,-4.284,-0.979,0.286,0.005,-1.138,-0.063,0.999,0.007,-0.336,-0.977,1.282,73.333,830116.000,1.000
1.023,-2.738,-2.323,-5.803,-2.803,-0.244,-2.356,-6.116,-0.063,1.002,0.010,-0.336,-1.038,1.312,73.333,830117.000,1.000
1.097,-1.669,-2.494,-7.124,-4.844,-1.850,-6.018,-10.726,-0.064,1.004,0.009,-0.336,-0.916,1.282,73.333,830118.000,1.000
1.223,-0.375,-2.524,-7.652,-5.647,-2.901,-8.160,-12.314,-0.065,1.004,0.010,-0.397,-0.885,1.221,73.333,830119.000,1.000
1.206,0.960,-2.104,-7.222,-4.588,-2.543,-7.146,-10.031,-0.066,1.003,0.008,-0.580,-0.885,1.129,73.333,830120.000,1.000
0.754,2.128,-1.352,-6.124,-2.198,-1.094,-3.660,-5.330,-0.067,1.005,0.009,-0.793,-1.038,1.007,73.333,830121.000,1.000
-0.302,2.885,-0.845,-4.862,0.136,-0.037,-0.451,-1.021,-0.066,1.006,0.007,-0.885,-1.099,0.977,73.333,830122.000,1.000
-1.841,2.985,-1.216,-3.838,1.045,-0.951,-0.472,0.471,-0.064,1.006,0.006,-0.885,-1.068,0.793,73.333,830123.000,1.000
-3.443,2.453,-2.591,-3.104,0.175,-3.777,-4.400,-1.403,-0.062,1.001,0.005,-0.946,-1.160,0.793,73.333,830124.000,1.000
-4.499,1.886,-4.251,-2.249,-1.369,-6.146,-9.316,-4.843,-0.059,1.000,0.006,-1.038,-1.099,0.793,73.333,830125.000,1.000
-4.537,2.101,-5.077,-0.810,-1.959,-5.367,-10.828,-7.050,-0.057,0.998,0.006,-1.129,-1.160,0.763,73.333,830126.000,1.000
-3.673,3.237,-4.512,0.996,-1.128,-1.521,-7.479,-6.663,-0.056,0.997,0.007,-1.129,-1.038,0.854,73.333,830127.000,1.000
-2.536,4.596,-2.873,2.322,0.144,2.501,-1.900,-4.570,-0.059,0.996,0.004,-1.099,-0.854,0.854,73.333,830128.000,1.000
-1.642,5.470,-0.820,2.532,0.765,4.054,2.232,-2.472,-0.061,0.998,0.006,-0.946,-0.916,0.763,73.333,830129.000,1.000
-1.093,5.542,1.003,1.608,0.200,2.250,2.189,-1.644,-0.063,0.998,0.005,-0.916,-0.946,0.946,73.333,830130.000,1.000
-0.778,4.638,1.992,-0.054,-1.719,-2.592,-3.307,-2.630,-0.064,0.999,0.006,-0.854,-0.854,0.916,73.333,830131.000,1.000
-0.478,2.913,1.959,-1.727,-4.468,-8.823,-12.549,-4.842,-0.065,1.000,0.005,-0.885,-0.946,0.885,73.333,830132.000,1.000
0.134,1.195,1.443,-2.539,-6.640,-13.366,-20.744,-6.793,-0.065,1.002,0.005,-0.793,-1.007,0.854,73.333,830133.000,1.000
1.254,0.597,1.266,-2.077,-6.838,-13.144,-23.063,-7.452,-0.065,1.002,0.006,-0.916,-1.038,0.977,73.333,830134.000,1.000
2.737,1.603,1.864,-0.762,-4.825,-7.342,-18.153,-7.129,-0.063,1.000,0.007,-0.854,-0.977,1.068,73.333,830135.000,1.000
4.212,3.641,3.054,0.531,-1.759,1.272,-9.257,-6.765,-0.063,1.001,0.007,-0.916,-1.068,1.068,73.333,830136.000,1.000
5.396,5.568,4.285,1.166,0.652,7.787,-1.863,-6.755,-0.063,1.002,0.003,-0.916,-1.038,1.129,73.333,830137.000,1.000
6.166,6.395,4.979,1.030,1.273,8.592,0.236,-6.754,-0.068,1.000,0.004,-0.824,-1.038,1.068,73.333,830138.000,1.000
6.408,5.715,4.728,0.374,0.130,3.730,-2.860,-6.220,-0.072,0.998,0.004,-0.824,-1.221,0.946,73.333,830139.000,1.000
6.004,3.947,3.572,-0.344,-1.609,-3.287,-7.573,-4.701,-0.073,1.000,0.005,-0.793,-1.404,0.824,73.333,830140.000,1.000
5.059,2.243,2.085,-0.604,-2.254,-7.632,-9.164,-1.947,-0.074,1.003,0.005,-0.793,-1.465,0.702,73.333,830141.000,1.000
3.930,1.826,0.994,-0.116,-0.704,-6.053,-4.756,1.791,-0.075,1.004,0.007,-0.793,-1.709,0.458,73.333,830142.000,1.000
2.974,3.165,0.680,1.059,2.749,1.066,4.682,5.712,-0.073,1.006,0.006,-0.824,-1.984,0.397,73.333,830143.000,1.000
2.278,5.629,0.940,2.622,6.512,9.748,14.645,8.807,-0.071,1.007,0.009,-0.916,-2.106,0.275,73.333,830144.000,1.000
1.627,7.842,1.156,4.147,8.618,14.799,19.774,10.206,-0.069,1.009,0.008,-1.038,-2.106,0.153,73.333,830145.000,1.000
0.712,8.521,0.726,5.149,7.896,13.131,17.135,9.390,-0.065,1.008,0.007,-1.221,-2.197,0.000,73.333,830146.000,1.000
-0.530,7.393,-0.367,5.363,4.849,5.934,8.144,6.584,-0.063,1.009,0.005,-1.312,-2.228,-0.061,73.333,830147.000,1.000
-1.706,5.469,-1.294,5.098,1.565,-2.047,-1.976,3.164,-0.062,1.008,0.006,-1.373,-2.197,-0.122,73.333,830148.000,1.000
-2.333,4.035,-1.185,4.913,0.089,-6.418,-8.014,0.973,-0.058,1.007,0.005,-1.343,-2.136,-0.031,73.333,830149.000,1.000
-2.425,3.367,-0.165,4.861,0.563,-6.522,-8.820,0.651,-0.057,1.007,0.003,-1.373,-2.045,0.061,73.333,830150.000,1.000
-2.450,2.858,0.790,4.449,1.544,-4.288,-6.335,1.122,-0.058,1.007,0.003,-1.373,-1.923,0.122,73.333,830151.000,1.000
-2.796,2.034,0.909,3.253,1.816,-1.166,-1.975,0.825,-0.056,1.005,0.006,-1.373,-1.770,0.183,73.333,830152.000,1.000
-3.483,0.858,0.157,1.267,1.053,2.196,3.195,-1.088,-0.058,1.007,0.005,-1.434,-1.556,0.244,73.333,830153.000,1.000
-4.160,-0.486,-0.976,-1.058,-0.521,5.031,6.918,-4.204,-0.060,1.006,0.004,-1.251,-1.373,0.397,73.333,830154.000,1.000
-4.229,-1.592,-1.804,-2.882,-2.111,7.126,7.803,-6.864,-0.061,1.005,0.008,-1.221,-1.282,0.488,73.333,830155.000,1.000
-3.292,-2.116,-1.965,-3.496,-2.808,8.992,6.972,-7.550,-0.061,1.007,0.007,-1.251,-1.282,0.580,73.333,830156.000,1.000
-1.636,-2.410,-1.887,-3.013,-2.683,10.301,5.782,-6.492,-0.063,1.006,0.009,-1.373,-1.068,0.732,73.333,830157.000,1.000
-0.052,-3.366,-2.362,-2.228,-2.721,9.738,4.289,-5.115,-0.060,1.003,0.010,-1.312,-1.038,0.732,73.333,830158.000,1.000
0.889,-5.374,-3.623,-1.812,-3.456,7.089,2.852,-4.231,-0.064,1.000,0.010,-1.251,-1.007,0.763,73.333,830159.000,1.000
1.193,-7.879,-5.102,-1.915,-4.474,3.819,2.628,-3.693,-0.064,0.998,0.008,-1.373,-1.099,0.793,73.333,830160.000,1.000
1.087,-10.114,-6.151,-2.460,-5.343,1.007,3.476,-3.384,-0.067,0.998,0.006,-1.251,-1.038,0.946,73.333,830161.000,1.000
0.674,-11.714,-6.628,-3.347,-6.161,-1.751,3.427,-3.475,-0.066,0.996,0.006,-1.160,-1.068,0.916,73.333,830162.000,1.000
0.007,-12.521,-6.749,-4.350,-7.122,-5.068,0.919,-3.940,-0.066,0.995,0.007,-1.068,-1.007,0.916,73.333,830163.000,1.000
-0.812,-12.359,-6.766,-5.192,-8.141,-8.674,-3.514,-4.534,-0.066,0.995,0.009,-0.916,-0.946,0.916,73.333,830164.000,1.000
-1.607,-11.048,-6.637,-5.612,-8.702,-11.366,-7.318,-4.800,-0.067,0.994,0.011,-0.824,-1.007,0.885,73.333,830165.000,1.000
-2.134,-8.472,-5.931,-5.244,-7.866,-11.403,-7.272,-3.817,-0.067,0.994,0.009,-0.732,-1.038,0.885,73.333,830166.000,1.000
-2.281,-4.882,-4.322,-3.773,-5.004,-7.771,-2.069,-0.660,-0.066,0.994,0.009,-0.671,-1.038,0.854,73.333,830167.000,1.000
-2.339,-1.176,-2.165,-1.397,-0.732,-1.428,6.011,4.387,-0.066,0.992,0.007,-0.549,-1.007,0.885,73.333,830168.000,1.000
-2.979,1.289,-0.519,0.964,3.094,4.962,12.393,9.258,-0.065,0.992,0.008,-0.519,-0.946,0.946,73.333,830169.000,1.000
-4.781,1.427,-0.463,2.181,4.496,8.674,13.291,11.252,-0.064,0.993,0.012,-0.397,-0.885,0.916,73.333,830170.000,1.000
-7.628,-0.783,-2.230,1.793,2.753,8.662,8.094,9.097,-0.064,0.993,0.011,-0.336,-1.038,0.885,73.333,830171.000,1.000
-10.645,-4.273,-5.033,0.247,-1.287,5.615,-0.720,3.732,-0.065,0.994,0.007,-0.214,-1.038,0.885,73.333,830172.000,1.000
-12.803,-7.615,-7.698,-1.633,-5.980,0.847,-9.525,-2.600,-0.065,0.995,0.005,-0.183,-0.916,0.763,73.333,830173.000,1.000
-13.497,-9.599,-9.341,-3.111,-9.617,-3.950,-15.129,-7.575,-0.064,0.995,0.005,-0.183,-0.946,0.824,73.333,830174.000,1.000
-12.681,-9.589,-9.516,-3.709,-10.993,-7.043,-15.835,-9.643,-0.066,0.999,0.006,-0.214,-0.854,0.824,73.333,830175.000,1.000
-10.735,-7.815,-8.173,-3.322,-9.912,-7.761,-12.053,-8.421,-0.063,0.998,0.006,-0.183,-0.885,0.854,73.333,830176.000,1.000
-8.220,-5.132,-5.653,-2.204,-7.037,-6.261,-5.300,-4.612,-0.062,0.999,0.006,-0.244,-0.824,0.977,73.333,830177.000,1.000
-5.646,-2.426,-2.657,-0.869,-3.344,-2.368,3.029,0.113,-0.062,1.001,0.005,-0.183,-0.824,0.977,73.333,830178.000,1.000
-3.430,-0.367,-0.200,-0.086,-0.022,3.844,11.048,3.289,-0.062,1.002,0.006,-0.244,-0.916,1.038,73.333,830179.000,1.000
-2.046,0.365,0.603,-0.765,1.402,10.205,15.365,2.557,-0.062,1.002,0.008,-0.366,-0.854,1.099,73.333,830180.000,1.000
-2.034,-0.868,-0.992,-3.466,-0.330,12.824,12.763,-2.750,-0.061,1.001,0.004,-0.549,-0.793,1.038,73.333,830181.000,1.000
-3.598,-4.029,-4.757,-7.825,-4.988,9.326,3.863,-10.658,-0.062,1.004,0.002,-0.641,-0.793,1.129,73.333,830182.000,1.000
-6.134,-7.973,-9.289,-12.557,-10.600,1.164,-6.153,-17.617,-0.062,1.006,0.002,-0.793,-0.763,1.221,73.333,830183.000,1.000
-8.384,-11.062,-12.782,-16.246,-14.870,-7.831,-11.995,-20.978,-0.063,1.005,0.003,-0.916,-0.702,1.190,73.333,830184.000,1.000
-9.298,-12.347,-14.144,-18.223,-16.865,-14.662,-13.104,-20.651,-0.062,1.004,0.003,-1.038,-0.732,1.312,73.333,830185.000,1.000
-8.741,-12.008,-13.405,-18.659,-17.128,-18.429,-13.042,-18.473,-0.062,1.001,0.007,-1.068,-0.732,1.251,73.333,830186.000,1.000
-7.492,-10.921,-11.358,-18.076,-16.690,-19.799,-15.309,-16.471,-0.061,1.001,0.007,-1.129,-0.702,1.221,73.333,830187.000,1.000
-6.752,-10.144,-9.122,-17.003,-16.493,-20.659,-21.135,-15.870,-0.063,1.003,0.004,-1.282,-0.763,1.251,73.333,830188.000,1.000
-7.364,-10.184,-7.552,-15.611,-16.727,-22.443,-28.643,-16.484,-0.062,1.002,0.004,-1.160,-0.702,1.160,73.333,830189.000,1.000
-9.118,-10.300,-6.484,-13.364,-16.107,-23.641,-32.669,-16.347,-0.063,1.003,0.005,-1.251,-0.702,1.068,73.333,830190.000,1.000
-10.947,-9.193,-5.140,-9.615,-13.035,-21.314,-28.788,-13.203,-0.064,1.005,0.008,-1.251,-0.641,1.007,73.333,830191.000,1.000
-11.891,-6.582,-3.377,-4.725,-7.769,-15.294,-18.266,-6.949,-0.062,1.007,0.009,-1.312,-0.641,0.946,73.333,830192.000,1.000
-11.656,-3.460,-1.823,-0.029,-2.346,-8.409,-6.670,0.190,-0.064,1.008,0.005,-1.465,-0.671,0.885,73.333,830193.000,1.000
-10.435,-0.954,-0.972,3.287,1.491,-3.171,1.423,5.824,-0.063,1.009,0.006,-1.740,-0.732,0.824,73.333,830194.000,1.000
-8.598,0.429,-0.772,4.869,3.289,-0.314,4.641,8.758,-0.063,1.007,0.007,-1.740,-0.671,0.702,73.333,830195.000,1.000
-6.607,0.648,-1.066,4.885,3.252,0.260,3.624,8.478,-0.062,1.001,0.009,-1.770,-0.671,0.641,73.333,830196.000,1.000
-4.959,-0.094,-1.886,3.645,1.776,-0.886,-0.019,4.934,-0.061,1.000,0.010,-1.953,-0.763,0.702,73.333,830197.000,1.000
-3.981,-1.322,-3.133,1.674,-0.326,-2.338,-3.945,-0.591,-0.060,0.998,0.010,-1.862,-0.671,0.580,73.333,830198.000,1.000
-3.680,-2.465,-4.458,-0.271,-2.007,-2.685,-5.988,-5.456,-0.061,0.998,0.008,-1.709,-0.610,0.519,73.333,830199.000,1.000
-3.819,-3.238,-5.532,-1.564,-2.658,-1.896,-5.162,-7.247,-0.059,1.000,0.008,-1.495,-0.671,0.610,73.333,830200.000,1.000
-4.028,-3.680,-6.188,-2.014,-2.263,-0.743,-1.406,-5.275,-0.061,1.001,0.006,-1.282,-0.671,0.580,73.333,830201.000,1.000
-3.918,-3.876,-6.300,-1.831,-1.066,0.783,4.818,-0.718,-0.060,1.000,0.004,-1.404,-0.702,0.793,73.333,830202.000,1.000
-3.290,-3.957,-5.866,-1.437,0.383,2.987,11.551,4.116,-0.059,1.001,0.006,-1.282,-0.732,0.854,73.333,830203.000,1.000
-2.283,-4.254,-5.267,-1.268,1.125,4.801,15.068,7.008,-0.060,0.995,0.008,-1.282,-0.519,0.977,73.333,830204.000,1.000
-1.233,-5.089,-5.054,-1.471,0.479,4.293,12.683,7.239,-0.062,0.994,0.008,-1.129,-0.458,1.129,73.333,830205.000,1.000
-0.447,-6.434,-5.489,-1.826,-1.250,0.891,5.463,5.788,-0.066,0.993,0.008,-1.099,-0.610,1.099,73.333,830206.000,1.000
-0.188,-7.904,-6.451,-2.090,-3.126,-3.837,-2.899,3.914,-0.069,0.994,0.008,-0.946,-0.671,1.068,73.333,830207.000,1.000
-0.689,-9.001,-7.582,-2.306,-4.403,-7.528,-8.952,2.063,-0.073,0.993,0.007,-0.916,-0.702,0.946,73.333,830208.000,1.000
-2.021,-9.298,-8.440,-2.682,-4.816,-8.654,-11.012,0.193,-0.076,0.996,0.012,-0.763,-0.885,0.763,73.333,830209.000,1.000
-3.904,-8.518,-8.547,-3.234,-4.427,-7.190,-9.356,-1.455,-0.077,0.999,0.011,-0.732,-1.099,0.610,73.333,830210.000,1.000
-5.640,-6.449,-7.387,-3.441,-3.164,-3.982,-5.257,-1.963,-0.076,1.000,0.012,-0.854,-1.282,0.519,73.333,830211.000,1.000
-6.289,-2.869,-4.449,-2.294,-0.448,0.561,0.574,0.069,-0.072,1.001,0.009,-0.916,-1.587,0.427,73.333,830212.000,1.000
-5.283,1.922,0.243,0.829,4.022,6.188,7.563,5.033,-0.068,1.002,0.009,-0.885,-1.770,0.427,73.333,830213.000,1.000
-2.976,6.559,5.481,5.164,8.960,11.192,13.517,10.718,-0.065,1.000,0.010,-0.916,-1.801,0.397,73.333,830214.000,1.000
-0.335,9.344,9.444,8.965,12.049,13.054,15.547,13.572,-0.064,1.000,0.010,-0.763,-1.831,0.305,73.333,830215.000,1.000
1.893,9.654,11.095,11.037,12.066,10.966,12.976,12.073,-0.065,0.999,0.007,-0.793,-1.923,0.366,73.333,830216.000,1.000
3.554,8.351,10.815,11.572,9.891,6.668,8.103,8.118,-0.064,0.999,0.007,-0.916,-1.892,0.397,73.333,830217.000,1.000
4.814,6.912,9.821,11.600,7.550,3.004,4.151,5.075,-0.062,1.000,0.006,-0.702,-1.862,0.427,73.333,830218.000,1.000
5.742,6.236,9.066,11.933,6.585,1.922,2.876,5.032,-0.061,1.001,0.006,-0.763,-1.862,0.427,73.333,830219.000,1.000
6.341,6.222,8.838,12.724,7.304,3.477,3.939,7.822,-0.063,1.001,0.004,-0.702,-1.892,0.458,73.333,830220.000,1.000
6.881,6.339,9.077,13.730,9.074,6.227,5.643,11.813,-0.062,1.003,0.004,-0.854,-1.831,0.610,73.333,830221.000,1.000
7.858,6.293,9.653,14.615,10.926,8.175,6.189,15.314,-0.061,1.005,0.007,-0.671,-1.801,0.763,73.333,830222.000,1.000
9.676,6.308,10.501,15.251,12.373,8.431,5.778,17.836,-0.062,1.005,0.007,-0.641,-1.862,0.793,73.333,830223.000,1.000
12.442,6.984,11.646,15.791,13.822,8.525,7.053,20.043,-0.064,1.005,0.009,-0.671,-1.678,0.763,73.333,830224.000,1.000
15.719,8.473,12.883,16.114,15.489,10.455,11.230,21.902,-0.063,1.004,0.008,-0.671,-1.709,0.885,73.333,830225.000,1.000
18.421,9.805,13.406,15.404,16.188,13.131,14.791,21.606,-0.064,1.005,0.007,-0.732,-1.648,0.824,73.333,830226.000,1.000
19.466,9.644,12.332,12.929,14.332,12.830,12.631,17.477,-0.064,1.004,0.010,-0.824,-1.709,0.885,73.333,830227.000,1.000
18.697,7.738,9.755,9.147,10.009,7.496,3.757,10.382,-0.063,1.003,0.007,-0.702,-1.617,0.854,73.333,830228.000,1.000
16.882,5.228,6.825,5.598,5.364,-0.718,-7.247,3.634,-0.065,1.000,0.008,-0.793,-1.678,0.885,73.333,830229.000,1.000
14.939,3.752,4.930,3.811,3.121,-6.873,-13.346,0.914,-0.064,1.000,0.009,-0.763,-1.709,0.763,73.333,830230.000,1.000
13.361,4.309,4.771,4.265,4.576,-6.955,-10.560,3.699,-0.064,0.999,0.006,-0.641,-1.648,0.793,73.333,830231.000,1.000
12.100,6.481,5.872,6.009,8.378,-1.293,-1.812,9.748,-0.065,1.001,0.005,-0.610,-1.678,0.671,73.333,830232.000,1.000
10.775,8.731,6.976,7.386,11.480,5.536,5.594,14.646,-0.064,1.002,0.005,-0.580,-1.740,0.641,73.333,830233.000,1.000
9.048,9.653,7.001,7.327,11.612,8.550,6.501,15.232,-0.063,1.000,0.002,-0.610,-1.709,0.549,73.333,830234.000,1.000
6.963,8.997,5.814,6.018,8.828,6.193,1.549,11.415,-0.065,0.999,0.005,-0.519,-1.709,0.488,73.333,830235.000,1.000
5.046,7.721,4.314,4.646,5.210,1.248,-4.210,5.652,-0.065,0.998,0.010,-0.580,-1.709,0.519,73.333,830236.000,1.000
4.099,7.324,3.901,4.647,3.428,-1.291,-5.237,1.285,-0.067,0.999,0.008,-0.458,-1.678,0.549,73.333,830237.000,1.000
4.721,8.853,5.642,6.805,5.015,2.065,0.656,0.594,-0.064,0.997,0.008,-0.458,-1.648,0.549,73.333,830238.000,1.000
6.810,12.083,9.435,10.611,9.273,10.381,10.466,3.459,-0.064,0.995,0.006,-0.427,-1.648,0.519,73.333,830239.000,1.000
9.448,15.494,13.864,14.387,13.593,18.503,17.802,7.516,-0.065,0.996,0.008,-0.427,-1.678,0.397,73.333,830240.000,1.000
11.471,17.370,17.105,16.400,15.386,21.105,18.009,10.078,-0.065,0.996,0.004,-0.427,-1.617,0.427,73.333,830241.000,1.000
12.186,17.048,18.136,16.009,14.026,17.170,12.036,10.245,-0.064,0.994,0.007,-0.336,-1.556,0.397,73.333,830242.000,1.000
11.477,14.865,16.943,13.591,10.585,9.776,4.282,8.691,-0.066,0.996,0.003,-0.336,-1.648,0.427,73.333,830243.000,1.000
9.536,11.334,13.900,9.739,6.146,2.220,-2.211,5.940,-0.065,0.996,0.006,-0.244,-1.709,0.366,73.333,830244.000,1.000
6.916,7.060,9.743,5.197,1.424,-3.660,-6.370,2.200,-0.064,0.997,0.005,-0.183,-1.740,0.397,73.333,830245.000,1.000
4.540,3.052,5.732,1.101,-2.521,-6.325,-7.212,-1.712,-0.064,0.998,0.004,-0.092,-1.709,0.397,73.333,830246.000,1.000
3.121,0.165,2.947,-1.631,-4.770,-5.117,-4.841,-4.850,-0.066,0.999,0.006,-0.214,-1.740,0.488,73.333,830247.000,1.000
2.657,-1.712,1.452,-3.044,-5.758,-2.416,-2.307,-7.280,-0.066,0.999,0.004,-0.092,-1.678,0.458,73.333,830248.000,1.000
2.707,-3.264,0.604,-3.754,-6.736,-2.286,-3.400,-9.523,-0.066,1.001,0.006,-0.183,-1.740,0.519,73.333,830249.000,1.000
2.888,-4.711,0.100,-4.067,-8.028,-6.100,-8.407,-11.120,-0.066,0.999,0.008,-0.183,-1.801,0.580,73.333,830250.000,1.000
2.909,-5.569,0.196,-3.881,-8.629,-11.099,-13.490,-10.770,-0.067,1.002,0.005,-0.214,-1.770,0.427,73.333,830251.000,1.000
2.478,-5.139,1.189,-3.075,-7.286,-13.101,-14.013,-7.637,-0.066,1.004,0.003,-0.214,-1.801,0.458,73.333,830252.000,1.000
1.485,-3.071,3.080,-1.631,-3.571,-9.775,-8.258,-2.026,-0.063,1.005,0.003,-0.305,-1.831,0.488,73.333,830253.000,1.000
0.047,0.231,5.451,0.228,1.655,-2.117,1.152,4.646,-0.065,1.005,0.009,-0.336,-1.923,0.610,73.333,830254.000,1.000
-1.693,3.630,7.495,1.863,6.531,6.350,9.245,10.164,-0.064,1.004,0.008,-0.427,-1.862,0.641,73.333,830255.000,1.000
-3.678,5.832,8.326,2.415,9.142,11.914,12.332,12.362,-0.064,1.005,0.010,-0.641,-1.831,0.580,73.333,830256.000,1.000
-5.768,6.163,7.552,1.451,8.636,12.936,10.061,10.396,-0.064,1.004,0.009,-0.671,-1.740,0.641,73.333,830257.000,1.000
-7.490,5.050,5.788,-0.455,5.901,10.651,5.136,5.555,-0.063,1.004,0.008,-0.824,-1.770,0.610,73.333,830258.000,1.000
-8.089,3.803,4.423,-1.818,3.190,7.962,1.571,0.885,-0.064,1.002,0.007,-1.007,-1.770,0.610,73.333,830259.000,1.000
-7.041,3.610,4.585,-1.270,2.525,7.041,2.025,-0.661,-0.061,1.002,0.007,-0.977,-1.831,0.671,73.333,830260.000,1.000
-4.578,4.624,6.206,1.265,4.187,8.064,6.095,1.531,-0.062,1.003,0.008,-0.977,-1.892,0.793,73.333,830261.000,1.000
-1.512,6.169,8.318,4.562,6.937,10.332,11.606,5.477,-0.062,1.003,0.007,-1.068,-1.831,0.824,73.333,830262.000,1.000
1.359,7.442,9.993,7.098,9.168,13.193,16.261,8.277,-0.063,1.002,0.005,-1.282,-1.740,0.793,73.333,830263.000,1.000
3.434,7.633,10.544,7.730,9.337,14.993,17.209,7.577,-0.063,1.004,0.003,-1.434,-1.770,0.732,73.333,830264.000,1.000
4.427,6.236,9.696,6.191,6.670,13.489,12.252,2.952,-0.064,1.002,0.007,-1.495,-1.709,0.732,73.333,830265.000,1.000
4.824,3.948,8.224,3.742,2.544,8.707,3.109,-2.835,-0.063,1.000,0.006,-1.495,-1.740,0.763,73.333,830266.000,1.000
5.630,2.322,7.518,2.467,-0.229,3.235,-5.407,-5.575,-0.061,1.000,0.005,-1.526,-1.678,0.793,73.333,830267.000,1.000
7.030,1.827,7.819,3.038,-0.491,-0.984,-10.310,-3.903,-0.062,1.000,0.004,-1.648,-1.617,0.763,73.333,830268.000,1.000
7.809,1.107,7.597,3.857,0.119,-4.167,-12.026,-0.495,-0.063,0.999,0.005,-1.740,-1.587,0.732,73.333,830269.000,1.000
6.540,-1.351,5.200,2.862,-0.520,-6.888,-11.589,1.281,-0.065,1.004,0.006,-1.740,-1.617,0.671,73.333,830270.000,1.000
2.855,-5.711,0.295,-0.660,-3.104,-9.051,-9.665,0.052,-0.065,1.004,0.008,-1.678,-1.556,0.732,73.333,830271.000,1.000
-2.549,-11.092,-6.310,-6.040,-7.294,-10.818,-7.806,-3.817,-0.065,1.004,0.010,-1.648,-1.495,0.732,73.333,830272.000,1.000
-8.421,-16.213,-13.129,-11.811,-12.109,-12.243,-7.169,-8.808,-0.066,1.001,0.011,-1.740,-1.587,0.793,73.333,830273.000,1.000
-13.416,-19.626,-18.374,-16.230,-15.793,-11.950,-6.477,-12.611,-0.064,1.002,0.011,-1.923,-1.495,0.702,73.333,830274.000,1.000
-16.771,-20.454,-20.878,-18.223,-16.906,-8.499,-3.908,-13.674,-0.065,1.002,0.011,-1.984,-1.495,0.763,73.333,830275.000,1.000
-18.817,-19.383,-21.158,-18.267,-15.996,-3.380,-0.580,-12.726,-0.063,1.003,0.010,-1.953,-1.465,0.854,73.333,830276.000,1.000
-20.584,-18.401,-21.115,-18.040,-15.393,-1.188,-0.402,-12.070,-0.063,1.003,0.008,-2.014,-1.465,0.824,73.333,830277.000,1.000
-22.741,-19.090,-22.313,-18.934,-16.936,-5.667,-6.064,-13.272,-0.063,1.001,0.010,-1.984,-1.404,0.885,73.333,830278.000,1.000
-24.940,-21.137,-24.599,-20.825,-19.962,-15.384,-15.319,-15.609,-0.063,1.000,0.009,-1.801,-1.343,0.854,73.333,830279.000,1.000
-26.170,-22.711,-26.321,-22.235,-21.700,-24.129,-21.816,-16.558,-0.062,1.000,0.008,-1.648,-1.190,0.885,73.333,830280.000,1.000
-25.745,-22.280,-25.915,-21.730,-19.801,-26.110,-20.478,-14.024,-0.063,0.998,0.008,-1.587,-1.251,1.007,73.333,830281.000,1.000
-23.953,-19.880,-23.294,-19.246,-14.458,-20.300,-11.828,-8.459,-0.063,1.000,0.010,-1.465,-1.312,1.160,73.333,830282.000,1.000
-21.705,-16.702,-19.706,-16.003,-8.050,-10.054,-0.831,-2.677,-0.064,1.001,0.009,-1.526,-1.251,1.190,73.333,830283.000,1.000
-19.682,-13.949,-16.575,-13.270,-3.082,-0.032,7.471,0.667,-0.065,1.001,0.009,-1.465,-1.282,1.068,73.333,830284.000,1.000
-18.020,-12.328,-14.647,-11.499,-0.818,6.035,10.551,0.913,-0.063,0.999,0.009,-1.343,-1.221,1.160,73.333,830285.000,1.000
-16.679,-12.181,-14.075,-10.609,-1.453,6.255,8.147,-1.401,-0.065,1.000,0.010,-1.312,-1.190,1.129,73.333,830286.000,1.000
-15.690,-13.395,-14.643,-10.419,-4.339,1.424,2.023,-5.526,-0.064,1.002,0.013,-1.190,-1.251,1.221,73.333,830287.000,1.000
-14.848,-15.038,-15.548,-10.404,-7.642,-4.756,-3.742,-9.874,-0.065,1.001,0.010,-1.129,-1.312,1.251,73.333,830288.000,1.000
-13.630,-15.710,-15.617,-9.681,-8.909,-7.709,-4.590,-11.993,-0.064,0.999,0.009,-1.190,-1.190,1.221,73.333,830289.000,1.000
-11.727,-14.630,-14.194,-7.734,-6.849,-5.309,0.890,-10.255,-0.065,1.000,0.009,-1.129,-1.221,1.068,73.333,830290.000,1.000
-9.461,-12.240,-11.738,-4.934,-2.368,0.474,9.553,-5.168,-0.065,1.000,0.012,-1.160,-1.160,1.068,73.333,830291.000,1.000
-7.555,-9.686,-9.401,-2.246,2.233,5.212,16.114,0.955,-0.064,1.000,0.012,-1.099,-1.190,0.977,73.333,830292.000,1.000
-6.578,-7.872,-8.061,-0.569,4.871,5.568,16.764,5.256,-0.064,1.000,0.012,-0.946,-1.312,1.068,73.333,830293.000,1.000
-6.525,-6.795,-7.715,-0.160,5.033,1.966,11.674,6.005,-0.063,1.001,0.012,-0.946,-1.282,1.038,73.333,830294.000,1.000
-6.723,-5.521,-7.440,-0.371,4.200,-1.528,5.280,3.868,-0.062,1.000,0.008,-0.824,-1.282,1.007,73.333,830295.000,1.000
-6.353,-3.184,-6.228,-0.207,4.463,-0.865,2.619,1.171,-0.064,0.998,0.012,-0.793,-1.221,1.007,73.333,830296.000,1.000
-5.336,-0.295,-4.189,0.599,6.251,3.286,4.167,-0.217,-0.063,0.999,0.011,-0.702,-1.282,0.916,73.333,830297.000,1.000
-4.495,1.462,-2.581,1.325,8.025,5.906,5.980,0.100,-0.066,0.998,0.014,-0.702,-1.190,0.885,73.333,830298.000,1.000
-4.760,0.933,-2.617,1.031,8.209,3.520,4.899,1.413,-0.065,1.000,0.016,-0.549,-1.221,0.854,73.333,830299.000,1.000
-6.355,-1.519,-4.488,-0.790,6.436,-2.444,1.060,2.305,-0.064,1.001,0.013,-0.549,-1.343,0.885,73.333,830300.000,1.000
-8.702,-4.627,-7.476,-4.093,3.246,-8.191,-3.686,1.419,-0.065,1.002,0.012,-0.580,-1.343,0.793,73.333,830301.000,1.000
-10.901,-7.183,-10.526,-8.236,-0.290,-10.855,-6.928,-1.170,-0.065,1.001,0.012,-0.519,-1.434,0.732,73.333,830302.000,1.000
-12.254,-8.501,-12.691,-12.042,-2.878,-9.474,-6.496,-3.725,-0.066,1.002,0.010,-0.458,-1.434,0.641,73.333,830303.000,1.000
-12.464,-8.543,-13.463,-14.309,-3.777,-5.090,-2.394,-4.420,-0.065,1.001,0.011,-0.427,-1.556,0.641,73.333,830304.000,1.000
-11.590,-7.835,-12.870,-14.466,-3.423,-0.387,2.470,-3.068,-0.063,1.002,0.012,-0.519,-1.526,0.580,73.333,830305.000,1.000
-9.885,-7.006,-11.306,-12.755,-2.939,2.234,4.684,-1.198,-0.064,1.000,0.009,-0.488,-1.556,0.610,73.333,830306.000,1.000
-7.519,-6.102,-9.064,-9.700,-2.761,2.945,3.808,-0.255,-0.064,0.999,0.010,-0.488,-1.617,0.549,73.333,830307.000,1.000
-4.436,-4.581,-6.110,-5.650,-2.228,3.944,2.467,-0.125,-0.064,0.999,0.009,-0.427,-1.617,0.488,73.333,830308.000,1.000
-0.660,-2.187,-2.598,-1.094,-0.850,6.293,2.685,0.029,-0.065,1.000,0.012,-0.305,-1.556,0.458,73.333,830309.000,1.000
3.365,0.462,0.742,2.978,0.645,8.338,3.483,0.242,-0.065,1.000,0.010,-0.275,-1.556,0.397,73.333,830310.000,1.000
6.929,2.366,2.979,5.578,1.028,7.629,2.337,-0.080,-0.064,1.001,0.010,-0.244,-1.495,0.336,73.333,830311.000,1.000
9.506,3.064,3.683,6.547,0.011,3.828,-1.682,-0.856,-0.064,1.001,0.011,-0.244,-1.556,0.336,73.333,830312.000,1.000
10.993,2.941,3.165,6.569,-1.422,-0.684,-6.301,-1.034,-0.065,0.999,0.008,-0.275,-1.556,0.305,73.333,830313.000,1.000
11.627,2.810,2.063,6.387,-1.963,-2.698,-7.420,0.258,-0.063,0.999,0.006,-0.153,-1.648,0.336,73.333,830314.000,1.000
11.845,3.361,0.974,6.259,-1.040,-0.520,-2.564,2.608,-0.062,0.999,0.008,-0.183,-1.556,0.305,73.333,830315.000,1.000
12.109,4.717,0.185,5.923,0.632,4.447,5.998,4.339,-0.062,1.000,0.007,-0.244,-1.587,0.336,73.333,830316.000,1.000
12.718,6.306,-0.455,4.885,1.388,8.184,12.055,3.596,-0.062,1.001,0.010,-0.183,-1.556,0.275,73.333,830317.000,1.000
13.790,7.382,-1.122,3.048,0.082,7.189,10.620,-0.079,-0.063,1.001,0.009,-0.214,-1.404,0.183,73.333,830318.000,1.000
15.321,7.731,-1.584,1.144,-2.709,1.307,1.961,-4.901,-0.063,1.001,0.009,-0.244,-1.312,0.214,73.333,830319.000,1.000
17.139,7.709,-1.346,0.284,-5.243,-6.673,-9.469,-7.987,-0.063,1.000,0.005,-0.214,-1.404,0.244,73.333,830320.000,1.000
18.908,7.869,-0.121,1.052,-6.033,-13.025,-18.306,-7.681,-0.063,0.997,0.005,0.000,-1.404,0.244,73.333,830321.000,1.000
20.358,8.752,2.081,3.204,-4.485,-14.413,-20.445,-4.563,-0.063,0.997,0.005,0.031,-1.434,0.336,73.333,830322.000,1.000
21.397,10.531,4.944,5.892,-1.140,-9.642,-15.203,-0.860,-0.063,0.999,0.008,0.031,-1.312,0.305,73.333,830323.000,1.000
21.872,12.546,7.594,7.907,2.199,-1.356,-6.696,0.689,-0.064,1.000,0.010,-0.061,-1.312,0.336,73.333,830324.000,1.000
21.520,13.673,8.993,8.322,3.568,5.597,-0.819,-1.362,-0.065,0.999,0.008,0.000,-1.282,0.336,73.333,830325.000,1.000
20.276,13.415,8.864,7.275,2.641,8.380,0.092,-5.651,-0.065,1.001,0.005,0.000,-1.251,0.427,73.333,830326.000,1.000
18.481,12.473,7.998,5.954,1.154,8.419,-0.968,-8.719,-0.064,1.003,0.003,0.000,-1.221,0.458,73.333,830327.000,1.000
16.722,12.136,7.607,5.691,1.342,9.391,0.770,-7.682,-0.067,1.002,0.003,-0.061,-1.251,0.397,73.333,830328.000,1.000
15.428,13.068,8.299,6.926,3.877,13.100,6.914,-2.509,-0.067,1.002,0.003,-0.031,-1.221,0.427,73.333,830329.000,1.000
14.673,14.785,9.736,8.952,7.343,17.665,14.728,4.040,-0.066,1.003,0.004,-0.153,-1.282,0.458,73.333,830330.000,1.000
14.442,16.353,11.235,10.714,9.751,19.877,20.141,8.771,-0.065,1.002,0.003,-0.244,-1.312,0.397,73.333,830331.000,1.000
14.945,17.404,12.581,11.826,10.484,18.906,21.403,10.528,-0.065,1.002,0.004,-0.397,-1.373,0.427,73.333,830332.000,1.000
16.348,18.153,14.013,12.609,10.394,16.476,19.446,10.333,-0.068,1.001,0.005,-0.458,-1.495,0.458,73.333,830333.000,1.000
18.157,18.498,15.308,13.198,10.044,13.320,14.954,9.404,-0.068,1.000,0.005,-0.427,-1.434,0.427,73.333,830334.000,1.000
19.342,17.938,15.686,13.173,9.088,8.465,8.018,8.010,-0.066,1.000,0.006,-0.397,-1.404,0.458,73.333,830335.000,1.000
19.248,16.568,14.811,12.272,7.710,2.943,1.344,6.370,-0.067,1.001,0.005,-0.397,-1.465,0.488,73.333,830336.000,1.000
18.004,15.147,13.189,10.836,6.990,0.171,-0.562,5.275,-0.065,1.003,0.006,-0.458,-1.526,0.458,73.333,830337.000,1.000
16.016,13.941,11.386,9.297,7.239,1.240,2.988,5.162,-0.065,1.004,0.006,-0.580,-1.526,0.641,73.333,830338.000,1.000
13.600,12.418,9.453,7.715,7.399,3.329,7.546,5.405,-0.063,1.003,0.005,-0.671,-1.465,0.671,73.333,830339.000,1.000
11.208,10.175,7.334,6.002,6.420,3.373,8.367,4.934,-0.063,1.001,0.004,-0.854,-1.434,0.702,73.333,830340.000,1.000
9.503,7.473,5.257,4.283,4.303,0.692,4.360,3.232,-0.062,1.002,0.005,-0.824,-1.526,0.763,73.333,830341.000,1.000
8.968,4.979,3.659,2.874,1.945,-3.436,-1.729,0.870,-0.064,1.000,0.001,-0.824,-1.434,0.732,73.333,830342.000,1.000
9.563,3.421,2.962,2.030,0.536,-6.555,-5.470,-0.987,-0.062,0.998,0.007,-0.885,-1.343,0.793,73.333,830343.000,1.000
10.716,3.260,3.226,1.672,0.776,-6.186,-4.132,-1.756,-0.063,0.999,0.007,-0.824,-1.434,0.824,73.333,830344.000,1.000
11.561,4.311,3.988,1.394,2.315,-1.972,1.134,-1.757,-0.063,1.000,0.007,-0.916,-1.434,0.824,73.333,830345.000,1.000
11.406,5.800,4.544,0.817,4.033,3.601,6.617,-1.409,-0.063,1.000,0.006,-0.946,-1.282,0.916,73.333,830346.000,1.000
10.167,7.020,4.482,-0.070,4.983,7.511,9.397,-0.780,-0.062,1.000,0.003,-0.946,-1.312,0.916,73.333,830347.000,1.000
8.352,7.803,3.932,-0.954,4.946,8.654,9.106,0.123,-0.061,1.000,0.004,-0.946,-1.221,0.916,73.333,830348.000,1.000
6.571,8.270,3.209,-1.473,4.257,7.762,7.162,1.314,-0.061,0.999,0.007,-1.099,-1.190,0.824,73.333,830349.000,1.000
5.162,8.515,2.563,-1.342,3.495,6.264,5.438,3.089,-0.062,1.000,0.005,-1.160,-1.160,0.824,73.333,830350.000,1.000
4.223,8.741,2.257,-0.408,3.340,5.996,5.652,5.757,-0.062,1.002,0.006,-1.160,-1.068,0.885,73.333,830351.000,1.000
3.764,9.342,2.603,1.181,4.266,8.654,8.958,8.997,-0.061,1.004,0.003,-1.221,-1.129,0.916,73.333,830352.000,1.000
3.731,10.436,3.749,2.915,5.980,14.010,14.866,11.780,-0.059,1.005,0.004,-1.282,-1.099,0.916,73.333,830353.000,1.000
3.932,11.384,5.297,4.057,7.174,18.815,20.230,12.837,-0.060,1.004,0.007,-1.373,-1.099,0.885,73.333,830354.000,1.000
3.955,10.969,6.253,3.877,6.035,18.320,20.236,11.100,-0.059,1.006,0.005,-1.495,-1.038,0.885,73.333,830355.000,1.000
3.270,8.195,5.508,1.973,1.405,9.620,11.605,6.129,-0.059,1.006,0.006,-1.617,-0.946,0.732,73.333,830356.000,1.000
1.565,3.165,2.644,-1.416,-6.175,-5.751,-4.432,-1.414,-0.059,1.003,0.005,-1.678,-0.854,0.793,73.333,830357.000,1.000
-0.881,-2.649,-1.531,-5.307,-14.366,-22.032,-22.069,-9.576,-0.060,1.003,0.006,-1.648,-0.763,0.641,73.333,830358.000,1.000
-3.142,-6.994,-5.291,-8.241,-19.975,-32.106,-33.642,-15.539,-0.059,1.003,0.007,-1.801,-0.793,0.580,73.333,830359.000,1.000
-4.144,-8.060,-6.917,-9.026,-20.681,-31.464,-33.972,-17.091,-0.057,1.005,0.009,-1.862,-0.702,0.610,73.333,830360.000,1.000
-3.442,-5.704,-5.825,-7.551,-16.657,-21.433,-24.301,-14.258,-0.057,1.006,0.013,-1.984,-0.549,0.671,73.333,830361.000,1.000
-1.486,-1.511,-2.872,-4.752,-10.392,-8.633,-11.440,-9.060,-0.058,1.005,0.011,-1.923,-0.580,0.641,73.333,830362.000,1.000
0.922,2.529,0.590,-1.707,-4.557,0.138,-1.911,-3.592,-0.059,1.005,0.011,-1.984,-0.580,0.702,73.333,830363.000,1.000
3.238,5.380,3.688,1.081,-0.149,2.993,2.832,1.317,-0.058,1.005,0.010,-2.014,-0.549,0.854,73.333,830364.000,1.000
5.172,7.113,6.153,3.504,3.255,2.994,5.530,5.570,-0.059,1.002,0.011,-1.984,-0.519,0.824,73.333,830365.000,1.000
6.359,7.956,7.735,5.138,5.696,3.477,8.042,8.170,-0.059,1.003,0.013,-2.014,-0.519,0.885,73.333,830366.000,1.000
6.333,7.571,7.928,5.041,5.936,4.187,8.281,6.978,-0.061,1.003,0.014,-2.045,-0.519,0.977,73.333,830367.000,1.000
4.938,5.505,6.538,2.652,2.849,2.541,3.030,0.946,-0.063,1.002,0.016,-2.045,-0.641,0.946,73.333,830368.000,1.000
2.694,2.189,4.315,-1.215,-2.636,-2.270,-7.201,-7.707,-0.063,1.000,0.013,-2.075,-0.702,0.916,73.333,830369.000,1.000
0.591,-0.924,2.789,-4.575,-7.603,-7.782,-17.427,-14.393,-0.064,1.000,0.010,-1.923,-0.671,0.946,73.333,830370.000,1.000
-0.661,-2.463,3.097,-5.766,-9.395,-10.725,-22.346,-15.634,-0.064,0.999,0.012,-1.709,-0.885,0.885,73.333,830371.000,1.000
-1.130,-2.177,5.039,-4.649,-7.581,-9.764,-20.384,-11.619,-0.066,0.998,0.012,-1.587,-0.916,0.824,73.333,830372.000,1.000
-1.316,-0.775,7.482,-2.296,-3.750,-5.712,-13.737,-5.485,-0.066,0.998,0.011,-1.648,-1.007,0.793,73.333,830373.000,1.000
-1.506,0.892,9.400,0.156,0.169,-0.255,-5.697,-0.425,-0.067,1.000,0.014,-1.556,-1.129,0.824,73.333,830374.000,1.000
-1.579,2.376,10.539,2.248,3.300,5.166,1.891,2.648,-0.066,1.001,0.014,-1.434,-1.251,0.885,73.333,830375.000,1.000
-1.241,3.606,11.247,4.120,5.833,9.671,8.883,5.030,-0.065,1.001,0.012,-1.465,-1.404,0.854,73.333,830376.000,1.000
-0.413,4.390,11.731,5.841,7.859,12.058,14.569,8.123,-0.068,0.998,0.014,-1.373,-1.526,0.916,73.333,830377.000,1.000
0.520,4.070,11.613,6.879,8.556,10.411,16.463,11.540,-0.066,0.996,0.015,-1.343,-1.587,0.854,73.333,830378.000,1.000
0.868,1.987,10.267,6.356,6.896,3.909,12.515,13.277,-0.067,0.995,0.014,-1.190,-1.678,0.763,73.333,830379.000,1.000
0.118,-1.744,7.584,3.898,2.894,-5.485,3.629,11.600,-0.067,0.994,0.016,-1.099,-1.831,0.671,73.333,830380.000,1.000
-1.674,-6.120,4.179,0.154,-2.104,-14.058,-6.639,6.778,-0.068,0.994,0.019,-0.977,-1.923,0.641,73.333,830381.000,1.000
-3.930,-9.849,0.912,-3.582,-6.236,-18.771,-14.170,1.084,-0.066,0.993,0.015,-0.885,-2.045,0.671,73.333,830382.000,1.000
-5.953,-12.098,-1.661,-6.275,-8.339,-18.802,-16.536,-3.120,-0.066,0.993,0.016,-0.763,-2.136,0.610,73.333,830383.000,1.000
-7.302,-12.816,-3.500,-7.786,-8.635,-15.591,-14.334,-5.320,-0.065,0.994,0.015,-0.671,-2.258,0.580,73.333,830384.000,1.000
-7.807,-12.393,-4.710,-8.583,-8.125,-11.481,-10.129,-6.494,-0.064,0.994,0.013,-0.519,-2.350,0.610,73.333,830385.000,1.000
-7.396,-11.128,-5.178,-9.016,-7.439,-7.933,-6.114,-7.341,-0.065,0.994,0.012,-0.427,-2.411,0.580,73.333,830386.000,1.000
-6.191,-9.223,-4.798,-9.188,-6.675,-5.216,-3.456,-7.840,-0.063,0.993,0.007,-0.397,-2.411,0.519,73.333,830387.000,1.000
-4.656,-7.154,-3.852,-9.292,-6.036,-3.448,-2.917,-8.125,-0.063,0.997,0.008,-0.336,-2.441,0.641,73.333,830388.000,1.000
-3.321,-5.531,-2.877,-9.539,-5.771,-2.762,-4.409,-8.540,-0.063,0.999,0.010,-0.336,-2.380,0.549,73.333,830389.000,1.000
-2.281,-4.607,-2.077,-9.776,-5.714,-2.888,-6.691,-8.910,-0.066,1.000,0.009,-0.275,-2.472,0.519,73.333,830390.000,1.000
-1.212,-4.287,-1.288,-9.573,-5.530,-3.830,-8.768,-8.624,-0.067,1.001,0.010,-0.336,-2.563,0.366,73.333,830391.000,1.000
0.134,-4.402,-0.346,-8.624,-5.116,-6.094,-10.612,-7.364,-0.069,1.002,0.011,-0.336,-2.533,0.244,73.333,830392.000,1.000
1.701,-4.537,0.931,-6.823,-4.334,-9.216,-12.113,-5.302,-0.066,1.004,0.013,-0.275,-2.625,0.183,73.333,830393.000,1.000
3.306,-4.006,2.742,-4.231,-2.841,-11.342,-12.589,-2.807,-0.067,1.004,0.011,-0.397,-2.686,-0.061,73.333,830394.000,1.000
4.741,-2.422,5.023,-1.207,-0.541,-11.018,-11.429,-0.297,-0.066,1.006,0.012,-0.488,-2.747,-0.275,73.333,830395.000,1.000
5.779,-0.033,7.315,1.634,2.264,-8.101,-8.168,1.926,-0.065,1.005,0.009,-0.610,-2.747,-0.488,73.333,830396.000,1.000
6.238,2.636,9.116,3.765,5.304,-2.826,-2.048,3.956,-0.063,1.003,0.011,-0.702,-2.747,-0.610,73.333,830397.000,1.000
6.059,5.044,10.167,4.911,8.273,4.166,6.889,5.935,-0.059,1.001,0.011,-0.854,-2.716,-0.580,73.333,830398.000,1.000
5.266,6.481,10.186,4.829,10.233,10.531,15.659,7.376,-0.059,0.996,0.010,-0.854,-2.716,-0.580,73.333,830399.000,1.000
3.893,6.155,8.774,3.291,9.866,12.823,19.100,7.362,-0.056,0.994,0.009,-0.824,-2.594,-0.549,73.333,830400.000,1.000
2.050,3.881,5.843,0.506,6.798,9.476,14.339,5.582,-0.060,0.995,0.007,-0.763,-2.350,-0.519,73.333,830401.000,1.000
0.068,0.481,2.016,-2.652,2.260,2.283,3.633,2.780,-0.062,0.993,0.008,-0.610,-2.289,-0.580,73.333,830402.000,1.000
-1.619,-2.806,-1.659,-5.145,-1.967,-5.473,-7.836,0.002,-0.063,0.994,0.008,-0.488,-2.289,-0.610,73.333,830403.000,1.000
-2.753,-5.144,-4.420,-6.448,-4.898,-11.261,-15.589,-2.313,-0.067,0.994,0.005,-0.397,-2.228,-0.580,73.333,830404.000,1.000
-3.401,-6.320,-6.055,-6.737,-6.589,-13.896,-17.743,-4.545,-0.067,0.998,0.002,-0.397,-2.197,-0.671,73.333,830405.000,1.000
-3.914,-6.641,-6.851,-6.680,-7.740,-13.695,-15.670,-7.539,-0.068,1.001,0.007,-0.305,-2.258,-0.610,73.333,830406.000,1.000
-4.705,-6.705,-7.386,-6.964,-9.071,-12.330,-12.870,-11.684,-0.068,1.002,0.005,-0.336,-2.197,-0.427,73.333,830407.000,1.000
-5.878,-6.949,-8.020,-7.737,-10.618,-11.457,-12.050,-15.976,-0.065,1.003,0.004,-0.366,-2.258,-0.366,73.333,830408.000,1.000
-7.101,-7.186,-8.502,-8.370,-11.413,-10.832,-12.846,-18.198,-0.066,1.002,0.002,-0.366,-2.258,-0.275,73.333,830409.000,1.000
-7.890,-6.728,-8.107,-7.878,-10.112,-8.450,-12.428,-16.455,-0.068,1.001,0.001,-0.427,-2.228,-0.031,73.333,830410.000,1.000
-8.030,-5.269,-6.451,-5.845,-6.543,-3.730,-9.206,-11.073,-0.070,0.999,0.001,-0.397,-2.228,-0.061,73.333,830411.000,1.000
-7.724,-3.402,-4.050,-2.953,-2.359,0.668,-5.070,-4.779,-0.074,1.000,0.003,-0.305,-2.228,-0.031,73.333,830412.000,1.000
-7.275,-1.937,-1.766,-0.290,0.519,1.742,-2.800,-0.368,-0.075,1.000,0.002,-0.275,-2.228,-0.092,73.333,830413.000,1.000
-6.762,-1.114,-0.075,1.619,1.583,-0.731,-2.987,1.536,-0.076,1.000,0.004,-0.214,-2.258,-0.122,73.333,830414.000,1.000
-6.157,-0.767,1.006,2.869,1.580,-4.530,-4.042,2.107,-0.079,1.004,0.007,-0.275,-2.411,-0.183,73.333,830415.000,1.000
-5.614,-0.770,1.559,3.624,1.451,-6.560,-3.556,2.442,-0.078,1.007,0.010,-0.488,-2.533,-0.183,73.333,830416.000,1.000
-5.422,-0.992,1.656,3.913,1.822,-4.251,0.318,2.810,-0.076,1.010,0.010,-0.671,-2.625,-0.305,73.333,830417.000,1.000
-5.779,-1.274,1.366,3.721,2.720,2.465,7.023,2.971,-0.073,1.012,0.013,-0.854,-2.686,-0.366,73.333,830418.000,1.000
-6.847,-1.949,0.353,2.766,3.050,9.609,12.280,2.049,-0.071,1.012,0.013,-1.160,-2.747,-0.458,73.333,830419.000,1.000
-8.799,-3.933,-2.064,0.507,0.986,11.191,10.544,-1.144,-0.070,1.010,0.013,-1.343,-2.777,-0.366,73.333,830420.000,1.000
-11.462,-7.638,-5.976,-3.055,-4.072,4.716,0.584,-6.366,-0.068,1.008,0.008,-1.434,-2.747,-0.366,73.333,830421.000,1.000
-14.079,-12.156,-10.343,-6.924,-10.451,-6.275,-12.769,-11.392,-0.068,1.006,0.009,-1.556,-2.716,-0.397,73.333,830422.000,1.000
-15.860,-16.020,-13.782,-9.931,-15.781,-16.026,-23.112,-14.253,-0.063,1.004,0.006,-1.556,-2.686,-0.397,73.333,830423.000,1.000
-16.591,-18.220,-15.571,-11.605,-18.709,-20.977,-26.726,-14.944,-0.063,1.003,0.007,-1.465,-2.533,-0.305,73.333,830424.000,1.000
-16.473,-18.362,-15.610,-11.984,-18.953,-20.585,-23.435,-14.316,-0.061,1.003,0.008,-1.465,-2.380,-0.275,73.333,830425.000,1.000
-15.697,-16.601,-14.092,-11.165,-16.918,-16.769,-16.288,-12.584,-0.059,1.001,0.006,-1.434,-2.167,-0.092,73.333,830426.000,1.000
-14.300,-13.560,-11.408,-9.238,-13.452,-12.549,-9.522,-9.532,-0.062,1.001,0.009,-1.434,-1.984,0.061,73.333,830427.000,1.000
-12.257,-9.942,-7.991,-6.370,-9.375,-9.666,-5.468,-5.445,-0.063,0.998,0.008,-1.434,-1.801,0.122,73.333,830428.000,1.000
-9.677,-6.258,-4.274,-2.880,-5.205,-7.707,-3.654,-1.237,-0.066,0.999,0.007,-1.251,-1.678,0.275,73.333,830429.000,1.000
-6.904,-2.836,-0.642,0.735,-1.209,-5.257,-2.106,2.253,-0.066,0.999,0.009,-1.221,-1.495,0.366,73.333,830430.000,1.000
-4.366,0.170,2.626,3.913,2.476,-1.236,1.005,4.608,-0.067,0.999,0.009,-1.007,-1.312,0.366,73.333,830431.000,1.000
-2.374,2.726,5.385,6.248,5.726,4.340,6.168,5.686,-0.070,0.999,0.008,-0.824,-1.251,0.366,73.333,830432.000,1.000
-1.048,4.802,7.622,7.659,8.392,10.161,12.173,5.716,-0.070,0.997,0.011,-0.824,-1.221,0.366,73.333,830433.000,1.000
-0.345,6.355,9.377,8.389,10.379,14.366,16.953,5.359,-0.072,0.996,0.007,-0.671,-1.160,0.488,73.333,830434.000,1.000
-0.076,7.471,10.801,8.834,11.745,15.936,19.167,5.260,-0.073,0.996,0.008,-0.610,-1.221,0.488,73.333,830435.000,1.000
0.021,8.345,12.067,9.331,12.668,15.354,18.886,5.585,-0.072,0.996,0.008,-0.580,-1.129,0.458,73.333,830436.000,1.000
0.072,9.068,13.153,10.064,13.413,14.051,17.412,6.370,-0.075,0.995,0.010,-0.580,-1.099,0.488,73.333,830437.000,1.000
-0.053,9.600,13.829,11.060,14.406,13.691,17.005,8.080,-0.074,0.995,0.008,-0.458,-1.099,0.458,73.333,830438.000,1.000
-0.659,9.799,13.644,11.945,15.779,15.007,18.985,10.834,-0.072,0.995,0.006,-0.336,-1.007,0.397,73.333,830439.000,1.000
-2.035,9.210,11.987,11.788,16.563,16.225,21.077,13.116,-0.071,0.994,0.009,-0.275,-1.007,0.458,73.333,830440.000,1.000
-4.109,7.378,8.734,9.849,15.391,14.388,19.240,12.797,-0.072,0.995,0.010,-0.244,-0.977,0.366,73.333,830441.000,1.000
-6.155,4.715,4.949,6.625,12.361,9.318,12.897,9.700,-0.073,0.997,0.007,-0.122,-0.977,0.366,73.333,830442.000,1.000
-7.161,2.341,2.172,3.521,8.965,3.980,5.279,5.600,-0.074,0.997,0.011,-0.153,-0.946,0.458,73.333,830443.000,1.000
-6.629,0.952,0.835,1.520,6.332,0.911,-0.666,2.088,-0.072,0.999,0.011,-0.183,-0.916,0.458,73.333,830444.000,1.000
-4.721,0.619,0.278,0.827,4.865,0.882,-3.456,0.043,-0.073,0.998,0.010,-0.122,-0.916,0.366,73.333,830445.000,1.000
-1.861,1.314,-0.069,1.297,4.786,3.785,-2.550,0.030,-0.072,1.000,0.009,-0.122,-0.946,0.397,73.333,830446.000,1.000
1.281,2.624,-0.431,2.321,5.542,7.789,0.247,1.494,-0.071,1.000,0.007,-0.092,-0.916,0.488,73.333,830447.000,1.000
3.740,3.465,-1.089,2.853,5.618,9.246,1.213,2.756,-0.068,1.000,0.008,-0.153,-0.885,0.580,73.333,830448.000,1.000
4.868,3.112,-2.122,2.449,4.311,6.459,-0.878,3.020,-0.069,1.001,0.011,-0.214,-0.916,0.732,73.333,830449.000,1.000
4.925,2.153,-2.848,1.967,2.945,2.364,-2.491,3.372,-0.068,1.002,0.012,-0.214,-1.007,0.793,73.333,830450.000,1.000
4.634,1.725,-2.378,2.652,3.331,1.278,0.423,5.177,-0.067,1.004,0.011,-0.305,-0.885,0.916,73.333,830451.000,1.000
4.263,2.045,-0.740,4.721,5.567,3.977,7.102,8.316,-0.065,1.002,0.009,-0.366,-0.763,0.946,73.333,830452.000,1.000
3.510,2.312,1.098,7.210,8.113,7.723,12.925,11.505,-0.064,1.004,0.007,-0.488,-0.732,0.977,73.333,830453.000,1.000
2.175,1.948,2.248,9.003,9.652,10.288,14.849,13.756,-0.065,1.004,0.009,-0.519,-0.793,1.038,73.333,830454.000,1.000
0.543,1.242,2.611,9.670,10.002,11.719,13.679,14.874,-0.065,1.003,0.011,-0.488,-0.702,1.160,73.333,830455.000,1.000
-0.846,0.805,2.596,9.448,9.509,12.653,11.720,14.884,-0.067,1.005,0.010,-0.732,-0.519,1.251,73.333,830456.000,1.000
-1.506,0.939,2.616,8.873,8.516,13.036,10.474,13.820,-0.066,1.004,0.012,-0.793,-0.488,1.343,73.333,830457.000,1.000
-1.240,1.415,2.810,8.425,7.198,12.153,9.794,11.900,-0.065,1.003,0.011,-0.977,-0.488,1.312,73.333,830458.000,1.000
-0.305,1.527,2.873,8.210,5.342,8.934,7.923,9.208,-0.065,1.002,0.009,-0.977,-0.366,1.312,73.333,830459.000,1.000
0.851,0.687,2.432,8.041,2.681,3.087,3.394,5.508,-0.068,1.002,0.008,-1.007,-0.244,1.373,73.333,830460.000,1.000
2.015,-0.907,1.561,7.871,-0.356,-3.773,-2.780,0.988,-0.069,1.002,0.013,-1.038,-0.305,1.373,73.333,830461.000,1.000
3.196,-2.384,0.734,7.957,-2.633,-8.923,-7.769,-3.124,-0.067,1.003,0.010,-1.038,-0.336,1.343,73.333,830462.000,1.000
4.331,-2.958,0.411,8.607,-3.215,-10.698,-9.651,-5.176,-0.068,1.003,0.010,-1.129,-0.275,1.343,73.333,830463.000,1.000
5.143,-2.530,0.623,9.767,-2.220,-9.698,-9.029,-4.492,-0.069,1.004,0.011,-1.251,-0.183,1.221,73.333,830464.000,1.000
5.235,-1.700,0.907,10.809,-0.824,-8.044,-8.150,-2.097,-0.068,1.005,0.013,-1.251,-0.305,1.190,73.333,830465.000,1.000
4.380,-1.188,0.595,10.867,-0.319,-7.434,-8.638,0.088,-0.069,1.007,0.014,-1.221,-0.275,1.099,73.333,830466.000,1.000
2.817,-1.137,-0.601,9.512,-1.029,-7.538,-9.888,0.697,-0.069,1.006,0.012,-1.373,-0.305,1.190,73.333,830467.000,1.000
1.189,-1.049,-2.222,7.070,-2.147,-6.257,-9.464,-0.331,-0.065,1.000,0.012,-1.343,-0.275,1.038,73.333,830468.000,1.000
0.075,-0.392,-3.430,4.325,-2.529,-1.908,-5.209,-1.872,-0.065,1.000,0.012,-1.434,-0.366,0.977,73.333,830469.000,1.000
-0.447,0.784,-3.732,1.904,-1.783,4.587,2.436,-2.512,-0.064,0.999,0.010,-1.465,-0.336,0.977,73.333,830470.000,1.000
-0.856,1.776,-3.515,-0.205,-0.844,9.845,9.680,-2.052,-0.063,0.997,0.011,-1.434,-0.244,1.038,73.333,830471.000,1.000
-1.694,1.855,-3.643,-2.428,-1.172,10.837,11.993,-1.792,-0.060,1.000,0.009,-1.312,-0.183,0.977,73.333,830472.000,1.000
-2.902,1.109,-4.314,-4.715,-3.023,7.786,8.498,-2.744,-0.062,1.002,0.011,-1.160,-0.061,0.946,73.333,830473.000,1.000
-3.820,0.484,-4.760,-6.213,-4.846,4.076,3.035,-4.206,-0.060,1.001,0.009,-1.038,-0.031,1.068,73.333,830474.000,1.000
-3.985,0.705,-4.273,-6.120,-4.909,2.830,-0.123,-4.723,-0.059,1.003,0.011,-1.007,0.092,1.160,73.333,830475.000,1.000
-3.792,1.266,-3.348,-4.713,-3.276,3.590,-0.959,-3.900,-0.059,1.000,0.011,-1.160,0.183,1.190,73.333,830476.000,1.000
-4.136,0.927,-3.293,-3.195,-1.609,3.224,-2.587,-2.691,-0.059,1.001,0.012,-1.129,0.275,1.282,73.333,830477.000,1.000
-5.458,-0.836,-4.677,-2.592,-1.241,0.057,-6.530,-2.296,-0.059,1.001,0.013,-1.099,0.397,1.404,73.333,830478.000,1.000
-7.374,-3.298,-6.710,-3.020,-2.078,-4.365,-11.309,-3.085,-0.062,0.998,0.010,-0.977,0.488,1.404,73.333,830479.000,1.000
-9.141,-5.326,-8.077,-3.842,-3.103,-7.476,-14.660,-4.240,-0.064,0.997,0.011,-0.977,0.488,1.404,73.333,830480.000,1.000
-10.245,-6.213,-8.097,-4.230,-3.245,-7.711,-14.844,-4.317,-0.069,1.000,0.010,-0.824,0.458,1.312,73.333,830481.000,1.000
-10.621,-5.775,-7.044,-3.608,-1.787,-4.337,-10.383,-2.289,-0.072,1.001,0.013,-0.793,0.305,1.251,73.333,830482.000,1.000
-10.650,-4.407,-5.789,-2.009,1.052,1.877,-1.625,1.690,-0.075,1.004,0.016,-0.793,0.183,1.190,73.333,830483.000,1.000
-11.070,-3.316,-5.532,-0.340,3.523,7.124,7.070,6.076,-0.073,1.005,0.015,-0.854,0.061,1.038,73.333,830484.000,1.000
-12.517,-3.847,-7.126,0.073,3.369,6.883,10.049,8.561,-0.072,1.004,0.015,-0.977,-0.031,1.007,73.333,830485.000,1.000
-14.858,-6.151,-10.265,-1.396,0.024,0.825,6.058,7.617,-0.069,1.004,0.017,-1.129,-0.153,0.916,73.333,830486.000,1.000
-17.096,-8.984,-13.593,-4.148,-4.785,-6.795,-0.871,3.789,-0.069,1.005,0.014,-1.099,-0.153,0.885,73.333,830487.000,1.000
-18.048,-10.848,-15.716,-6.955,-8.660,-11.463,-5.820,-0.683,-0.065,1.006,0.014,-1.160,-0.183,0.854,73.333,830488.000,1.000
-17.138,-11.011,-16.134,-8.895,-10.238,-11.448,-6.657,-3.554,-0.066,1.004,0.012,-1.251,-0.244,0.854,73.333,830489.000,1.000
-14.707,-9.677,-15.291,-9.711,-9.479,-7.344,-3.784,-3.767,-0.065,1.003,0.011,-1.038,-0.305,0.824,73.333,830490.000,1.000
-11.704,-7.577,-14.033,-9.574,-7.044,-0.643,1.731,-1.445,-0.063,1.001,0.011,-1.007,-0.336,0.946,73.333,830491.000,1.000
-9.060,-5.563,-13.082,-8.806,-3.970,6.414,8.250,2.382,-0.060,0.999,0.012,-1.099,-0.366,1.007,73.333,830492.000,1.000
-7.223,-4.288,-12.693,-7.806,-1.595,11.009,12.849,5.934,-0.060,1.000,0.011,-1.068,-0.244,1.129,73.333,830493.000,1.000
-6.060,-3.796,-12.547,-6.932,-0.874,11.553,12.984,7.401,-0.061,1.000,0.010,-1.007,-0.366,1.251,73.333,830494.000,1.000
-5.114,-3.499,-11.946,-6.322,-1.641,8.990,8.981,6.078,-0.063,1.000,0.009,-0.885,-0.366,1.251,73.333,830495.000,1.000
-4.044,-2.782,-10.377,-5.857,-2.809,5.689,3.750,2.897,-0.064,1.001,0.013,-0.732,-0.336,1.282,73.333,830496.000,1.000
-2.947,-1.582,-7.977,-5.366,-3.305,3.519,0.161,-0.382,-0.063,1.001,0.015,-0.732,-0.458,1.312,73.333,830497.000,1.000
-2.207,-0.402,-5.410,-4.769,-2.850,2.857,-1.231,-2.646,-0.064,1.001,0.012,-0.641,-0.366,1.343,73.333,830498.000,1.000
-1.919,0.301,-3.299,-3.919,-1.778,3.009,-1.838,-3.721,-0.064,1.000,0.011,-0.458,-0.488,1.373,73.333,830499.000,1.000
-1.555,0.675,-1.648,-2.413,-0.289,3.246,-2.646,-3.527,-0.065,0.998,0.011,-0.488,-0.549,1.282,73.333,830500.000,1.000
-0.406,1.254,-0.051,0.046,1.657,3.076,-3.280,-1.829,-0.066,0.998,0.014,-0.488,-0.549,1.312,73.333,830501.000,1.000
1.728,2.446,1.800,3.254,4.047,2.326,-2.838,1.373,-0.064,0.999,0.012,-0.427,-0.610,1.282,73.333,830502.000,1.000
4.388,4.427,4.118,6.677,6.886,1.890,-0.249,5.692,-0.066,1.000,0.012,-0.336,-0.824,1.190,73.333,830503.000,1.000
6.739,7.036,6.962,9.699,10.044,3.159,4.992,10.127,-0.064,1.001,0.014,-0.305,-0.854,1.190,73.333,830504.000,1.000
7.959,9.481,9.899,11.613,12.645,5.673,11.012,12.990,-0.066,1.000,0.012,-0.336,-0.793,1.129,73.333,830505.000,1.000
7.686,10.703,12.004,11.916,13.414,6.915,14.031,12.956,-0.065,1.000,0.012,-0.244,-0.885,1.068,73.333,830506.000,1.000
6.292,10.347,12.526,10.751,11.997,5.327,12.059,10.275,-0.064,1.000,0.009,-0.275,-0.977,1.007,73.333,830507.000,1.000
4.534,8.926,11.373,8.755,9.233,1.889,6.710,6.318,-0.064,0.999,0.007,-0.214,-1.007,0.946,73.333,830508.000,1.000
2.932,7.110,8.962,6.536,6.193,-1.322,1.148,2.372,-0.063,0.998,0.011,-0.214,-1.038,0.854,73.333,830509.000,1.000
1.683,5.469,6.139,4.645,3.764,-2.398,-1.814,-0.466,-0.063,0.999,0.009,-0.214,-1.038,0.854,73.333,830510.000,1.000
0.955,4.602,3.939,3.625,2.745,-0.011,-0.169,-1.193,-0.062,1.000,0.010,-0.214,-1.038,0.702,73.333,830511.000,1.000
0.866,4.851,3.017,3.650,3.545,5.831,6.694,0.596,-0.063,0.999,0.011,-0.305,-0.977,0.641,73.333,830512.000,1.000
1.270,5.961,3.394,4.314,5.840,13.429,17.185,4.413,-0.066,1.001,0.012,-0.305,-1.068,0.702,73.333,830513.000,1.000
1.768,7.108,4.468,4.796,8.456,19.736,26.891,8.822,-0.065,1.002,0.009,-0.427,-1.007,0.580,73.333,830514.000,1.000
1.890,7.210,5.207,4.212,9.597,21.230,29.898,11.746,-0.063,1.000,0.011,-0.488,-0.977,0.458,73.333,830515.000,1.000
1.381,5.542,4.651,2.149,7.868,15.944,22.884,11.647,-0.065,1.000,0.012,-0.580,-1.007,0.366,73.333,830516.000,1.000
0.411,2.338,2.553,-0.977,3.334,5.279,8.062,8.433,-0.066,1.001,0.012,-0.610,-1.099,0.366,73.333,830517.000,1.000
-0.404,-1.154,-0.334,-4.066,-2.319,-6.253,-7.841,3.335,-0.067,1.002,0.009,-0.549,-1.129,0.305,73.333,830518.000,1.000
-0.223,-3.197,-2.598,-5.750,-6.411,-13.051,-17.032,-1.461,-0.066,1.001,0.009,-0.702,-1.221,0.214,73.333,830519.000,1.000
1.447,-2.649,-3.013,-5.112,-6.828,-11.827,-15.308,-3.748,-0.067,1.000,0.007,-0.732,-1.282,0.061,73.333,830520.000,1.000
4.135,-0.015,-1.542,-2.520,-3.836,-4.644,-5.688,-3.015,-0.065,0.999,0.009,-0.885,-1.190,0.122,73.333,830521.000,1.000
6.563,2.819,0.577,0.447,-0.029,2.287,3.570,-0.971,-0.067,1.000,0.011,-0.946,-1.404,0.061,73.333,830522.000,1.000
7.609,4.155,1.961,2.173,1.953,3.893,5.994,0.063,-0.068,1.000,0.012,-0.916,-1.495,0.122,73.333,830523.000,1.000
6.999,3.678,2.063,2.070,1.481,0.222,1.855,-0.905,-0.068,0.998,0.009,-0.885,-1.587,0.031,73.333,830524.000,1.000
5.293,2.361,1.383,0.728,0.009,-4.248,-3.256,-3.005,-0.067,0.998,0.005,-0.854,-1.556,0.153,73.333,830525.000,1.000
3.456,1.494,0.959,-0.651,-0.448,-4.727,-3.915,-4.444,-0.066,0.998,0.009,-0.702,-1.617,0.153,73.333,830526.000,1.000
2.294,1.548,1.485,-1.117,0.877,-0.418,0.464,-3.984,-0.068,0.998,0.007,-0.763,-1.740,0.153,73.333,830527.000,1.000
1.965,1.707,2.678,-0.551,2.844,4.607,5.605,-1.809,-0.069,0.999,0.009,-0.793,-1.831,0.183,73.333,830528.000,1.000
2.009,0.738,3.574,0.536,3.700,5.630,7.312,0.960,-0.069,0.996,0.008,-0.885,-1.892,0.214,73.333,830529.000,1.000
1.915,-1.579,3.652,1.672,2.995,2.405,5.972,3.394,-0.069,0.998,0.007,-0.824,-1.984,0.244,73.333,830530.000,1.000
1.534,-4.215,3.249,2.657,1.691,-1.234,4.842,5.015,-0.070,0.999,0.005,-0.732,-2.014,0.336,73.333,830531.000,1.000
0.974,-6.003,2.861,3.273,0.615,-2.430,5.087,5.345,-0.068,0.998,0.008,-0.702,-1.953,0.336,73.333,830532.000,1.000
0.457,-6.445,2.647,3.304,-0.202,-1.763,5.036,4.196,-0.069,1.001,0.009,-0.793,-1.984,0.488,73.333,830533.000,1.000
0.289,-5.611,2.591,2.879,-0.795,-1.250,3.461,2.458,-0.068,0.999,0.009,-0.854,-2.014,0.427,73.333,830534.000,1.000
0.610,-4.013,2.731,2.359,-1.019,-2.364,1.010,1.620,-0.067,1.002,0.009,-0.793,-2.106,0.336,73.333,830535.000,1.000
1.159,-2.430,3.071,1.856,-0.932,-5.178,-0.915,2.109,-0.069,1.003,0.011,-0.885,-2.106,0.458,73.333,830536.000,1.000
1.511,-1.359,3.555,1.204,-0.634,-7.838,-1.016,2.967,-0.068,1.004,0.012,-0.854,-2.014,0.519,73.333,830537.000,1.000
1.469,-0.811,4.051,0.289,-0.103,-8.112,0.854,3.237,-0.068,1.002,0.012,-0.916,-2.045,0.549,73.333,830538.000,1.000
1.004,-0.850,3.999,-1.030,0.148,-6.511,2.218,2.473,-0.067,1.003,0.008,-1.038,-2.014,0.488,73.333,830539.000,1.000
0.059,-1.832,2.559,-3.051,-1.117,-6.419,-0.710,0.108,-0.068,1.003,0.008,-0.946,-2.106,0.458,73.333,830540.000,1.000
-1.293,-3.782,-0.471,-5.810,-4.521,-10.116,-8.948,-4.189,-0.067,1.002,0.010,-1.007,-1.984,0.458,73.333,830541.000,1.000
-2.636,-5.896,-4.084,-8.653,-8.943,-15.924,-18.968,-9.468,-0.068,1.003,0.011,-0.977,-2.075,0.427,73.333,830542.000,1.000
-3.283,-6.903,-6.575,-10.441,-12.095,-19.625,-25.123,-13.516,-0.066,1.002,0.009,-1.068,-2.014,0.488,73.333,830543.000,1.000
-2.612,-5.835,-6.685,-10.233,-12.048,-17.750,-23.264,-14.117,-0.067,1.003,0.009,-1.038,-1.953,0.427,73.333,830544.000,1.000
-0.485,-2.654,-4.286,-7.859,-8.422,-9.890,-13.173,-10.413,-0.067,1.003,0.011,-1.129,-1.892,0.458,73.333,830545.000,1.000
2.533,1.614,-0.325,-4.031,-2.623,0.992,1.102,-3.427,-0.068,1.004,0.011,-1.068,-1.801,0.458,73.333,830546.000,1.000
5.358,5.323,3.691,-0.058,2.881,10.330,13.594,4.305,-0.067,1.004,0.012,-1.068,-1.740,0.488,73.333,830547.000,1.000
6.874,6.960,6.274,2.651,5.721,14.448,19.673,9.682,-0.068,1.002,0.008,-1.038,-1.740,0.397,73.333,830548.000,1.000
6.466,5.873,6.393,3.207,4.824,12.350,18.075,10.612,-0.068,1.001,0.006,-1.099,-1.678,0.458,73.333,830549.000,1.000
4.454,2.764,4.162,1.885,1.255,6.505,11.592,7.622,-0.064,1.001,0.007,-1.099,-1.617,0.488,73.333,830550.000,1.000
2.073,-0.598,1.075,0.087,-2.349,1.632,5.604,3.407,-0.064,1.000,0.006,-1.099,-1.526,0.488,73.333,830551.000,1.000
0.676,-2.679,-1.009,-0.769,-3.975,0.825,3.745,0.154,-0.063,1.000,0.006,-1.160,-1.434,0.427,73.333,830552.000,1.000
0.817,-3.336,-1.274,-0.331,-3.869,2.546,4.654,-2.093,-0.062,0.999,0.006,-0.977,-1.404,0.488,73.333,830553.000,1.000
2.148,-3.427,-0.311,0.775,-3.594,2.803,4.391,-4.302,-0.062,0.997,0.009,-0.793,-1.404,0.458,73.333,830554.000,1.000
4.022,-3.497,0.881,1.771,-3.947,0.042,1.603,-6.746,-0.065,0.998,0.011,-0.854,-1.404,0.580,73.333,830555.000,1.000
5.914,-3.388,1.680,2.152,-4.556,-3.873,-1.889,-8.894,-0.066,0.996,0.006,-0.732,-1.221,0.580,73.333,830556.000,1.000
7.359,-2.991,1.748,1.649,-4.995,-6.800,-4.523,-10.144,-0.064,0.997,0.006,-0.793,-1.099,0.580,73.333,830557.000,1.000
7.967,-2.546,0.996,0.376,-5.101,-7.865,-5.914,-10.029,-0.065,0.998,0.009,-0.702,-1.099,0.580,73.333,830558.000,1.000
7.643,-2.237,-0.364,-1.144,-4.592,-6.797,-5.494,-8.345,-0.065,1.000,0.013,-0.641,-1.068,0.610,73.333,830559.000,1.000
6.537,-2.254,-2.101,-2.525,-3.556,-4.544,-3.260,-5.666,-0.066,1.001,0.008,-0.763,-0.854,0.732,73.333,830560.000,1.000
4.807,-3.127,-4.332,-3.944,-3.020,-3.841,-1.292,-3.277,-0.066,1.002,0.008,-0.824,-0.763,0.641,73.333,830561.000,1.000
2.702,-5.245,-7.215,-5.740,-4.078,-6.824,-2.041,-2.210,-0.067,1.003,0.009,-0.824,-0.824,0.824,73.333,830562.000,1.000
0.685,-8.200,-10.424,-7.889,-6.752,-12.516,-5.521,-2.716,-0.069,1.001,0.011,-0.946,-0.763,0.885,73.333,830563.000,1.000
-0.818,-11.134,-13.398,-10.133,-10.270,-18.143,-10.152,-4.811,-0.070,1.001,0.009,-0.916,-0.793,0.793,73.333,830564.000,1.000
-1.645,-13.380,-15.637,-12.164,-13.869,-21.964,-15.183,-8.467,-0.070,1.001,0.010,-1.007,-0.946,0.824,73.333,830565.000,1.000
-1.730,-14.446,-16.617,-13.421,-16.681,-23.438,-20.096,-12.821,-0.068,1.003,0.009,-1.007,-1.038,0.763,73.333,830566.000,1.000
-1.030,-13.826,-15.835,-13.177,-17.411,-21.706,-22.611,-15.774,-0.069,1.001,0.010,-1.038,-1.068,0.793,73.333,830567.000,1.000
0.288,-11.265,-13.176,-11.084,-14.917,-15.501,-19.424,-15.087,-0.069,1.003,0.009,-0.946,-1.099,0.793,73.333,830568.000,1.000
1.765,-7.271,-9.280,-7.625,-9.376,-5.098,-9.643,-10.230,-0.069,1.004,0.012,-0.916,-1.129,0.732,73.333,830569.000,1.000
2.803,-3.256,-5.328,-3.998,-2.809,5.962,2.944,-3.136,-0.069,1.005,0.013,-0.977,-1.221,0.702,73.333,830570.000,1.000
3.018,-0.782,-2.414,-1.442,2.010,12.588,12.098,3.025,-0.070,1.004,0.011,-1.129,-1.190,0.732,73.333,830571.000,1.000
2.521,-0.367,-0.925,-0.474,3.545,12.337,13.899,5.911,-0.069,1.002,0.011,-1.129,-1.282,0.671,73.333,830572.000,1.000
1.762,-1.218,-0.442,-0.768,2.245,6.935,8.758,5.061,-0.070,1.002,0.011,-1.221,-1.404,0.671,73.333,830573.000,1.000
1.114,-2.063,-0.255,-1.560,-0.238,0.120,0.073,1.669,-0.069,0.999,0.010,-1.129,-1.404,0.671,73.333,830574.000,1.000
0.741,-1.845,0.322,-1.933,-1.880,-4.339,-7.156,-1.864,-0.067,1.000,0.012,-1.160,-1.495,0.702,73.333,830575.000,1.000
0.589,-0.084,1.614,-1.176,-1.056,-3.619,-8.129,-2.935,-0.068,0.998,0.010,-1.129,-1.404,0.763,73.333,830576.000,1.000
0.229,2.612,3.021,0.493,2.148,2.255,-1.813,-0.789,-0.066,0.999,0.012,-1.099,-1.434,0.702,73.333,830577.000,1.000
-0.947,4.597,3.248,1.835,5.542,9.452,7.306,2.565,-0.066,0.999,0.012,-1.038,-1.404,0.763,73.333,830578.000,1.000
-3.053,4.422,1.493,1.671,6.609,13.151,12.726,4.245,-0.066,0.998,0.010,-1.068,-1.373,0.763,73.333,830579.000,1.000
-5.350,1.991,-1.661,-0.071,4.574,11.169,11.154,3.001,-0.066,0.999,0.009,-1.129,-1.434,0.671,73.333,830580.000,1.000
-6.653,-1.530,-4.665,-2.394,0.699,4.577,4.128,-0.042,-0.066,1.002,0.011,-1.129,-1.312,0.702,73.333,830581.000,1.000
-6.076,-4.517,-5.988,-3.970,-2.761,-3.617,-3.952,-2.272,-0.067,1.002,0.017,-1.129,-1.373,0.732,73.333,830582.000,1.000
-3.611,-5.791,-4.920,-4.019,-4.059,-10.067,-8.955,-1.620,-0.068,0.998,0.010,-1.099,-1.404,0.671,73.333,830583.000,1.000
-0.273,-5.357,-2.200,-2.975,-3.262,-12.938,-9.725,1.358,-0.068,1.000,0.013,-1.068,-1.434,0.763,73.333,830584.000,1.000
2.315,-4.384,0.233,-2.292,-2.206,-12.805,-8.650,3.530,-0.069,0.999,0.011,-0.916,-1.343,0.763,73.333,830585.000,1.000
2.787,-4.245,0.478,-3.356,-2.898,-11.542,-9.246,1.771,-0.068,1.001,0.013,-0.977,-1.404,0.763,73.333,830586.000,1.000
0.897,-5.397,-1.942,-6.333,-5.721,-10.426,-12.631,-4.233,-0.067,1.000,0.012,-1.007,-1.373,0.793,73.333,830587.000,1.000
-2.252,-7.088,-5.727,-9.985,-9.155,-9.416,-16.558,-11.691,-0.067,1.000,0.013,-0.946,-1.373,0.793,73.333,830588.000,1.000
-4.867,-8.011,-8.802,-12.590,-11.062,-7.697,-17.523,-16.914,-0.067,1.002,0.011,-1.007,-1.404,0.763,73.333,830589.000,1.000
-5.530,-7.181,-9.552,-13.024,-10.121,-4.426,-13.361,-17.599,-0.070,1.002,0.010,-0.977,-1.495,0.793,73.333,830590.000,1.000
-3.934,-4.596,-7.657,-11.280,-6.630,0.085,-5.285,-13.780,-0.068,1.002,0.010,-1.007,-1.404,0.763,73.333,830591.000,1.000
-0.802,-1.208,-4.057,-8.218,-2.230,3.813,2.593,-7.300,-0.067,1.002,0.013,-0.946,-1.404,0.549,73.333,830592.000,1.000
2.886,1.965,0.080,-4.736,1.447,4.799,6.938,-0.336,-0.068,1.005,0.014,-1.068,-1.373,0.580,73.333,830593.000,1.000
6.420,4.459,4.075,-1.360,3.710,2.990,7.552,5.497,-0.065,1.004,0.013,-1.099,-1.434,0.519,73.333,830594.000,1.000
9.292,6.128,7.621,1.492,4.567,-0.154,6.128,9.128,-0.064,1.003,0.013,-1.129,-1.282,0.580,73.333,830595.000,1.000
11.155,6.926,10.465,3.434,4.393,-2.839,4.215,10.152,-0.065,1.003,0.010,-1.099,-1.312,0.702,73.333,830596.000,1.000
12.051,7.167,12.524,4.489,4.008,-3.345,2.840,9.155,-0.065,1.002,0.010,-1.221,-1.190,0.641,73.333,830597.000,1.000
12.423,7.542,14.062,5.169,4.395,-0.520,2.778,7.287,-0.065,1.001,0.011,-1.190,-1.221,0.671,73.333,830598.000,1.000
12.644,8.449,15.223,5.848,5.722,4.887,3.579,5.136,-0.063,1.001,0.008,-1.251,-1.282,0.763,73.333,830599.000,1.000
12.664,9.516,15.664,6.297,6.931,9.932,3.107,2.282,-0.065,1.002,0.011,-1.312,-1.282,0.732,73.333,830600.000,1.000
12.241,10.035,14.857,6.016,6.718,11.478,-0.498,-1.854,-0.063,1.002,0.012,-1.312,-1.099,0.671,73.333,830601.000,1.000
11.406,9.746,12.791,4.928,4.895,8.696,-6.558,-6.703,-0.062,1.002,0.014,-1.373,-1.038,0.641,73.333,830602.000,1.000
10.629,9.139,10.389,3.675,2.790,3.875,-11.906,-10.144,-0.063,1.001,0.018,-1.312,-1.038,0.732,73.333,830603.000,1.000
10.486,8.997,8.935,3.164,2.213,0.660,-13.364,-9.885,-0.064,1.004,0.012,-1.282,-1.007,0.793,73.333,830604.000,1.000
11.143,9.571,9.058,3.735,3.799,0.978,-10.263,-5.560,-0.064,1.003,0.015,-1.373,-1.038,0.793,73.333,830605.000,1.000
12.199,10.318,10.262,4.806,6.451,3.700,-4.628,0.657,-0.064,1.000,0.013,-1.282,-0.946,0.793,73.333,830606.000,1.000
13.016,10.390,11.378,5.282,8.229,5.889,0.459,5.426,-0.065,1.001,0.013,-1.282,-1.007,0.854,73.333,830607.000,1.000
13.114,9.150,11.335,4.266,7.509,4.725,2.082,6.155,-0.068,1.001,0.016,-1.312,-1.007,0.946,73.333,830608.000,1.000
12.404,6.521,9.664,1.639,3.834,-0.881,-1.570,2.406,-0.068,1.000,0.017,-1.343,-0.916,0.977,73.333,830609.000,1.000
11.247,3.266,6.852,-1.685,-1.551,-9.050,-9.352,-3.774,-0.069,1.001,0.015,-1.221,-0.977,0.916,73.333,830610.000,1.000
10.302,0.823,4.154,-4.205,-6.086,-15.259,-16.535,-9.047,-0.070,1.000,0.015,-1.160,-1.038,0.946,73.333,830611.000,1.000
10.151,0.455,2.771,-4.823,-7.434,-15.173,-17.712,-10.803,-0.070,1.000,0.013,-1.221,-1.129,0.885,73.333,830612.000,1.000
10.937,2.339,3.120,-3.546,-5.077,-8.144,-11.157,-8.482,-0.070,1.002,0.015,-1.068,-1.190,0.946,73.333,830613.000,1.000
12.311,5.474,4.726,-1.247,-0.500,2.110,-0.165,-3.358,-0.070,1.002,0.013,-1.099,-1.221,0.854,73.333,830614.000,1.000
13.737,8.525,6.826,1.188,4.190,10.595,10.022,2.737,-0.069,1.002,0.016,-1.068,-1.221,0.824,73.333,830615.000,1.000
14.725,10.566,8.788,3.303,7.544,14.359,15.694,8.236,-0.069,1.001,0.014,-1.068,-1.160,0.885,73.333,830616.000,1.000
14.781,11.053,9.993,4.677,8.766,12.863,15.275,11.567,-0.068,1.000,0.014,-1.007,-1.282,0.885,73.333,830617.000,1.000
13.575,9.804,9.904,4.781,7.547,7.169,9.200,11.334,-0.067,0.999,0.012,-1.038,-1.251,0.763,73.333,830618.000,1.000
11.399,7.533,8.584,3.655,4.757,0.265,0.818,7.805,-0.066,0.999,0.012,-1.038,-1.312,0.763,73.333,830619.000,1.000
9.193,5.919,6.975,2.299,2.596,-3.247,-4.392,3.517,-0.067,1.000,0.011,-0.977,-1.434,0.702,73.333,830620.000,1.000
7.816,6.414,6.132,1.912,2.961,-0.236,-3.000,1.299,-0.063,1.000,0.012,-0.977,-1.465,0.610,73.333,830621.000,1.000
7.278,8.843,6.124,2.788,5.536,7.420,2.911,1.808,-0.063,1.000,0.012,-1.038,-1.343,0.641,73.333,830622.000,1.000
6.816,11.458,5.986,4.166,8.026,13.781,7.696,3.330,-0.064,0.999,0.013,-0.916,-1.404,0.732,73.333,830623.000,1.000
5.735,12.487,4.751,5.035,8.379,14.271,7.438,3.656,-0.064,1.000,0.012,-0.977,-1.343,0.702,73.333,830624.000,1.000
4.121,11.493,2.438,5.010,6.460,9.266,2.603,2.026,-0.067,1.000,0.013,-0.946,-1.404,0.732,73.333,830625.000,1.000
2.769,9.471,0.020,4.594,3.917,2.846,-3.058,-0.283,-0.067,1.000,0.011,-1.038,-1.312,0.793,73.333,830626.000,1.000
2.554,8.053,-1.236,4.841,3.069,-0.349,-4.706,-0.670,-0.065,1.000,0.014,-1.007,-1.312,0.732,73.333,830627.000,1.000
3.668,8.263,-0.580,6.489,5.240,1.835,0.315,2.710,-0.066,1.005,0.009,-1.068,-1.404,0.763,73.333,830628.000,1.000
5.212,9.538,1.420,8.936,9.223,7.209,9.222,8.474,-0.067,1.004,0.010,-0.977,-1.282,0.854,73.333,830629.000,1.000
5.785,10.167,3.195,10.415,11.832,10.776,15.082,12.335,-0.067,1.003,0.014,-1.038,-1.312,0.763,73.333,830630.000,1.000
4.690,8.900,3.466,9.578,10.606,8.980,12.587,10.769,-0.065,1.002,0.013,-0.946,-1.282,0.763,73.333,830631.000,1.000
2.533,6.115,2.254,6.794,6.008,2.888,2.672,4.115,-0.065,1.003,0.010,-1.129,-1.190,0.732,73.333,830632.000,1.000
0.670,3.456,0.705,3.774,0.939,-2.664,-8.428,-3.933,-0.066,1.003,0.013,-1.129,-1.251,0.793,73.333,830633.000,1.000
0.030,2.251,-0.182,1.995,-1.938,-3.804,-14.917,-9.459,-0.068,1.000,0.012,-1.129,-1.282,0.702,73.333,830634.000,1.000
0.490,2.414,-0.367,1.666,-2.201,-1.390,-15.703,-10.866,-0.070,1.001,0.011,-1.190,-1.343,0.610,73.333,830635.000,1.000
1.269,2.902,-0.414,2.035,-1.144,0.731,-13.028,-9.026,-0.069,1.000,0.011,-1.068,-1.312,0.549,73.333,830636.000,1.000
1.597,2.871,-0.736,2.252,-0.044,0.304,-8.906,-5.863,-0.069,1.001,0.009,-1.038,-1.343,0.458,73.333,830637.000,1.000
1.069,2.352,-1.162,1.998,0.843,-1.325,-3.827,-2.769,-0.070,1.001,0.014,-1.007,-1.343,0.458,73.333,830638.000,1.000
-0.278,2.094,-1.176,1.559,2.142,-0.946,2.415,0.087,-0.070,1.003,0.013,-1.038,-1.373,0.427,73.333,830639.000,1.000
-2.173,2.713,-0.535,1.308,4.286,3.120,9.293,2.907,-0.067,1.003,0.012,-1.099,-1.495,0.488,73.333,830640.000,1.000
-4.410,3.877,0.227,1.072,6.501,8.955,14.642,4.917,-0.067,1.003,0.014,-0.916,-1.617,0.397,73.333,830641.000,1.000
-6.833,4.527,0.177,0.246,7.195,12.465,15.616,4.636,-0.066,1.002,0.015,-1.038,-1.526,0.458,73.333,830642.000,1.000
-9.051,3.956,-1.001,-1.405,5.529,10.848,11.041,1.666,-0.066,1.000,0.012,-0.946,-1.465,0.427,73.333,830643.000,1.000
-10.422,2.516,-2.622,-3.261,2.461,4.853,3.124,-2.307,-0.065,1.000,0.013,-0.977,-1.465,0.397,73.333,830644.000,1.000
-10.316,1.388,-3.384,-4.147,0.291,-1.637,-3.137,-4.476,-0.066,1.001,0.012,-1.007,-1.495,0.336,73.333,830645.000,1.000
-8.473,1.653,-2.247,-3.198,0.920,-4.551,-3.626,-3.052,-0.066,1.001,0.013,-0.977,-1.587,0.397,73.333,830646.000,1.000
-5.233,3.503,0.851,-0.528,4.367,-2.742,1.439,1.323,-0.066,1.001,0.017,-0.946,-1.495,0.427,73.333,830647.000,1.000
-1.315,6.421,5.174,3.100,9.153,2.086,8.600,6.416,-0.069,1.000,0.015,-0.946,-1.373,0.458,73.333,830648.000,1.000
2.606,9.879,9.816,7.059,13.868,7.847,14.847,10.524,-0.066,1.000,0.013,-0.885,-1.373,0.519,73.333,830649.000,1.000
6.001,13.486,14.003,11.036,17.897,13.561,19.400,13.362,-0.067,1.000,0.010,-0.763,-1.373,0.580,73.333,830650.000,1.000
8.289,16.585,16.851,14.552,20.839,18.833,22.605,14.941,-0.069,0.999,0.010,-0.824,-1.312,0.610,73.333,830651.000,1.000
8.777,17.980,17.199,16.616,21.693,22.362,23.640,14.395,-0.070,0.998,0.009,-0.824,-1.343,0.549,73.333,830652.000,1.000
6.955,16.348,14.145,16.120,19.159,21.752,20.455,10.620,-0.068,0.999,0.010,-0.763,-1.221,0.580,73.333,830653.000,1.000
3.038,11.341,7.969,12.824,13.212,15.897,12.964,4.105,-0.069,1.000,0.010,-0.763,-1.221,0.549,73.333,830654.000,1.000
-1.799,4.297,0.530,7.881,5.860,6.744,4.443,-2.554,-0.068,1.000,0.016,-0.732,-1.221,0.641,73.333,830655.000,1.000
-5.973,-2.441,-5.757,3.048,-0.294,-2.163,-1.765,-6.583,-0.068,1.000,0.018,-0.641,-1.251,0.610,73.333,830656.000,1.000
-8.425,-6.963,-9.437,-0.537,-3.949,-8.125,-5.095,-7.290,-0.070,0.999,0.016,-0.641,-1.373,0.671,73.333,830657.000,1.000
-9.085,-8.690,-10.568,-2.718,-5.465,-10.271,-6.834,-6.250,-0.069,1.000,0.012,-0.702,-1.343,0.793,73.333,830658.000,1.000
-8.638,-8.282,-10.263,-3.888,-5.976,-9.377,-8.256,-5.640,-0.068,0.999,0.011,-0.458,-1.465,0.702,73.333,830659.000,1.000
-7.891,-6.905,-9.672,-4.409,-6.394,-7.204,-9.871,-6.432,-0.066,0.999,0.012,-0.336,-1.526,0.854,73.333,830660.000,1.000
-7.190,-5.369,-9.179,-4.290,-6.790,-5.214,-10.961,-7.782,-0.065,1.000,0.010,-0.214,-1.404,0.946,73.333,830661.000,1.000
-6.279,-3.655,-8.295,-3.266,-6.300,-3.057,-9.287,-7.854,-0.065,1.000,0.014,-0.214,-1.373,0.946,73.333,830662.000,1.000
-4.740,-1.325,-6.332,-1.283,-4.056,0.842,-3.058,-5.519,-0.067,1.002,0.015,-0.275,-1.465,0.977,73.333,830663.000,1.000
-2.636,1.516,-3.434,1.035,-0.558,6.374,5.702,-1.608,-0.067,1.003,0.012,-0.427,-1.404,1.007,73.333,830664.000,1.000
-0.673,3.937,-0.707,2.610,2.294,10.671,11.703,1.601,-0.068,1.005,0.011,-0.458,-1.465,0.916,73.333,830665.000,1.000
0.265,4.919,0.637,2.714,2.792,10.635,11.014,2.349,-0.071,1.007,0.010,-0.641,-1.465,0.916,73.333,830666.000,1.000
-0.254,4.237,0.232,1.553,0.887,5.912,4.395,0.925,-0.071,1.006,0.012,-0.732,-1.434,0.916,73.333,830667.000,1.000
-1.942,2.646,-1.164,0.086,-1.802,-0.485,-3.275,-0.773,-0.070,1.008,0.015,-0.793,-1.434,0.793,73.333,830668.000,1.000
-4.009,1.293,-2.321,-0.771,-3.293,-4.299,-6.427,-1.103,-0.066,1.007,0.014,-0.916,-1.556,0.702,73.333,830669.000,1.000
-5.694,0.742,-2.451,-0.770,-2.795,-3.596,-2.933,0.123,-0.064,1.007,0.016,-0.977,-1.648,0.671,73.333,830670.000,1.000
-6.750,0.468,-1.731,-0.258,-1.220,-0.600,4.046,2.081,-0.062,1.002,0.015,-1.129,-1.465,0.610,73.333,830671.000,1.000
-7.497,-0.582,-1.010,0.301,-0.270,0.412,8.689,3.891,-0.059,1.000,0.012,-1.251,-1.343,0.580,73.333,830672.000,1.000
-8.456,-2.936,-1.049,0.588,-1.155,-2.977,7.177,4.614,-0.059,0.998,0.010,-1.190,-1.251,0.610,73.333,830673.000,1.000
-9.915,-6.148,-2.140,0.330,-4.104,-9.607,-0.248,2.966,-0.058,0.992,0.009,-1.129,-1.099,0.763,73.333,830674.000,1.000
-11.705,-9.159,-3.991,-0.576,-8.464,-16.210,-10.524,-1.756,-0.059,0.991,0.010,-1.038,-0.977,0.854,73.333,830675.000,1.000
-13.258,-10.895,-5.805,-1.790,-12.841,-19.677,-19.566,-8.430,-0.062,0.992,0.009,-0.824,-0.793,0.824,73.333,830676.000,1.000
-13.896,-10.641,-6.584,-2.582,-15.377,-18.130,-23.241,-14.193,-0.063,0.995,0.010,-0.671,-0.824,0.885,73.333,830677.000,1.000
-13.087,-8.147,-5.500,-2.200,-14.399,-11.072,-18.654,-15.878,-0.067,0.997,0.013,-0.549,-0.885,0.916,73.333,830678.000,1.000
-10.672,-3.787,-2.424,-0.340,-9.498,0.155,-6.353,-11.899,-0.067,1.003,0.013,-0.427,-0.702,0.977,73.333,830679.000,1.000
-7.140,1.172,1.739,2.439,-2.317,11.876,8.762,-3.558,-0.066,1.004,0.015,-0.519,-0.702,0.977,73.333,830680.000,1.000
-3.660,4.824,5.235,4.784,4.026,19.363,19.945,5.336,-0.065,1.003,0.012,-0.549,-0.702,1.038,73.333,830681.000,1.000
-1.544,5.673,6.406,5.428,6.859,19.740,22.880,10.836,-0.065,1.004,0.011,-0.610,-0.610,1.099,73.333,830682.000,1.000
-1.391,3.645,4.861,4.261,5.738,13.860,18.222,11.641,-0.064,1.002,0.010,-0.610,-0.702,1.160,73.333,830683.000,1.000
-2.657,0.223,1.745,2.486,2.728,5.962,11.160,9.809,-0.068,1.000,0.010,-0.580,-0.763,1.160,73.333,830684.000,1.000
-4.114,-2.459,-1.089,1.602,0.882,1.452,8.248,8.616,-0.071,1.001,0.008,-0.488,-0.793,1.129,73.333,830685.000,1.000
-4.833,-2.988,-2.439,2.121,1.911,3.592,12.601,9.632,-0.075,1.000,0.012,-0.488,-0.793,1.007,73.333,830686.000,1.000
-4.775,-1.458,-2.459,3.219,4.972,11.086,21.193,11.826,-0.080,1.000,0.016,-0.549,-0.977,0.885,73.333,830687.000,1.000
-4.604,0.775,-2.272,3.482,7.462,18.564,27.153,12.957,-0.081,1.004,0.016,-0.732,-1.190,0.641,73.333,830688.000,1.000
-5.093,2.091,-3.179,1.885,6.993,20.388,25.233,11.521,-0.083,1.004,0.015,-0.763,-1.404,0.458,73.333,830689.000,1.000
-6.496,1.775,-5.647,-1.515,3.221,15.190,15.872,8.004,-0.080,1.007,0.014,-0.824,-1.648,0.305,73.333,830690.000,1.000
-8.275,0.430,-8.846,-5.498,-1.892,6.576,4.483,4.551,-0.077,1.007,0.012,-1.007,-1.801,0.244,73.333,830691.000,1.000
-9.495,-0.772,-11.352,-8.514,-5.740,-0.524,-2.955,2.916,-0.072,1.009,0.014,-1.160,-1.984,0.000,73.333,830692.000,1.000
-9.604,-1.208,-12.359,-9.805,-7.149,-3.716,-4.373,2.775,-0.069,1.008,0.015,-1.343,-2.014,-0.031,73.333,830693.000,1.000
-8.835,-1.181,-12.249,-9.725,-6.940,-4.137,-2.629,2.444,-0.065,1.010,0.009,-1.373,-1.984,0.031,73.333,830694.000,1.000
-7.844,-1.318,-11.885,-9.019,-6.508,-4.281,-1.635,1.111,-0.062,1.008,0.010,-1.373,-1.923,0.061,73.333,830695.000,1.000
-7.055,-1.740,-11.670,-8.008,-6.181,-4.969,-2.133,-0.121,-0.060,1.007,0.010,-1.404,-1.831,0.153,73.333,830696.000,1.000
-6.534,-2.099,-11.461,-6.662,-5.455,-5.224,-2.590,0.288,-0.060,1.007,0.012,-1.404,-1.801,0.244,73.333,830697.000,1.000
-6.343,-2.300,-11.158,-5.167,-4.414,-4.715,-2.676,2.132,-0.057,1.004,0.012,-1.373,-1.678,0.366,73.333,830698.000,1.000
-6.642,-2.619,-10.915,-3.830,-3.752,-4.195,-3.199,3.721,-0.061,1.002,0.010,-1.312,-1.587,0.458,73.333,830699.000,1.000
-7.379,-3.057,-10.658,-2.490,-3.535,-3.637,-3.595,4.081,-0.062,1.004,0.011,-1.343,-1.373,0.580,73.333,830700.000,1.000
-8.204,-3.271,-10.097,-0.750,-3.175,-2.074,-2.140,3.520,-0.061,1.002,0.014,-1.190,-1.251,0.671,73.333,830701.000,1.000
-8.750,-3.090,-9.222,1.347,-2.398,0.829,1.856,2.502,-0.066,1.000,0.016,-1.129,-1.160,0.854,73.333,830702.000,1.000
-8.833,-2.653,-8.276,3.350,-1.426,4.337,7.246,1.350,-0.066,1.000,0.018,-0.977,-1.190,0.916,73.333,830703.000,1.000
-8.583,-2.259,-7.526,4.805,-0.608,7.246,11.658,0.474,-0.064,1.000,0.015,-0.946,-1.129,0.885,73.333,830704.000,1.000
-8.445,-2.295,-7.143,5.375,-0.348,8.253,12.575,-0.005,-0.069,0.998,0.013,-0.946,-1.068,0.916,73.333,830705.000,1.000
-8.865,-3.044,-7.135,4.913,-0.928,6.474,8.998,-0.393,-0.069,0.998,0.012,-0.885,-0.977,0.916,73.333,830706.000,1.000
-9.808,-4.293,-7.180,3.740,-1.897,2.670,3.154,-0.621,-0.068,0.995,0.010,-0.702,-0.946,0.824,73.333,830707.000,1.000
-10.692,-5.357,-6.701,2.628,-2.133,-0.757,-0.666,0.074,-0.069,0.997,0.010,-0.702,-1.007,0.824,73.333,830708.000,1.000
-10.947,-5.802,-5.554,2.091,-1.165,-2.294,-0.575,1.919,-0.069,0.994,0.011,-0.519,-0.946,0.824,73.333,830709.000,1.000
-10.574,-5.882,-4.318,1.849,0.024,-2.897,0.848,3.705,-0.067,0.992,0.010,-0.397,-0.854,0.854,73.333,830710.000,1.000
-10.003,-6.052,-3.755,1.251,0.073,-4.045,-0.148,3.795,-0.066,0.992,0.010,-0.275,-0.854,0.793,73.333,830711.000,1.000
-9.526,-6.288,-4.031,0.103,-1.200,-5.354,-4.174,1.900,-0.066,0.994,0.011,-0.214,-0.885,0.763,73.333,830712.000,1.000
-8.931,-6.047,-4.378,-0.979,-2.444,-4.855,-7.887,-0.240,-0.065,0.993,0.012,-0.031,-0.854,0.763,73.333,830713.000,1.000
-7.660,-4.777,-3.610,-1.029,-1.829,-0.943,-6.838,-0.103,-0.064,0.994,0.016,0.000,-0.702,0.702,73.333,830714.000,1.000
-5.349,-2.466,-1.031,0.346,1.414,6.283,0.616,3.275,-0.064,0.995,0.015,-0.122,-0.610,0.763,73.333,830715.000,1.000
-2.281,0.135,2.845,2.440,6.194,14.737,11.458,8.249,-0.065,0.997,0.013,-0.092,-0.610,0.641,73.333,830716.000,1.000
0.662,1.742,6.424,3.858,10.130,20.739,19.794,11.947,-0.063,0.998,0.013,-0.153,-0.427,0.671,73.333,830717.000,1.000
2.442,1.126,7.982,3.361,10.916,20.394,20.436,12.273,-0.064,0.999,0.014,-0.183,-0.366,0.671,73.333,830718.000,1.000
2.329,-2.222,6.562,0.469,7.610,12.047,12.026,8.745,-0.066,1.002,0.016,-0.336,-0.458,0.641,73.333,830719.000,1.000
0.256,-7.545,2.557,-4.228,1.401,-1.539,-1.385,2.545,-0.066,1.003,0.014,-0.397,-0.519,0.732,73.333,830720.000,1.000
-3.061,-12.950,-2.441,-9.157,-4.846,-13.946,-12.325,-3.884,-0.064,1.003,0.012,-0.549,-0.397,0.732,73.333,830721.000,1.000
-6.480,-16.504,-6.588,-12.533,-8.433,-19.405,-15.312,-7.952,-0.064,1.001,0.013,-0.671,-0.397,0.854,73.333,830722.000,1.000
-9.047,-17.482,-8.810,-13.354,-8.616,-17.044,-10.849,-8.270,-0.064,1.001,0.012,-0.763,-0.458,0.977,73.333,830723.000,1.000
-10.409,-16.612,-9.190,-11.858,-6.729,-10.710,-3.928,-5.351,-0.065,1.001,0.012,-0.732,-0.336,1.038,73.333,830724.000,1.000
-10.775,-15.259,-8.451,-9.142,-4.799,-5.101,0.822,-1.152,-0.065,1.002,0.010,-0.824,-0.336,1.099,73.333,830725.000,1.000
-10.559,-14.448,-7.286,-6.327,-4.141,-2.767,1.792,2.383,-0.066,1.000,0.010,-0.885,-0.366,1.099,73.333,830726.000,1.000
-10.076,-14.463,-6.100,-4.076,-4.976,-3.919,-0.602,4.344,-0.067,1.002,0.010,-0.916,-0.305,1.129,73.333,830727.000,1.000
-9.525,-15.130,-5.157,-2.848,-7.092,-7.478,-5.865,3.987,-0.067,1.001,0.009,-1.038,-0.336,1.190,73.333,830728.000,1.000
-8.996,-16.170,-4.721,-3.132,-10.391,-11.994,-13.798,-0.061,-0.068,1.001,0.012,-1.068,-0.305,1.282,73.333,830729.000,1.000
-8.272,-17.097,-4.623,-4.885,-14.409,-16.229,-23.310,-8.005,-0.066,1.002,0.015,-1.160,-0.305,1.251,73.333,830730.000,1.000
-6.880,-17.118,-4.166,-7.107,-17.863,-19.390,-31.772,-17.253,-0.066,1.000,0.012,-1.099,-0.336,1.160,73.333,830731.000,1.000
-4.569,-15.577,-2.763,-8.487,-19.241,-20.779,-35.878,-24.040,-0.067,0.999,0.012,-1.160,-0.458,1.221,73.333,830732.000,1.000
-1.634,-12.506,-0.434,-8.327,-17.775,-19.472,-33.502,-26.186,-0.066,1.001,0.011,-1.160,-0.366,1.160,73.333,830733.000,1.000
1.173,-8.747,2.141,-6.877,-13.936,-15.104,-25.675,-23.894,-0.067,1.001,0.014,-1.160,-0.458,0.977,73.333,830734.000,1.000
3.067,-5.602,3.974,-5.066,-9.323,-9.269,-16.752,-18.894,-0.068,1.002,0.013,-1.221,-0.427,0.977,73.333,830735.000,1.000
3.782,-4.126,4.346,-3.889,-5.822,-5.130,-11.615,-13.431,-0.069,1.005,0.013,-1.251,-0.458,0.854,73.333,830736.000,1.000
3.835,-4.376,3.416,-3.702,-4.266,-4.550,-11.697,-9.176,-0.069,1.007,0.013,-1.312,-0.519,0.793,73.333,830737.000,1.000
4.159,-5.362,2.236,-3.976,-3.913,-6.246,-13.938,-6.387,-0.071,1.007,0.014,-1.373,-0.519,0.580,73.333,830738.000,1.000
5.313,-6.026,1.728,-3.979,-3.637,-7.735,-14.309,-4.523,-0.071,1.006,0.015,-1.526,-0.580,0.549,73.333,830739.000,1.000
6.985,-6.272,1.822,-3.669,-3.418,-8.524,-12.001,-3.644,-0.071,1.006,0.015,-1.617,-0.610,0.488,73.333,830740.000,1.000
8.294,-6.886,1.619,-3.757,-4.291,-10.320,-9.831,-4.655,-0.070,1.004,0.016,-1.587,-0.732,0.519,73.333,830741.000,1.000
8.556,-8.395,0.407,-4.866,-6.819,-14.227,-10.805,-7.897,-0.070,1.003,0.016,-1.740,-0.793,0.519,73.333,830742.000,1.000
7.831,-10.175,-1.421,-6.635,-9.920,-18.807,-14.744,-11.719,-0.069,1.001,0.017,-1.648,-0.885,0.458,73.333,830743.000,1.000
6.827,-10.862,-2.664,-7.806,-11.416,-21.282,-18.279,-13.105,-0.068,0.998,0.019,-1.617,-0.916,0.336,73.333,830744.000,1.000
6.339,-9.518,-2.330,-7.235,-9.708,-19.720,-17.739,-10.158,-0.066,0.998,0.018,-1.495,-0.977,0.397,73.333,830745.000,1.000
6.704,-6.333,-0.408,-4.788,-5.011,-14.044,-12.281,-3.950,-0.064,0.998,0.014,-1.343,-0.793,0.397,73.333,830746.000,1.000
7.596,-2.530,2.145,-1.418,0.701,-6.297,-4.841,2.187,-0.064,0.999,0.014,-1.343,-0.763,0.458,73.333,830747.000,1.000
8.272,0.236,3.998,1.494,4.884,-0.064,0.069,5.125,-0.062,1.002,0.015,-1.129,-0.702,0.549,73.333,830748.000,1.000
8.127,0.834,4.161,3.000,6.027,1.842,0.096,3.951,-0.062,1.002,0.016,-1.099,-0.610,0.824,73.333,830749.000,1.000
7.069,-0.704,2.594,3.071,4.449,-0.580,-3.468,0.227,-0.061,1.000,0.015,-1.007,-0.610,0.946,73.333,830750.000,1.000
5.437,-3.420,0.150,2.415,1.738,-5.087,-7.520,-3.197,-0.061,0.999,0.011,-1.099,-0.549,1.068,73.333,830751.000,1.000
3.688,-6.071,-2.034,1.795,-0.498,-9.096,-9.548,-4.177,-0.062,0.994,0.014,-0.793,-0.366,1.160,73.333,830752.000,1.000
2.182,-7.643,-3.173,1.352,-1.673,-11.034,-9.089,-2.980,-0.067,0.994,0.014,-0.610,-0.397,1.190,73.333,830753.000,1.000
1.203,-7.522,-3.082,0.736,-2.076,-10.210,-7.104,-1.705,-0.071,0.996,0.011,-0.580,-0.397,1.221,73.333,830754.000,1.000
1.089,-5.408,-1.770,-0.074,-1.766,-5.796,-3.574,-1.674,-0.076,0.998,0.013,-0.458,-0.427,1.068,73.333,830755.000,1.000
2.030,-1.680,0.538,-0.664,-0.574,2.213,1.852,-2.441,-0.078,1.001,0.017,-0.397,-0.458,1.038,73.333,830756.000,1.000
3.611,2.055,2.794,-0.985,0.642,10.403,6.564,-3.232,-0.078,1.001,0.019,-0.214,-0.641,0.824,73.333,830757.000,1.000
4.974,3.693,3.477,-1.561,0.178,13.036,6.275,-3.765,-0.078,1.003,0.016,-0.305,-0.854,0.702,73.333,830758.000,1.000
5.638,2.493,1.962,-2.725,-2.544,7.512,0.307,-3.779,-0.076,1.001,0.016,-0.397,-1.038,0.580,73.333,830759.000,1.000
5.906,-0.153,-0.772,-4.163,-6.126,-2.616,-7.068,-3.160,-0.074,1.003,0.011,-0.397,-1.190,0.519,73.333,830760.000,1.000
6.333,-2.088,-3.147,-5.392,-8.712,-11.009,-11.129,-2.730,-0.071,1.002,0.014,-0.458,-1.282,0.488,73.333,830761.000,1.000
7.036,-2.279,-4.319,-6.293,-9.719,-14.105,-10.974,-3.817,-0.068,1.002,0.013,-0.275,-1.343,0.427,73.333,830762.000,1.000
7.677,-1.286,-4.363,-6.912,-9.760,-12.952,-8.973,-6.506,-0.065,1.000,0.011,-0.305,-1.404,0.519,73.333,830763.000,1.000
7.841,-0.343,-3.825,-7.136,-9.534,-10.757,-7.636,-9.101,-0.063,1.001,0.013,-0.244,-1.343,0.549,73.333,830764.000,1.000
7.243,-0.372,-3.340,-6.874,-9.322,-9.927,-7.941,-9.736,-0.062,1.003,0.012,-0.214,-1.373,0.488,73.333,830765.000,1.000
5.774,-1.609,-3.444,-6.349,-9.149,-10.909,-9.484,-8.001,-0.062,1.002,0.013,-0.183,-1.282,0.702,73.333,830766.000,1.000
3.592,-3.623,-4.294,-5.953,-8.867,-12.369,-10.880,-4.893,-0.061,1.001,0.012,-0.153,-1.129,0.763,73.333,830767.000,1.000
1.167,-5.525,-5.424,-5.824,-8.110,-12.053,-10.208,-1.776,-0.062,1.003,0.011,0.000,-1.099,0.824,73.333,830768.000,1.000
-0.888,-6.473,-6.084,-5.690,-6.599,-8.629,-6.539,0.428,-0.063,1.001,0.010,0.031,-1.160,0.916,73.333,830769.000,1.000
-2.164,-6.339,-5.843,-5.231,-4.791,-3.735,-1.877,1.349,-0.063,1.002,0.009,0.061,-1.068,1.007,73.333,830770.000,1.000
-2.665,-5.767,-4.898,-4.452,-3.759,-1.031,0.135,1.021,-0.064,1.003,0.011,0.031,-1.068,0.977,73.333,830771.000,1.000
-2.677,-5.320,-3.720,-3.533,-3.841,-1.882,-1.104,0.098,-0.064,1.002,0.010,0.122,-0.916,1.160,73.333,830772.000,1.000
-2.569,-4.903,-2.602,-2.548,-4.061,-3.508,-1.980,-0.265,-0.064,1.001,0.014,0.122,-0.946,1.251,73.333,830773.000,1.000
-2.733,-4.304,-1.878,-1.663,-3.522,-2.794,0.276,0.537,-0.063,1.002,0.015,0.153,-0.854,1.190,73.333,830774.000,1.000
-3.446,-3.800,-2.011,-1.342,-2.748,-0.183,3.860,1.745,-0.066,1.001,0.015,0.122,-0.763,1.312,73.333,830775.000,1.000
-4.594,-3.758,-3.189,-1.992,-2.931,1.776,5.286,1.846,-0.068,1.002,0.011,0.214,-0.824,1.282,73.333,830776.000,1.000
-5.649,-3.922,-4.930,-3.457,-4.298,2.204,3.960,0.077,-0.067,1.001,0.008,0.122,-0.854,1.190,73.333,830777.000,1.000
-6.028,-3.538,-6.277,-4.987,-5.717,2.588,2.453,-2.746,-0.067,1.002,0.008,0.214,-0.854,1.129,73.333,830778.000,1.000
-5.507,-2.170,-6.530,-5.663,-5.794,4.313,3.396,-4.783,-0.069,1.004,0.011,0.275,-0.916,0.977,73.333,830779.000,1.000
-4.344,-0.235,-5.640,-4.981,-4.162,6.518,6.662,-4.587,-0.068,1.004,0.011,0.092,-0.946,1.038,73.333,830780.000,1.000
-3.043,1.363,-4.000,-3.132,-1.664,6.879,9.418,-2.121,-0.068,1.002,0.012,0.092,-0.977,0.946,73.333,830781.000,1.000
-1.975,2.153,-1.948,-0.750,0.668,4.319,9.365,1.513,-0.067,1.002,0.009,-0.031,-1.129,0.916,73.333,830782.000,1.000
-1.258,2.358,0.311,1.427,2.341,0.009,6.879,4.908,-0.064,1.002,0.011,0.000,-1.251,0.824,73.333,830783.000,1.000
-0.983,2.315,2.224,2.630,3.130,-4.035,3.415,6.742,-0.067,1.000,0.012,-0.183,-1.190,0.885,73.333,830784.000,1.000
-1.315,2.034,2.986,2.251,2.861,-6.374,-0.134,6.170,-0.066,0.998,0.010,-0.244,-1.221,0.854,73.333,830785.000,1.000
-2.252,1.374,2.202,0.299,1.671,-6.705,-3.020,3.493,-0.067,0.998,0.009,-0.183,-1.251,0.824,73.333,830786.000,1.000
-3.465,0.321,0.259,-2.479,0.050,-5.898,-4.506,0.102,-0.067,0.997,0.008,-0.153,-1.373,0.793,73.333,830787.000,1.000
-4.458,-0.915,-1.908,-5.071,-1.468,-5.183,-4.578,-2.575,-0.068,0.998,0.006,-0.153,-1.465,0.671,73.333,830788.000,1.000
-4.820,-1.935,-3.362,-6.712,-2.457,-5.161,-3.861,-3.761,-0.065,0.997,0.011,-0.214,-1.495,0.763,73.333,830789.000,1.000
-4.381,-2.311,-3.461,-7.045,-2.564,-5.624,-2.713,-3.180,-0.066,0.998,0.012,-0.183,-1.465,0.824,73.333,830790.000,1.000
-3.294,-1.815,-2.068,-6.052,-1.518,-5.845,-0.724,-0.795,-0.068,0.999,0.010,-0.214,-1.373,0.793,73.333,830791.000,1.000
-2.033,-0.583,0.299,-4.017,0.680,-5.046,2.621,3.093,-0.067,0.999,0.010,-0.275,-1.465,0.702,73.333,830792.000,1.000
-1.256,0.800,2.587,-1.592,3.343,-3.267,6.454,7.305,-0.063,0.999,0.015,-0.305,-1.495,0.702,73.333,830793.000,1.000
-1.507,1.582,3.668,0.321,5.180,-1.393,8.712,9.685,-0.065,1.000,0.014,-0.336,-1.526,0.671,73.333,830794.000,1.000
-2.875,1.450,3.134,1.141,5.322,0.118,8.673,8.653,-0.066,1.001,0.010,-0.336,-1.495,0.763,73.333,830795.000,1.000
-4.835,0.815,1.581,1.105,4.113,1.848,7.882,4.835,-0.066,1.003,0.010,-0.427,-1.526,0.641,73.333,830796.000,1.000
-6.457,0.445,0.142,1.042,2.672,4.471,8.085,0.613,-0.064,1.002,0.009,-0.580,-1.556,0.610,73.333,830797.000,1.000
-6.930,0.775,-0.264,1.652,1.845,7.518,9.368,-1.767,-0.064,1.003,0.010,-0.610,-1.587,0.732,73.333,830798.000,1.000
-6.068,1.426,0.408,2.963,1.517,8.982,10.144,-1.639,-0.065,1.001,0.009,-0.641,-1.495,0.793,73.333,830799.000,1.000
-4.362,1.463,1.425,4.407,0.808,6.270,8.240,0.061,-0.065,1.002,0.012,-0.610,-1.526,0.793,73.333,830800.000,1.000
-2.523,0.369,2.043,5.377,-0.914,-1.408,2.750,1.814,-0.065,1.001,0.012,-0.732,-1.556,0.854,73.333,830801.000,1.000
-0.941,-1.186,2.269,5.751,-3.069,-11.036,-4.185,2.630,-0.065,1.000,0.011,-0.885,-1.587,0.885,73.333,830802.000,1.000
0.466,-1.813,2.784,5.837,-4.186,-17.172,-8.339,2.428,-0.065,1.003,0.010,-0.885,-1.587,0.793,73.333,830803.000,1.000
