EEG 1,EEG 2,EEG 3,EEG 4,EEG 5,EEG 6,EEG 7,EEG 8,Accelerometer X,Accelerometer Y,Accelerometer Z,Gyroscope X,Gyroscope Y,Gyroscope Z,Battery Level,Counter,Validation Indicator
3.036,2.631,0.392,-0.154,12.763,1.328,4.876,0.676,-0.075,0.985,-0.089,-0.305,-0.397,1.068,73.333,599065.000,1.000
2.358,1.413,-0.639,-1.774,13.095,-1.360,-0.580,-2.261,-0.077,0.987,-0.087,-0.305,-0.366,1.038,73.333,599066.000,1.000
1.835,0.570,-0.934,-2.925,14.550,-2.870,-3.661,-4.108,-0.076,0.986,-0.088,-0.122,-0.366,0.977,73.333,599067.000,1.000
1.790,0.527,-0.024,-2.586,17.944,-2.274,-2.707,-2.953,-0.078,0.987,-0.089,-0.183,-0.275,0.977,73.333,599068.000,1.000
2.045,0.876,1.446,-0.950,22.172,-0.552,1.055,0.980,-0.080,0.988,-0.089,-0.183,-0.427,0.946,73.333,599069.000,1.000
2.004,0.764,2.331,0.620,24.810,0.950,4.768,4.793,-0.079,0.986,-0.090,-0.092,-0.458,0.916,73.333,599070.000,1.000
1.234,-0.210,1.946,0.794,24.092,1.904,6.133,5.180,-0.080,0.988,-0.088,-0.153,-0.519,0.916,73.333,599071.000,1.000
-0.089,-1.662,0.442,-0.598,20.343,2.555,4.697,1.556,-0.080,0.988,-0.087,-0.244,-0.488,0.824,73.333,599072.000,1.000
-1.370,-2.871,-1.744,-2.671,15.437,2.777,1.450,-3.577,-0.082,0.990,-0.085,-0.336,-0.458,0.854,73.333,599073.000,1.000
-1.998,-3.217,-3.984,-4.212,11.445,2.442,-1.908,-6.774,-0.081,0.991,-0.087,-0.366,-0.610,0.916,73.333,599074.000,1.000
-1.475,-2.197,-4.914,-4.111,10.046,2.379,-3.232,-5.650,-0.082,0.992,-0.087,-0.488,-0.702,0.885,73.333,599075.000,1.000
0.471,0.524,-2.965,-1.747,12.237,4.018,-0.884,-0.006,-0.079,0.993,-0.087,-0.549,-0.732,0.824,73.333,599076.000,1.000
3.625,4.738,2.132,2.496,17.726,7.834,4.625,7.786,-0.077,0.993,-0.088,-0.580,-0.763,0.916,73.333,599077.000,1.000
7.222,9.475,8.543,7.144,24.863,12.459,10.366,13.825,-0.078,0.992,-0.085,-0.671,-0.793,0.946,73.333,599078.000,1.000
10.291,13.331,13.559,10.404,31.497,15.233,12.713,14.953,-0.079,0.992,-0.086,-0.793,-0.885,0.946,73.333,599079.000,1.000
12.139,15.120,15.677,11.265,35.931,13.684,9.515,10.528,-0.080,0.991,-0.084,-0.916,-0.916,0.977,73.333,599080.000,1.000
12.695,14.561,15.339,10.083,37.759,7.434,1.705,2.830,-0.079,0.990,-0.083,-0.946,-1.007,0.977,73.333,599081.000,1.000
12.508,12.464,14.164,8.195,38.159,-0.966,-6.818,-4.167,-0.076,0.991,-0.085,-0.946,-1.038,1.038,73.333,599082.000,1.000
12.277,10.057,13.363,6.798,38.946,-7.595,-11.868,-7.389,-0.078,0.990,-0.084,-1.007,-1.129,1.068,73.333,599083.000,1.000
12.389,8.201,13.108,6.230,41.093,-9.701,-11.664,-6.426,-0.077,0.991,-0.085,-1.099,-1.129,1.007,73.333,599084.000,1.000
12.821,7.078,13.141,6.084,43.945,-7.284,-7.526,-3.158,-0.078,0.990,-0.084,-1.099,-1.160,1.007,73.333,599085.000,1.000
13.329,6.270,13.211,5.674,45.666,-3.027,-2.927,-0.343,-0.077,0.990,-0.085,-1.190,-1.221,1.038,73.333,599086.000,1.000
13.755,5.285,13.249,4.678,44.800,-0.360,-1.165,0.053,-0.078,0.990,-0.084,-1.129,-1.343,1.068,73.333,599087.000,1.000
14.083,4.034,13.152,3.486,41.492,-1.086,-3.385,-1.997,-0.078,0.990,-0.085,-1.160,-1.404,1.007,73.333,599088.000,1.000
14.224,2.771,12.659,2.761,37.183,-4.738,-8.541,-5.094,-0.078,0.988,-0.086,-1.160,-1.404,0.946,73.333,599089.000,1.000
14.009,1.785,11.673,2.821,33.581,-9.373,-14.338,-7.731,-0.078,0.986,-0.081,-1.099,-1.465,0.916,73.333,599090.000,1.000
13.357,1.220,10.428,3.559,31.991,-12.522,-17.925,-8.833,-0.077,0.987,-0.082,-1.129,-1.526,0.977,73.333,599091.000,1.000
12.280,0.999,9.369,4.664,32.911,-12.423,-16.804,-7.873,-0.080,0.990,-0.083,-1.068,-1.556,0.916,73.333,599092.000,1.000
10.852,0.894,8.647,5.675,35.806,-9.123,-10.695,-5.363,-0.079,0.989,-0.083,-1.129,-1.495,0.916,73.333,599093.000,1.000
9.207,0.628,7.919,6.057,39.368,-4.419,-2.680,-2.862,-0.077,0.992,-0.084,-1.190,-1.587,0.854,73.333,599094.000,1.000
7.463,-0.111,6.689,5.452,42.103,-0.822,2.488,-1.833,-0.075,0.993,-0.081,-1.129,-1.526,0.885,73.333,599095.000,1.000
5.580,-1.512,4.655,3.855,42.722,-0.056,2.007,-2.478,-0.075,0.992,-0.080,-1.160,-1.495,0.916,73.333,599096.000,1.000
3.463,-3.315,2.134,1.691,40.579,-1.722,-2.503,-3.509,-0.076,0.992,-0.080,-1.251,-1.373,0.946,73.333,599097.000,1.000
1.279,-4.761,0.016,-0.194,36.443,-3.469,-6.133,-2.848,-0.075,0.990,-0.082,-1.282,-1.404,0.885,73.333,599098.000,1.000
-0.486,-5.020,-0.856,-0.895,32.454,-2.892,-4.618,0.783,-0.074,0.992,-0.079,-1.282,-1.526,0.885,73.333,599099.000,1.000
-1.463,-3.840,-0.494,-0.221,30.620,0.634,2.314,6.285,-0.072,0.991,-0.082,-1.190,-1.434,0.916,73.333,599100.000,1.000
-1.742,-1.705,0.040,1.036,31.589,5.959,11.304,10.700,-0.070,0.992,-0.081,-1.190,-1.404,0.824,73.333,599101.000,1.000
-1.664,0.593,-0.100,1.855,34.690,11.380,18.390,11.599,-0.072,0.992,-0.082,-1.221,-1.221,0.885,73.333,599102.000,1.000
-1.540,2.228,-0.704,1.733,38.122,14.965,20.673,8.523,-0.070,0.991,-0.081,-1.282,-1.190,0.824,73.333,599103.000,1.000
-1.668,2.429,-1.270,0.739,39.418,14.670,16.971,2.839,-0.071,0.989,-0.082,-1.190,-1.129,1.007,73.333,599104.000,1.000
-2.361,0.906,-2.049,-0.801,37.132,9.816,8.903,-3.084,-0.071,0.989,-0.082,-1.129,-0.977,0.885,73.333,599105.000,1.000
-3.749,-1.805,-3.908,-2.615,32.157,1.996,-0.103,-7.266,-0.071,0.989,-0.082,-1.190,-0.977,0.885,73.333,599106.000,1.000
-5.538,-4.669,-6.946,-4.464,26.951,-6.184,-7.529,-9.195,-0.072,0.990,-0.083,-1.129,-0.793,0.977,73.333,599107.000,1.000
-7.094,-6.788,-9.975,-6.024,23.669,-12.651,-12.759,-9.641,-0.072,0.989,-0.083,-1.038,-0.732,0.824,73.333,599108.000,1.000
-7.894,-7.706,-11.609,-6.980,22.947,-16.214,-15.892,-9.649,-0.072,0.987,-0.082,-0.946,-0.763,0.946,73.333,599109.000,1.000
-7.813,-7.293,-11.471,-7.169,23.879,-16.347,-16.740,-9.741,-0.072,0.987,-0.079,-0.916,-0.702,0.916,73.333,599110.000,1.000
-7.100,-5.734,-10.329,-6.692,24.827,-13.330,-15.226,-9.985,-0.073,0.988,-0.081,-0.763,-0.610,0.854,73.333,599111.000,1.000
-6.205,-3.590,-8.970,-5.761,24.658,-8.266,-11.564,-10.113,-0.073,0.989,-0.079,-0.610,-0.519,0.946,73.333,599112.000,1.000
-5.512,-1.493,-7.338,-4.358,23.503,-2.391,-5.710,-9.235,-0.074,0.989,-0.078,-0.702,-0.427,0.946,73.333,599113.000,1.000
-5.143,0.234,-4.953,-2.279,22.181,3.393,2.153,-6.183,-0.074,0.990,-0.084,-0.580,-0.427,0.885,73.333,599114.000,1.000
-5.053,1.502,-1.974,0.369,21.340,8.225,10.257,-0.714,-0.075,0.990,-0.081,-0.427,-0.488,0.824,73.333,599115.000,1.000
-5.335,2.110,0.327,2.791,21.305,10.912,15.399,5.570,-0.075,0.989,-0.083,-0.488,-0.488,0.854,73.333,599116.000,1.000
-6.393,1.602,0.503,3.720,22.054,10.168,15.030,9.625,-0.077,0.990,-0.082,-0.427,-0.427,0.885,73.333,599117.000,1.000
-8.550,-0.435,-1.848,2.264,23.448,5.806,9.290,8.939,-0.077,0.990,-0.083,-0.336,-0.488,0.977,73.333,599118.000,1.000
-11.345,-3.761,-5.643,-1.121,26.017,-0.211,1.381,3.814,-0.077,0.990,-0.082,-0.214,-0.549,0.916,73.333,599119.000,1.000
-13.510,-7.376,-9.095,-4.711,30.892,-4.811,-4.474,-2.597,-0.078,0.990,-0.079,-0.305,-0.610,0.885,73.333,599120.000,1.000
-13.843,-10.103,-11.031,-6.774,38.438,-5.922,-5.667,-6.779,-0.075,0.992,-0.082,-0.336,-0.610,0.916,73.333,599121.000,1.000
-11.983,-11.128,-11.075,-6.587,47.475,-3.180,-1.853,-6.987,-0.076,0.991,-0.080,-0.214,-0.671,0.854,73.333,599122.000,1.000
-8.508,-10.225,-9.266,-4.528,55.982,2.450,5.550,-3.547,-0.077,0.991,-0.079,-0.244,-0.671,0.854,73.333,599123.000,1.000
-4.576,-7.823,-6.114,-1.719,62.308,9.107,13.849,1.662,-0.077,0.990,-0.082,-0.214,-0.702,0.885,73.333,599124.000,1.000
-1.470,-4.985,-2.797,0.442,65.656,14.350,19.667,5.909,-0.079,0.991,-0.081,-0.244,-0.854,0.824,73.333,599125.000,1.000
-0.163,-3.119,-0.854,0.879,65.845,15.512,20.087,6.986,-0.078,0.990,-0.082,-0.153,-0.854,0.854,73.333,599126.000,1.000
-0.882,-3.145,-1.029,-0.551,63.401,11.348,14.917,4.743,-0.077,0.990,-0.084,-0.275,-0.854,0.854,73.333,599127.000,1.000
-2.981,-4.791,-2.722,-3.051,59.783,3.763,7.476,0.898,-0.076,0.989,-0.083,-0.275,-0.946,0.854,73.333,599128.000,1.000
-5.386,-7.001,-4.688,-5.539,56.717,-3.723,1.654,-2.573,-0.074,0.989,-0.079,-0.214,-1.038,0.885,73.333,599129.000,1.000
-7.203,-8.897,-6.026,-7.283,55.147,-9.077,-1.282,-4.636,-0.075,0.990,-0.082,-0.366,-0.977,0.763,73.333,599130.000,1.000
-7.952,-10.007,-6.513,-8.012,55.106,-11.849,-2.221,-5.350,-0.076,0.988,-0.084,-0.336,-1.007,0.824,73.333,599131.000,1.000
-7.454,-9.928,-6.080,-7.583,56.406,-11.537,-1.840,-5.002,-0.075,0.989,-0.085,-0.366,-1.007,0.702,73.333,599132.000,1.000
-5.834,-8.485,-4.657,-5.913,58.893,-7.932,-0.272,-3.359,-0.075,0.990,-0.084,-0.336,-1.007,0.702,73.333,599133.000,1.000
-3.677,-6.211,-2.582,-3.434,61.902,-2.490,1.677,-0.586,-0.073,0.990,-0.083,-0.366,-0.854,0.702,73.333,599134.000,1.000
-1.973,-4.315,-0.779,-1.364,63.961,1.906,2.168,1.474,-0.076,0.988,-0.081,-0.427,-0.854,0.671,73.333,599135.000,1.000
-1.598,-3.934,-0.314,-0.965,63.652,2.724,-0.482,0.538,-0.075,0.988,-0.088,-0.397,-0.916,0.732,73.333,599136.000,1.000
-2.694,-5.300,-1.449,-2.414,60.923,-0.433,-5.874,-3.496,-0.072,0.988,-0.085,-0.458,-0.946,0.702,73.333,599137.000,1.000
-4.666,-7.670,-3.563,-4.706,57.197,-5.628,-11.225,-8.255,-0.073,0.987,-0.083,-0.397,-0.946,0.702,73.333,599138.000,1.000
-6.759,-9.937,-5.826,-6.558,54.281,-9.994,-13.243,-10.861,-0.073,0.988,-0.083,-0.397,-0.824,0.671,73.333,599139.000,1.000
-8.468,-11.185,-7.528,-7.141,53.324,-11.291,-10.404,-9.657,-0.073,0.991,-0.085,-0.366,-0.763,0.641,73.333,599140.000,1.000
-9.545,-10.976,-8.255,-6.392,54.214,-8.901,-4.316,-5.190,-0.074,0.990,-0.083,-0.305,-0.885,0.641,73.333,599141.000,1.000
-9.947,-9.550,-8.004,-5.037,55.493,-4.362,0.935,-0.371,-0.074,0.989,-0.084,-0.366,-0.793,0.671,73.333,599142.000,1.000
-9.786,-7.664,-7.232,-4.126,55.334,-0.724,1.759,1.325,-0.075,0.988,-0.085,-0.458,-0.793,0.702,73.333,599143.000,1.000
-9.256,-5.991,-6.513,-4.200,53.173,-0.183,-1.609,-1.080,-0.076,0.988,-0.084,-0.366,-0.671,0.732,73.333,599144.000,1.000
-8.675,-4.888,-6.157,-4.950,50.125,-2.211,-5.245,-5.068,-0.076,0.988,-0.085,-0.244,-0.763,0.732,73.333,599145.000,1.000
-8.527,-4.628,-6.295,-5.704,47.626,-4.688,-5.563,-6.971,-0.077,0.988,-0.085,-0.244,-0.702,0.610,73.333,599146.000,1.000
-9.165,-5.314,-6.819,-5.947,46.162,-6.106,-2.167,-4.942,-0.075,0.990,-0.087,-0.183,-0.702,0.580,73.333,599147.000,1.000
-10.524,-6.550,-7.452,-5.523,45.355,-6.047,2.967,0.133,-0.076,0.990,-0.083,-0.214,-0.702,0.641,73.333,599148.000,1.000
-12.106,-7.508,-7.858,-4.529,44.736,-4.533,7.717,5.965,-0.077,0.992,-0.089,-0.092,-0.763,0.580,73.333,599149.000,1.000
-13.145,-7.331,-7.605,-3.112,44.153,-1.718,11.174,10.533,-0.077,0.991,-0.083,-0.153,-0.824,0.641,73.333,599150.000,1.000
-12.989,-5.701,-6.555,-1.503,43.502,1.961,13.442,12.581,-0.076,0.991,-0.087,-0.244,-0.702,0.641,73.333,599151.000,1.000
-11.512,-3.182,-5.153,-0.092,42.387,5.690,14.473,11.465,-0.078,0.990,-0.084,-0.214,-0.763,0.610,73.333,599152.000,1.000
-9.212,-0.944,-4.293,0.694,40.175,8.318,13.200,7.229,-0.079,0.990,-0.085,-0.397,-0.916,0.702,73.333,599153.000,1.000
-6.955,0.009,-4.632,0.667,36.490,8.558,8.526,1.102,-0.077,0.989,-0.087,-0.397,-0.885,0.763,73.333,599154.000,1.000
-5.482,-0.449,-5.857,0.097,31.797,5.907,1.466,-4.332,-0.078,0.991,-0.087,-0.275,-0.916,0.763,73.333,599155.000,1.000
-5.016,-1.521,-6.919,-0.390,27.389,1.627,-4.610,-6.157,-0.078,0.990,-0.085,-0.305,-0.916,0.702,73.333,599156.000,1.000
-5.323,-2.192,-6.900,-0.286,24.462,-1.974,-6.552,-3.037,-0.078,0.991,-0.084,-0.336,-0.885,0.732,73.333,599157.000,1.000
-6.088,-2.015,-5.829,0.278,23.021,-3.423,-4.249,3.395,-0.078,0.992,-0.084,-0.305,-1.007,0.763,73.333,599158.000,1.000
-7.074,-1.170,-4.497,0.642,21.936,-2.803,-0.454,9.283,-0.079,0.990,-0.084,-0.244,-1.068,0.763,73.333,599159.000,1.000
-7.966,0.038,-3.494,0.356,20.060,-1.083,1.906,11.300,-0.079,0.991,-0.086,-0.336,-1.007,0.793,73.333,599160.000,1.000
-8.338,1.490,-2.842,-0.324,17.151,0.727,1.774,9.019,-0.077,0.991,-0.087,-0.366,-1.099,0.671,73.333,599161.000,1.000
-7.931,3.096,-2.286,-0.761,13.789,2.183,0.130,4.795,-0.076,0.989,-0.085,-0.305,-1.038,0.793,73.333,599162.000,1.000
-6.940,4.467,-1.850,-0.710,10.556,3.372,-1.383,1.420,-0.078,0.990,-0.085,-0.366,-1.038,0.763,73.333,599163.000,1.000
-5.909,4.941,-1.838,-0.558,7.451,4.372,-1.960,0.073,-0.080,0.990,-0.086,-0.427,-1.007,0.763,73.333,599164.000,1.000
-5.209,4.141,-2.209,-0.716,4.237,5.043,-1.658,0.485,-0.077,0.990,-0.085,-0.427,-1.160,0.671,73.333,599165.000,1.000
-4.628,2.455,-2.480,-1.066,1.029,5.134,-0.685,2.093,-0.076,0.990,-0.085,-0.458,-1.129,0.763,73.333,599166.000,1.000
-3.592,0.736,-2.209,-1.286,-2.025,4.124,0.274,4.111,-0.075,0.990,-0.085,-0.458,-1.099,0.671,73.333,599167.000,1.000
-1.891,-0.511,-1.666,-1.532,-5.445,1.127,-0.605,4.939,-0.074,0.990,-0.084,-0.458,-1.099,0.610,73.333,599168.000,1.000
0.015,-1.349,-1.595,-2.332,-9.982,-4.177,-4.931,2.905,-0.076,0.990,-0.083,-0.458,-1.129,0.671,73.333,599169.000,1.000
1.504,-1.880,-2.178,-3.705,-15.338,-10.329,-11.667,-1.856,-0.076,0.990,-0.084,-0.458,-1.038,0.763,73.333,599170.000,1.000
2.397,-1.918,-2.742,-4.801,-19.903,-14.562,-17.279,-6.835,-0.077,0.990,-0.085,-0.427,-0.946,0.702,73.333,599171.000,1.000
2.967,-1.215,-2.310,-4.553,-21.959,-14.753,-18.570,-8.884,-0.074,0.990,-0.087,-0.427,-1.007,0.580,73.333,599172.000,1.000
3.504,0.180,-0.477,-2.583,-21.048,-10.927,-15.041,-6.608,-0.075,0.992,-0.085,-0.519,-1.068,0.580,73.333,599173.000,1.000
4.014,1.845,2.267,0.501,-18.262,-5.135,-8.718,-1.306,-0.073,0.993,-0.083,-0.488,-1.007,0.671,73.333,599174.000,1.000
4.294,3.260,5.039,3.546,-15.431,0.193,-2.335,4.105,-0.074,0.993,-0.083,-0.580,-0.885,0.702,73.333,599175.000,1.000
4.203,4.203,7.141,5.572,-13.936,3.940,2.310,7.130,-0.075,0.992,-0.083,-0.549,-0.854,0.641,73.333,599176.000,1.000
3.898,4.917,8.462,6.338,-13.983,6.423,5.019,7.254,-0.074,0.993,-0.087,-0.549,-0.854,0.671,73.333,599177.000,1.000
3.781,5.800,9.278,6.349,-14.806,8.152,6.536,5.951,-0.075,0.994,-0.087,-0.549,-0.702,0.610,73.333,599178.000,1.000
4.231,7.001,9.955,6.452,-15.413,9.167,7.755,5.456,-0.076,0.993,-0.085,-0.580,-0.732,0.671,73.333,599179.000,1.000
5.340,8.334,10.890,7.261,-15.287,9.387,9.296,7.109,-0.075,0.992,-0.089,-0.580,-0.732,0.702,73.333,599180.000,1.000
6.745,9.266,12.035,8.580,-14.903,8.420,10.400,10.157,-0.075,0.992,-0.088,-0.671,-0.793,0.824,73.333,599181.000,1.000
7.777,9.169,12.746,9.512,-15.258,5.836,9.335,12.535,-0.077,0.991,-0.089,-0.641,-0.793,0.854,73.333,599182.000,1.000
8.004,8.011,12.433,9.373,-16.502,2.789,6.105,13.106,-0.075,0.990,-0.089,-0.702,-0.763,0.916,73.333,599183.000,1.000
7.601,6.557,11.259,8.272,-17.698,1.783,3.018,12.426,-0.075,0.990,-0.087,-0.702,-0.732,0.916,73.333,599184.000,1.000
7.179,5.778,10.042,6.822,-17.901,4.306,2.434,11.569,-0.077,0.990,-0.088,-0.641,-0.824,0.977,73.333,599185.000,1.000
7.338,6.272,9.552,5.667,-16.789,9.880,5.312,11.042,-0.076,0.991,-0.088,-0.641,-0.702,0.854,73.333,599186.000,1.000
8.176,7.762,9.928,5.044,-14.921,16.252,10.345,10.378,-0.077,0.990,-0.087,-0.641,-0.641,0.885,73.333,599187.000,1.000
9.032,8.848,10.384,4.519,-13.932,19.506,13.534,8.514,-0.078,0.990,-0.089,-0.793,-0.702,0.854,73.333,599188.000,1.000
9.057,7.954,9.919,3.542,-15.559,16.230,10.928,5.296,-0.078,0.990,-0.086,-0.763,-0.763,0.793,73.333,599189.000,1.000
8.115,4.828,8.463,2.281,-20.193,6.787,2.216,2.059,-0.080,0.990,-0.083,-0.793,-0.824,0.763,73.333,599190.000,1.000
6.870,0.838,6.807,1.449,-26.725,-4.491,-9.210,0.045,-0.081,0.989,-0.083,-0.854,-0.885,0.702,73.333,599191.000,1.000
6.163,-1.930,6.010,1.692,-33.217,-12.069,-18.177,-0.536,-0.078,0.989,-0.085,-0.854,-0.885,0.732,73.333,599192.000,1.000
6.467,-1.782,6.842,3.301,-37.634,-12.039,-19.890,0.387,-0.079,0.990,-0.084,-0.763,-0.885,0.610,73.333,599193.000,1.000
7.605,1.629,9.217,5.942,-38.983,-3.935,-12.688,2.956,-0.078,0.988,-0.086,-0.793,-0.916,0.549,73.333,599194.000,1.000
8.787,6.942,12.066,8.557,-38.135,9.050,0.522,6.432,-0.077,0.990,-0.085,-0.763,-1.007,0.549,73.333,599195.000,1.000
8.948,11.643,13.812,9.833,-37.181,21.500,13.880,9.218,-0.076,0.989,-0.084,-0.610,-1.068,0.610,73.333,599196.000,1.000
7.237,13.266,13.236,8.930,-38.010,28.019,21.774,9.997,-0.075,0.989,-0.085,-0.641,-1.007,0.580,73.333,599197.000,1.000
3.596,10.729,10.058,5.913,-41.258,25.782,21.311,8.380,-0.076,0.988,-0.083,-0.549,-0.946,0.580,73.333,599198.000,1.000
-0.920,5.099,5.215,1.820,-45.984,16.197,13.393,4.919,-0.075,0.988,-0.083,-0.488,-0.977,0.671,73.333,599199.000,1.000
-4.650,-1.064,0.532,-1.841,-50.376,3.955,1.895,0.793,-0.075,0.990,-0.083,-0.458,-0.916,0.763,73.333,599200.000,1.000
-6.476,-5.433,-2.570,-4.079,-53.181,-6.113,-8.968,-2.906,-0.077,0.988,-0.084,-0.458,-0.885,0.824,73.333,599201.000,1.000
-6.439,-7.124,-3.857,-4.948,-54.387,-11.475,-16.570,-5.566,-0.075,0.987,-0.083,-0.458,-0.824,0.916,73.333,599202.000,1.000
-5.270,-6.448,-3.941,-5.030,-54.387,-11.680,-19.471,-6.714,-0.076,0.986,-0.084,-0.305,-0.824,0.916,73.333,599203.000,1.000
-3.646,-4.126,-3.463,-4.717,-53.130,-7.447,-17.062,-5.947,-0.077,0.988,-0.084,-0.244,-0.885,0.977,73.333,599204.000,1.000
-2.060,-1.131,-2.812,-4.261,-50.646,-1.190,-10.956,-3.749,-0.076,0.986,-0.087,-0.275,-0.885,1.038,73.333,599205.000,1.000
-1.001,1.358,-2.370,-4.035,-47.610,3.456,-4.785,-1.569,-0.075,0.989,-0.085,-0.366,-0.977,1.068,73.333,599206.000,1.000
-0.770,2.553,-2.274,-4.230,-44.787,4.406,-1.216,-0.625,-0.076,0.990,-0.081,-0.366,-0.916,1.068,73.333,599207.000,1.000
-1.220,2.431,-2.318,-4.680,-42.551,2.412,-0.606,-1.332,-0.078,0.993,-0.081,-0.305,-1.038,0.977,73.333,599208.000,1.000
-1.856,1.516,-2.174,-5.093,-41.027,-0.530,-2.186,-3.642,-0.080,0.991,-0.084,-0.427,-1.007,1.038,73.333,599209.000,1.000
-2.086,0.588,-1.506,-5.137,-40.037,-2.701,-4.781,-6.936,-0.081,0.993,-0.084,-0.427,-1.038,0.977,73.333,599210.000,1.000
-1.474,0.397,-0.259,-4.460,-38.983,-3.181,-7.077,-9.665,-0.079,0.993,-0.085,-0.519,-1.068,0.885,73.333,599211.000,1.000
0.032,1.280,1.230,-2.955,-37.303,-2.365,-8.463,-10.121,-0.079,0.991,-0.085,-0.549,-1.160,0.793,73.333,599212.000,1.000
2.000,2.970,2.320,-1.082,-35.175,-1.833,-9.585,-8.322,-0.075,0.989,-0.083,-0.519,-1.129,0.702,73.333,599213.000,1.000
3.651,4.744,2.347,0.183,-33.522,-2.967,-11.642,-6.602,-0.073,0.988,-0.082,-0.641,-1.160,0.824,73.333,599214.000,1.000
4.289,5.717,1.007,-0.038,-33.249,-5.944,-15.250,-7.503,-0.071,0.988,-0.083,-0.580,-1.068,0.824,73.333,599215.000,1.000
3.778,5.259,-1.421,-1.780,-34.397,-9.858,-19.680,-11.283,-0.070,0.987,-0.087,-0.580,-0.977,0.885,73.333,599216.000,1.000
2.578,3.454,-3.951,-4.090,-35.938,-13.153,-22.774,-15.708,-0.069,0.988,-0.085,-0.488,-0.885,0.946,73.333,599217.000,1.000
1.334,1.145,-5.385,-5.656,-36.453,-14.326,-22.348,-17.885,-0.071,0.986,-0.083,-0.488,-0.793,0.977,73.333,599218.000,1.000
0.403,-0.631,-5.079,-5.639,-35.119,-12.789,-17.812,-16.150,-0.072,0.986,-0.083,-0.366,-0.732,0.977,73.333,599219.000,1.000
-0.363,-1.362,-3.312,-4.183,-32.280,-9.170,-10.429,-10.912,-0.072,0.987,-0.085,-0.336,-0.641,0.916,73.333,599220.000,1.000
-1.419,-1.282,-1.240,-2.342,-29.298,-4.969,-2.821,-4.444,-0.072,0.987,-0.083,-0.336,-0.519,0.977,73.333,599221.000,1.000
-3.020,-0.967,-0.148,-1.417,-27.816,-1.758,1.994,0.198,-0.072,0.990,-0.086,-0.305,-0.488,1.068,73.333,599222.000,1.000
-4.846,-0.731,-0.578,-2.021,-28.587,-0.015,2.514,1.014,-0.071,0.991,-0.088,-0.336,-0.397,1.007,73.333,599223.000,1.000
-6.124,-0.475,-2.050,-3.616,-30.801,1.110,-0.044,-1.565,-0.071,0.991,-0.091,-0.366,-0.336,1.099,73.333,599224.000,1.000
-6.306,-0.223,-3.717,-5.134,-32.947,2.213,-3.366,-5.399,-0.070,0.991,-0.089,-0.427,-0.336,1.190,73.333,599225.000,1.000
-5.544,-0.352,-5.203,-5.910,-33.982,2.720,-5.918,-8.351,-0.071,0.991,-0.092,-0.275,-0.305,1.129,73.333,599226.000,1.000
-4.275,-0.887,-6.235,-5.694,-33.210,2.325,-6.283,-8.848,-0.070,0.992,-0.089,-0.336,-0.305,1.129,73.333,599227.000,1.000
-2.666,-1.116,-6.240,-4.275,-29.936,2.245,-2.800,-5.869,-0.075,0.994,-0.086,-0.336,-0.275,1.068,73.333,599228.000,1.000
-0.806,-0.377,-4.904,-1.760,-24.195,4.084,4.488,0.264,-0.076,0.993,-0.085,-0.275,-0.275,1.099,73.333,599229.000,1.000
0.830,1.025,-2.792,0.988,-17.592,7.646,12.391,7.120,-0.078,0.994,-0.085,-0.305,-0.275,0.916,73.333,599230.000,1.000
1.477,1.970,-1.192,2.747,-12.672,10.473,16.431,11.255,-0.081,0.992,-0.086,-0.397,-0.336,0.824,73.333,599231.000,1.000
0.706,1.548,-1.072,2.904,-11.113,10.152,14.640,10.670,-0.084,0.993,-0.084,-0.397,-0.336,0.793,73.333,599232.000,1.000
-1.184,-0.238,-2.490,1.805,-12.688,6.756,8.862,6.007,-0.085,0.995,-0.084,-0.610,-0.610,0.702,73.333,599233.000,1.000
-3.393,-2.735,-4.814,0.270,-15.890,2.203,2.355,-0.282,-0.084,0.995,-0.085,-0.854,-0.641,0.549,73.333,599234.000,1.000
-5.047,-5.137,-7.082,-0.958,-19.069,-1.861,-2.691,-5.435,-0.084,0.996,-0.086,-0.885,-0.854,0.427,73.333,599235.000,1.000
-5.393,-6.513,-8.252,-1.308,-20.860,-4.306,-5.086,-7.495,-0.085,0.997,-0.084,-0.885,-1.038,0.366,73.333,599236.000,1.000
-3.972,-5.939,-7.420,-0.401,-20.398,-3.957,-3.989,-5.908,-0.081,0.996,-0.084,-0.854,-1.129,0.244,73.333,599237.000,1.000
-1.064,-3.332,-4.566,1.540,-18.041,-0.695,0.043,-1.885,-0.079,0.996,-0.084,-0.916,-1.282,0.275,73.333,599238.000,1.000
2.227,0.142,-0.827,3.530,-15.589,3.541,4.565,2.022,-0.079,0.998,-0.086,-0.977,-1.404,0.183,73.333,599239.000,1.000
4.593,2.849,2.340,4.478,-15.157,5.910,6.913,3.533,-0.076,0.997,-0.087,-1.099,-1.465,0.183,73.333,599240.000,1.000
5.151,3.651,3.783,3.825,-17.786,4.607,5.881,2.084,-0.073,0.998,-0.086,-1.099,-1.434,0.122,73.333,599241.000,1.000
3.594,2.264,2.856,1.595,-22.988,-0.219,2.056,-1.311,-0.071,0.997,-0.087,-1.129,-1.465,0.305,73.333,599242.000,1.000
0.186,-0.788,-0.443,-1.727,-29.085,-6.782,-2.661,-4.927,-0.071,0.996,-0.086,-1.160,-1.465,0.336,73.333,599243.000,1.000
-4.149,-4.311,-5.183,-5.151,-33.836,-12.448,-5.634,-6.738,-0.071,0.993,-0.088,-1.190,-1.312,0.397,73.333,599244.000,1.000
-7.992,-6.881,-9.619,-7.438,-35.423,-14.620,-4.616,-5.312,-0.071,0.990,-0.086,-1.007,-1.282,0.458,73.333,599245.000,1.000
-10.138,-7.651,-12.312,-7.909,-33.561,-12.014,0.401,-1.307,-0.073,0.986,-0.085,-0.946,-1.160,0.519,73.333,599246.000,1.000
-10.319,-6.853,-13.001,-6.892,-29.651,-5.753,6.775,2.778,-0.072,0.984,-0.083,-0.885,-1.099,0.549,73.333,599247.000,1.000
-9.186,-5.480,-12.489,-5.242,-25.649,1.163,11.154,4.669,-0.074,0.984,-0.083,-0.854,-0.977,0.519,73.333,599248.000,1.000
-7.597,-4.391,-11.624,-3.557,-22.649,6.026,12.064,3.897,-0.075,0.985,-0.082,-0.793,-1.007,0.610,73.333,599249.000,1.000
-5.994,-3.657,-10.397,-1.848,-20.363,8.083,10.855,1.889,-0.079,0.984,-0.083,-0.702,-0.977,0.702,73.333,599250.000,1.000
-4.420,-2.785,-8.313,0.159,-17.954,8.127,9.989,0.742,-0.079,0.985,-0.082,-0.671,-0.977,0.702,73.333,599251.000,1.000
-2.990,-1.527,-5.400,2.425,-15.452,6.910,10.166,1.253,-0.079,0.984,-0.081,-0.671,-1.007,0.671,73.333,599252.000,1.000
-2.148,-0.372,-2.784,4.280,-14.148,4.357,9.298,1.960,-0.080,0.984,-0.086,-0.580,-1.099,0.671,73.333,599253.000,1.000
-2.307,-0.023,-1.778,4.963,-15.134,0.546,5.374,0.906,-0.079,0.982,-0.085,-0.580,-1.007,0.580,73.333,599254.000,1.000
-3.201,-0.441,-2.220,4.567,-17.631,-3.004,-0.011,-1.829,-0.080,0.983,-0.087,-0.458,-1.007,0.488,73.333,599255.000,1.000
-3.816,-0.748,-2.392,4.150,-19.439,-4.072,-2.775,-4.148,-0.078,0.983,-0.084,-0.458,-1.099,0.580,73.333,599256.000,1.000
-3.183,-0.143,-0.760,4.755,-19.054,-1.995,-0.924,-4.196,-0.076,0.984,-0.084,-0.397,-1.068,0.549,73.333,599257.000,1.000
-1.228,1.277,2.358,6.453,-16.952,1.472,3.517,-1.985,-0.077,0.987,-0.083,-0.366,-1.160,0.610,73.333,599258.000,1.000
1.266,2.792,5.321,8.479,-14.647,4.059,7.407,1.102,-0.074,0.987,-0.083,-0.336,-1.221,0.580,73.333,599259.000,1.000
3.369,3.883,7.013,10.024,-13.050,5.206,9.668,3.641,-0.077,0.988,-0.083,-0.275,-1.221,0.641,73.333,599260.000,1.000
4.524,4.494,7.440,10.603,-12.171,5.717,10.813,4.762,-0.077,0.986,-0.084,-0.336,-1.221,0.732,73.333,599261.000,1.000
4.600,4.718,7.030,9.939,-11.925,5.911,10.988,4.204,-0.075,0.987,-0.086,-0.427,-1.221,0.793,73.333,599262.000,1.000
3.742,4.501,5.795,7.871,-12.563,5.010,9.432,2.239,-0.076,0.987,-0.085,-0.305,-1.312,0.824,73.333,599263.000,1.000
2.183,3.578,3.379,4.459,-14.504,1.924,5.287,-0.676,-0.076,0.985,-0.084,-0.183,-1.282,0.854,73.333,599264.000,1.000
0.127,1.635,-0.247,0.119,-17.943,-3.704,-1.412,-4.276,-0.075,0.986,-0.084,-0.214,-1.282,1.007,73.333,599265.000,1.000
-2.160,-1.214,-4.464,-4.316,-22.265,-10.543,-9.054,-8.266,-0.076,0.986,-0.085,-0.153,-1.251,1.068,73.333,599266.000,1.000
-4.195,-4.060,-8.131,-7.666,-25.743,-15.649,-14.465,-11.663,-0.075,0.988,-0.089,-0.214,-1.312,1.038,73.333,599267.000,1.000
-5.409,-5.645,-10.206,-8.856,-26.384,-16.339,-14.540,-12.867,-0.074,0.989,-0.088,-0.183,-1.251,1.160,73.333,599268.000,1.000
-5.564,-5.358,-10.295,-7.555,-23.456,-12.245,-8.583,-10.803,-0.073,0.990,-0.085,-0.122,-1.251,1.129,73.333,599269.000,1.000
-4.957,-3.695,-8.708,-4.426,-18.102,-5.399,0.946,-6.033,-0.074,0.991,-0.086,-0.244,-1.282,1.221,73.333,599270.000,1.000
-4.147,-1.719,-6.296,-0.718,-12.381,1.351,9.990,-0.438,-0.074,0.992,-0.085,-0.305,-1.190,1.282,73.333,599271.000,1.000
-3.571,-0.293,-3.985,2.353,-7.944,5.723,15.203,4.157,-0.074,0.993,-0.084,-0.427,-1.221,1.190,73.333,599272.000,1.000
-3.456,0.201,-2.494,3.921,-5.580,6.567,15.069,6.601,-0.072,0.993,-0.086,-0.610,-1.190,1.221,73.333,599273.000,1.000
-3.749,-0.082,-2.089,3.715,-5.307,4.135,10.070,6.342,-0.072,0.993,-0.087,-0.641,-1.190,1.160,73.333,599274.000,1.000
-4.071,-0.529,-2.393,2.304,-6.417,-0.062,2.518,3.909,-0.071,0.993,-0.086,-0.732,-1.099,1.190,73.333,599275.000,1.000
-3.972,-0.517,-2.805,0.755,-7.702,-3.832,-4.237,1.152,-0.072,0.992,-0.085,-0.732,-1.129,1.099,73.333,599276.000,1.000
-3.246,0.151,-2.869,-0.129,-8.114,-5.170,-7.180,-0.155,-0.071,0.991,-0.088,-0.824,-1.007,1.190,73.333,599277.000,1.000
-1.972,1.189,-2.512,-0.247,-7.469,-3.528,-5.435,0.065,-0.071,0.994,-0.088,-0.824,-1.038,1.007,73.333,599278.000,1.000
-0.402,2.089,-2.018,0.030,-6.432,-0.473,-0.999,0.750,-0.073,0.994,-0.086,-1.038,-0.946,0.946,73.333,599279.000,1.000
1.099,2.381,-1.818,0.229,-5.863,1.517,2.649,1.106,-0.072,0.995,-0.087,-1.068,-0.885,0.793,73.333,599280.000,1.000
2.102,1.691,-2.398,-0.189,-6.426,0.822,2.555,0.452,-0.073,0.993,-0.086,-1.129,-0.916,0.793,73.333,599281.000,1.000
2.371,-0.111,-3.815,-1.617,-8.221,-2.606,-2.012,-1.799,-0.073,0.992,-0.087,-0.977,-0.854,0.763,73.333,599282.000,1.000
2.247,-2.429,-5.263,-3.691,-10.169,-7.135,-8.680,-4.856,-0.073,0.991,-0.086,-1.068,-0.763,0.732,73.333,599283.000,1.000
2.520,-3.951,-5.492,-5.371,-10.465,-10.110,-13.585,-6.786,-0.075,0.994,-0.084,-1.068,-0.763,0.580,73.333,599284.000,1.000
3.618,-3.675,-3.958,-5.955,-8.164,-9.823,-14.669,-6.611,-0.075,0.994,-0.083,-1.129,-0.671,0.549,73.333,599285.000,1.000
5.173,-1.766,-1.432,-5.584,-3.833,-6.833,-12.757,-4.921,-0.074,0.992,-0.083,-1.190,-0.763,0.580,73.333,599286.000,1.000
6.559,0.834,0.988,-4.669,1.369,-2.804,-9.362,-2.555,-0.073,0.990,-0.083,-1.068,-0.824,0.519,73.333,599287.000,1.000
7.527,3.216,2.856,-3.406,6.588,1.095,-5.078,0.114,-0.073,0.991,-0.085,-1.190,-0.732,0.549,73.333,599288.000,1.000
8.159,4.783,4.251,-1.981,11.114,4.026,-0.549,2.701,-0.074,0.987,-0.089,-0.977,-0.763,0.488,73.333,599289.000,1.000
8.502,5.239,5.194,-0.846,14.101,5.005,2.581,4.374,-0.073,0.988,-0.088,-0.824,-0.702,0.610,73.333,599290.000,1.000
8.476,4.728,5.470,-0.453,15.092,3.629,2.969,4.415,-0.072,0.989,-0.088,-0.793,-0.641,0.519,73.333,599291.000,1.000
8.056,3.875,5.222,-0.666,14.783,0.793,1.478,3.335,-0.071,0.991,-0.087,-0.702,-0.641,0.580,73.333,599292.000,1.000
7.362,3.475,5.107,-0.730,14.796,-1.685,0.762,2.820,-0.071,0.992,-0.084,-0.763,-0.488,0.732,73.333,599293.000,1.000
6.593,3.995,5.734,0.106,16.488,-2.008,2.883,4.209,-0.072,0.991,-0.084,-0.549,-0.397,0.732,73.333,599294.000,1.000
5.963,5.206,7.073,2.020,19.905,0.399,7.442,7.238,-0.072,0.989,-0.085,-0.763,-0.397,0.885,73.333,599295.000,1.000
5.613,6.252,8.351,4.523,23.759,4.049,11.724,10.286,-0.071,0.988,-0.085,-0.671,-0.397,0.977,73.333,599296.000,1.000
5.599,6.246,8.773,6.779,26.395,6.382,12.845,11.679,-0.070,0.986,-0.086,-0.641,-0.336,1.221,73.333,599297.000,1.000
5.992,4.969,8.202,8.062,26.947,5.959,9.954,10.831,-0.072,0.985,-0.085,-0.580,-0.366,1.221,73.333,599298.000,1.000
6.890,3.083,7.224,8.135,25.822,3.356,4.793,8.477,-0.078,0.987,-0.084,-0.519,-0.397,1.251,73.333,599299.000,1.000
8.286,1.738,6.668,7.336,24.310,0.364,0.467,5.977,-0.081,0.989,-0.084,-0.397,-0.427,1.190,73.333,599300.000,1.000
9.952,1.871,6.893,6.297,23.695,-1.061,-0.509,4.343,-0.081,0.988,-0.083,-0.427,-0.519,1.068,73.333,599301.000,1.000
11.464,3.570,7.704,5.553,24.448,0.198,2.337,3.825,-0.081,0.988,-0.084,-0.427,-0.610,1.007,73.333,599302.000,1.000
12.401,5.918,8.591,5.282,25.970,3.384,6.870,4.097,-0.081,0.986,-0.085,-0.488,-0.793,0.854,73.333,599303.000,1.000
12.547,7.567,8.983,5.267,27.079,6.130,9.548,4.573,-0.081,0.989,-0.081,-0.458,-0.946,0.732,73.333,599304.000,1.000
11.923,7.575,8.458,4.986,26.845,6.291,8.066,4.580,-0.079,0.989,-0.085,-0.397,-1.099,0.610,73.333,599305.000,1.000
10.681,5.794,6.857,3.924,25.108,3.268,2.853,3.703,-0.079,0.989,-0.086,-0.397,-1.099,0.580,73.333,599306.000,1.000
9.148,2.858,4.689,2.142,22.573,-1.810,-3.476,2.294,-0.076,0.991,-0.086,-0.427,-1.251,0.549,73.333,599307.000,1.000
7.861,-0.028,3.062,0.443,20.539,-6.403,-7.723,1.302,-0.074,0.989,-0.086,-0.366,-1.434,0.519,73.333,599308.000,1.000
7.335,-1.605,2.931,-0.216,20.173,-7.776,-7.769,1.405,-0.071,0.990,-0.085,-0.488,-1.465,0.488,73.333,599309.000,1.000
7.662,-1.318,4.376,0.412,21.623,-5.058,-3.865,2.341,-0.069,0.991,-0.085,-0.336,-1.404,0.427,73.333,599310.000,1.000
8.367,0.240,6.388,1.556,23.611,-0.382,0.814,2.853,-0.067,0.991,-0.084,-0.336,-1.373,0.397,73.333,599311.000,1.000
8.735,1.775,7.706,2.088,24.309,2.750,2.252,1.539,-0.066,0.990,-0.089,-0.336,-1.343,0.519,73.333,599312.000,1.000
8.329,2.332,7.764,1.554,22.990,2.610,-0.692,-1.737,-0.063,0.991,-0.090,-0.244,-1.221,0.488,73.333,599313.000,1.000
7.184,1.791,6.828,0.478,20.520,-0.086,-5.624,-5.231,-0.063,0.990,-0.089,-0.092,-1.068,0.458,73.333,599314.000,1.000
5.628,0.613,5.435,-0.220,18.358,-3.919,-9.382,-6.360,-0.062,0.990,-0.088,-0.092,-0.916,0.397,73.333,599315.000,1.000
4.104,-0.439,3.970,0.106,17.637,-7.219,-9.914,-3.666,-0.062,0.995,-0.087,-0.061,-0.732,0.519,73.333,599316.000,1.000
3.058,-0.519,3.010,1.533,18.804,-7.821,-6.347,1.872,-0.059,0.998,-0.086,-0.061,-0.641,0.458,73.333,599317.000,1.000
2.617,0.646,3.128,3.518,21.158,-4.983,0.060,7.250,-0.058,1.001,-0.089,-0.122,-0.336,0.488,73.333,599318.000,1.000
2.357,2.309,4.163,5.182,22.955,-1.102,5.528,9.589,-0.061,1.001,-0.084,-0.183,-0.305,0.488,73.333,599319.000,1.000
1.770,3.464,5.448,6.076,22.995,0.809,7.109,8.467,-0.064,0.999,-0.083,-0.305,-0.092,0.458,73.333,599320.000,1.000
0.927,3.989,6.709,6.667,22.066,0.855,6.005,6.288,-0.068,0.998,-0.083,-0.427,-0.092,0.488,73.333,599321.000,1.000
0.341,4.440,8.263,7.734,21.970,1.378,5.467,6.126,-0.072,0.996,-0.086,-0.458,0.031,0.458,73.333,599322.000,1.000
0.223,4.954,10.126,9.325,23.396,3.357,6.604,9.008,-0.075,0.996,-0.085,-0.610,0.061,0.336,73.333,599323.000,1.000
0.205,5.051,11.616,10.579,25.486,5.770,8.161,13.120,-0.076,0.995,-0.086,-0.671,0.031,0.153,73.333,599324.000,1.000
-0.293,4.262,11.870,10.384,26.841,7.334,8.548,15.225,-0.076,0.994,-0.083,-0.671,0.031,0.183,73.333,599325.000,1.000
-1.614,2.518,10.308,8.085,26.377,7.290,6.743,12.951,-0.075,0.992,-0.082,-0.610,-0.183,0.122,73.333,599326.000,1.000
-3.609,0.207,7.101,3.966,23.847,5.588,2.989,6.531,-0.076,0.990,-0.081,-0.641,-0.336,0.061,73.333,599327.000,1.000
-5.741,-2.049,3.171,-0.814,20.001,3.190,-0.954,-1.294,-0.077,0.991,-0.083,-0.519,-0.458,0.061,73.333,599328.000,1.000
-7.412,-3.824,-0.341,-4.866,16.087,1.283,-3.188,-7.130,-0.080,0.990,-0.082,-0.488,-0.458,-0.092,73.333,599329.000,1.000
-8.170,-5.039,-2.625,-7.261,13.259,0.004,-3.192,-8.984,-0.081,0.990,-0.082,-0.488,-0.702,-0.153,73.333,599330.000,1.000
-7.717,-5.642,-3.476,-7.743,12.451,-1.201,-1.655,-6.930,-0.082,0.990,-0.086,-0.427,-0.824,-0.214,73.333,599331.000,1.000
-5.951,-5.277,-2.941,-6.480,14.394,-1.963,1.121,-2.155,-0.081,0.988,-0.087,-0.397,-0.946,-0.153,73.333,599332.000,1.000
-3.171,-3.520,-1.172,-3.956,19.064,-0.654,5.745,3.881,-0.080,0.985,-0.084,-0.458,-1.099,-0.183,73.333,599333.000,1.000
-0.226,-0.659,1.206,-1.126,24.811,3.380,11.804,9.242,-0.081,0.985,-0.086,-0.519,-1.251,-0.153,73.333,599334.000,1.000
1.695,1.928,2.926,0.746,28.597,7.884,16.548,11.789,-0.082,0.985,-0.084,-0.488,-1.465,0.000,73.333,599335.000,1.000
1.708,2.576,2.617,0.738,27.943,9.300,16.964,10.513,-0.080,0.984,-0.082,-0.427,-1.556,0.000,73.333,599336.000,1.000
-0.192,0.488,-0.157,-1.198,22.587,5.779,12.374,6.207,-0.083,0.982,-0.085,-0.214,-1.678,-0.031,73.333,599337.000,1.000
-3.100,-3.780,-4.606,-4.238,14.470,-1.643,4.545,0.872,-0.081,0.982,-0.084,-0.275,-1.831,0.061,73.333,599338.000,1.000
-5.586,-8.457,-9.012,-6.931,6.813,-9.489,-3.176,-3.021,-0.081,0.982,-0.088,-0.336,-2.045,0.092,73.333,599339.000,1.000
-6.397,-11.483,-11.541,-7.863,2.543,-13.760,-7.405,-3.678,-0.083,0.984,-0.086,-0.244,-2.075,0.092,73.333,599340.000,1.000
-5.305,-11.979,-11.548,-6.722,2.315,-13.027,-7.566,-1.751,-0.081,0.983,-0.087,-0.183,-2.136,0.122,73.333,599341.000,1.000
-3.242,-10.717,-9.881,-4.607,4.196,-9.744,-6.696,-0.402,-0.082,0.984,-0.087,-0.214,-2.258,0.214,73.333,599342.000,1.000
-1.401,-9.019,-7.908,-2.966,5.974,-7.667,-7.829,-2.371,-0.082,0.983,-0.087,-0.275,-2.380,0.244,73.333,599343.000,1.000
-0.261,-7.460,-6.270,-2.279,7.559,-7.824,-10.146,-7.128,-0.083,0.982,-0.089,-0.183,-2.533,0.305,73.333,599344.000,1.000
0.547,-5.776,-4.644,-1.966,10.525,-8.033,-10.444,-11.686,-0.084,0.984,-0.089,-0.153,-2.655,0.336,73.333,599345.000,1.000
1.609,-3.708,-2.670,-1.262,15.683,-6.560,-7.712,-13.508,-0.081,0.985,-0.089,-0.183,-2.655,0.214,73.333,599346.000,1.000
3.137,-1.514,-0.451,0.162,22.045,-4.488,-4.060,-11.889,-0.081,0.983,-0.089,-0.183,-2.808,0.214,73.333,599347.000,1.000
4.807,0.218,1.502,1.955,27.813,-3.878,-2.035,-8.039,-0.081,0.984,-0.088,-0.244,-2.808,0.183,73.333,599348.000,1.000
6.059,1.078,2.689,3.172,31.651,-5.035,-2.429,-4.702,-0.078,0.984,-0.087,-0.275,-2.777,0.183,73.333,599349.000,1.000
6.620,1.296,3.235,3.102,33.513,-5.903,-3.545,-4.144,-0.079,0.985,-0.089,-0.305,-2.716,0.031,73.333,599350.000,1.000
6.732,1.623,3.831,2.048,34.547,-3.924,-2.603,-5.940,-0.076,0.985,-0.092,-0.397,-2.747,0.031,73.333,599351.000,1.000
6.811,2.478,4.978,0.927,35.671,0.709,0.688,-7.713,-0.078,0.985,-0.092,-0.397,-2.655,-0.031,73.333,599352.000,1.000
7.049,3.395,6.309,0.310,36.477,4.199,2.801,-7.863,-0.077,0.985,-0.092,-0.397,-2.594,-0.092,73.333,599353.000,1.000
7.386,3.585,7.004,0.206,36.095,2.953,0.275,-6.593,-0.078,0.987,-0.089,-0.366,-2.533,-0.153,73.333,599354.000,1.000
7.659,2.797,6.691,0.463,34.646,-2.472,-6.238,-4.728,-0.077,0.988,-0.090,-0.427,-2.380,-0.244,73.333,599355.000,1.000
7.642,1.402,5.498,0.950,33.188,-8.171,-12.761,-2.727,-0.075,0.989,-0.092,-0.610,-2.289,-0.244,73.333,599356.000,1.000
7.162,-0.007,3.838,1.566,32.631,-10.683,-15.499,-0.610,-0.074,0.990,-0.091,-0.702,-2.258,-0.275,73.333,599357.000,1.000
6.300,-0.922,2.200,2.268,33.048,-9.353,-13.240,1.672,-0.074,0.990,-0.092,-0.641,-2.106,-0.305,73.333,599358.000,1.000
5.295,-1.144,0.845,2.910,33.726,-5.907,-7.512,3.677,-0.074,0.991,-0.091,-0.641,-2.075,-0.305,73.333,599359.000,1.000
4.320,-0.796,-0.238,3.209,33.757,-2.574,-1.042,4.595,-0.076,0.992,-0.093,-0.763,-1.923,-0.305,73.333,599360.000,1.000
3.526,-0.053,-1.052,3.105,32.859,-0.366,4.158,4.281,-0.077,0.992,-0.091,-0.793,-1.862,-0.366,73.333,599361.000,1.000
3.074,0.958,-1.313,2.933,31.517,1.297,7.535,3.505,-0.076,0.992,-0.094,-0.885,-1.617,-0.366,73.333,599362.000,1.000
2.939,1.916,-0.914,3.025,30.251,3.274,9.190,2.892,-0.077,0.991,-0.093,-1.068,-1.587,-0.305,73.333,599363.000,1.000
2.865,2.339,-0.221,3.470,29.156,5.382,9.342,2.497,-0.079,0.990,-0.091,-1.099,-1.343,-0.244,73.333,599364.000,1.000
2.632,2.033,0.367,4.329,28.354,6.925,8.978,2.604,-0.079,0.992,-0.091,-1.068,-1.373,-0.275,73.333,599365.000,1.000
2.209,1.314,0.736,5.626,28.296,7.923,9.655,3.772,-0.079,0.993,-0.091,-1.160,-1.251,-0.183,73.333,599366.000,1.000
1.601,0.597,0.966,6.911,29.034,8.629,11.461,5.469,-0.079,0.992,-0.092,-1.190,-1.129,-0.214,73.333,599367.000,1.000
0.704,-0.081,0.894,7.200,29.608,8.284,11.971,5.654,-0.080,0.992,-0.093,-1.251,-1.068,0.000,73.333,599368.000,1.000
-0.532,-0.929,0.145,5.756,28.691,5.498,8.333,2.494,-0.081,0.990,-0.093,-1.312,-0.946,0.000,73.333,599369.000,1.000
-1.951,-2.071,-1.451,2.685,25.515,-0.318,-0.317,-4.264,-0.080,0.992,-0.094,-1.404,-0.854,0.183,73.333,599370.000,1.000
-3.283,-3.402,-3.701,-1.185,20.371,-7.936,-11.995,-13.287,-0.080,0.991,-0.094,-1.434,-0.702,0.275,73.333,599371.000,1.000
-4.232,-4.481,-5.877,-4.614,14.871,-14.158,-21.914,-21.751,-0.081,0.989,-0.093,-1.343,-0.732,0.427,73.333,599372.000,1.000
-4.530,-4.653,-7.014,-6.405,11.295,-15.320,-24.741,-26.169,-0.081,0.991,-0.094,-1.312,-0.671,0.427,73.333,599373.000,1.000
-4.065,-3.523,-6.472,-5.943,11.063,-10.195,-18.447,-24.249,-0.082,0.992,-0.092,-1.190,-0.671,0.519,73.333,599374.000,1.000
-3.062,-1.441,-4.313,-3.537,13.639,-1.532,-6.034,-16.332,-0.082,0.994,-0.092,-1.129,-0.580,0.732,73.333,599375.000,1.000
-2.167,0.410,-1.542,-0.520,16.704,5.764,6.073,-5.681,-0.081,0.991,-0.088,-1.129,-0.549,0.916,73.333,599376.000,1.000
-2.152,0.703,0.335,1.231,17.565,8.117,11.762,2.918,-0.080,0.991,-0.090,-1.221,-0.549,0.946,73.333,599377.000,1.000
-3.375,-0.982,0.195,0.419,14.946,5.479,9.058,5.984,-0.081,0.992,-0.087,-1.190,-0.519,1.038,73.333,599378.000,1.000
-5.517,-3.845,-2.008,-2.842,9.646,0.756,1.132,3.434,-0.079,0.992,-0.087,-1.129,-0.427,1.190,73.333,599379.000,1.000
-7.796,-6.530,-5.234,-7.167,3.609,-2.843,-6.764,-1.890,-0.078,0.992,-0.089,-1.007,-0.366,1.312,73.333,599380.000,1.000
-9.365,-7.924,-8.051,-10.703,-1.323,-3.959,-11.082,-6.349,-0.080,0.990,-0.091,-1.007,-0.427,1.404,73.333,599381.000,1.000
-9.693,-7.513,-9.304,-11.997,-3.947,-2.865,-10.749,-7.353,-0.079,0.991,-0.089,-1.068,-0.275,1.495,73.333,599382.000,1.000
-8.877,-5.496,-8.743,-10.725,-3.997,-0.171,-6.302,-4.488,-0.079,0.993,-0.089,-1.099,-0.244,1.495,73.333,599383.000,1.000
-7.661,-2.783,-7.168,-7.944,-2.403,3.520,0.339,0.203,-0.078,0.994,-0.086,-1.038,-0.244,1.434,73.333,599384.000,1.000
-6.939,-0.558,-5.739,-5.393,-0.818,7.212,6.397,3.619,-0.080,0.994,-0.087,-1.129,-0.122,1.587,73.333,599385.000,1.000
-7.073,0.478,-5.114,-4.146,-0.298,9.724,10.082,4.204,-0.079,0.991,-0.088,-1.099,-0.183,1.587,73.333,599386.000,1.000
-7.670,0.490,-4.938,-3.886,-0.575,10.493,11.755,3.092,-0.077,0.990,-0.084,-1.160,-0.122,1.495,73.333,599387.000,1.000
-8.065,0.052,-4.489,-3.673,-0.897,9.810,12.376,2.297,-0.077,0.992,-0.084,-1.160,-0.153,1.587,73.333,599388.000,1.000
-7.903,-0.482,-3.564,-3.125,-1.105,8.290,11.826,2.422,-0.075,0.990,-0.088,-1.251,-0.061,1.556,73.333,599389.000,1.000
-7.237,-0.962,-2.477,-2.540,-1.389,6.670,9.950,2.640,-0.076,0.988,-0.091,-1.282,-0.031,1.587,73.333,599390.000,1.000
-6.278,-1.065,-1.565,-2.248,-1.531,5.950,8.069,2.097,-0.078,0.989,-0.090,-1.221,-0.092,1.617,73.333,599391.000,1.000
-5.262,-0.425,-0.862,-2.268,-1.124,6.867,7.955,0.670,-0.077,0.988,-0.085,-1.160,-0.153,1.587,73.333,599392.000,1.000
-4.517,0.752,-0.428,-2.489,-0.373,8.897,9.553,-1.125,-0.078,0.988,-0.082,-1.007,-0.214,1.556,73.333,599393.000,1.000
-4.399,1.576,-0.561,-2.847,-0.143,10.151,10.771,-2.336,-0.080,0.987,-0.083,-1.099,-0.183,1.526,73.333,599394.000,1.000
-5.143,1.032,-1.520,-3.386,-1.354,8.555,9.355,-2.189,-0.079,0.986,-0.085,-1.129,-0.183,1.526,73.333,599395.000,1.000
-6.799,-1.354,-3.381,-4.321,-4.440,3.348,4.545,-0.893,-0.077,0.985,-0.089,-1.099,-0.275,1.495,73.333,599396.000,1.000
-9.053,-4.982,-5.712,-5.697,-8.775,-3.952,-1.908,0.788,-0.077,0.986,-0.088,-1.068,-0.214,1.495,73.333,599397.000,1.000
-11.080,-8.165,-7.491,-6.914,-12.444,-9.695,-5.976,2.728,-0.078,0.986,-0.089,-1.007,-0.305,1.465,73.333,599398.000,1.000
-11.955,-9.086,-7.642,-7.020,-13.340,-10.120,-4.047,5.450,-0.078,0.987,-0.086,-0.977,-0.427,1.404,73.333,599399.000,1.000
-11.373,-7.242,-5.971,-5.771,-11.214,-4.646,3.395,8.672,-0.077,0.986,-0.087,-1.038,-0.458,1.343,73.333,599400.000,1.000
-9.861,-3.912,-3.624,-4.184,-8.351,3.022,11.234,10.444,-0.076,0.987,-0.083,-0.977,-0.580,1.373,73.333,599401.000,1.000
-8.183,-0.991,-2.077,-3.637,-7.612,7.953,13.850,8.642,-0.077,0.986,-0.085,-1.007,-0.519,1.312,73.333,599402.000,1.000
-6.670,0.528,-1.914,-4.516,-9.924,7.807,9.656,3.307,-0.076,0.988,-0.085,-0.977,-0.610,1.251,73.333,599403.000,1.000
-5.137,0.942,-2.620,-5.923,-13.766,3.781,1.880,-2.934,-0.076,0.987,-0.086,-0.946,-0.671,1.221,73.333,599404.000,1.000
-3.295,1.201,-3.166,-6.543,-16.580,-0.774,-4.155,-6.694,-0.078,0.987,-0.084,-0.977,-0.763,1.160,73.333,599405.000,1.000
-1.187,2.086,-2.798,-5.729,-16.589,-2.495,-4.712,-6.049,-0.077,0.987,-0.085,-0.946,-0.885,1.038,73.333,599406.000,1.000
0.748,3.629,-1.403,-3.934,-13.941,-0.255,-0.160,-1.840,-0.075,0.989,-0.083,-0.885,-0.916,0.946,73.333,599407.000,1.000
1.863,4.944,0.307,-2.417,-10.745,3.783,4.950,2.482,-0.075,0.988,-0.086,-0.916,-0.885,1.007,73.333,599408.000,1.000
1.736,4.917,1.325,-2.311,-9.453,6.041,5.548,3.304,-0.075,0.990,-0.087,-0.977,-0.977,0.946,73.333,599409.000,1.000
0.671,3.417,1.416,-3.560,-10.612,5.125,0.893,0.084,-0.075,0.989,-0.082,-0.977,-0.977,0.854,73.333,599410.000,1.000
-0.403,1.485,1.192,-5.007,-12.685,2.813,-5.262,-4.595,-0.074,0.988,-0.084,-1.068,-1.038,0.763,73.333,599411.000,1.000
-0.675,0.295,1.342,-5.540,-13.968,1.437,-9.118,-7.978,-0.075,0.988,-0.082,-1.038,-1.099,0.641,73.333,599412.000,1.000
0.101,0.409,2.081,-4.760,-13.769,1.711,-9.678,-8.822,-0.077,0.988,-0.085,-1.007,-1.099,0.610,73.333,599413.000,1.000
1.653,1.822,3.315,-2.796,-12.112,2.981,-7.907,-6.886,-0.076,0.990,-0.084,-1.190,-1.129,0.610,73.333,599414.000,1.000
3.369,4.142,4.897,-0.096,-9.439,4.282,-5.291,-2.774,-0.074,0.992,-0.082,-1.129,-1.160,0.458,73.333,599415.000,1.000
4.546,6.744,6.515,2.619,-6.518,5.391,-2.952,1.653,-0.074,0.990,-0.082,-1.129,-1.221,0.336,73.333,599416.000,1.000
4.716,8.926,7.773,4.599,-4.197,6.759,-1.149,4.092,-0.075,0.991,-0.080,-1.221,-1.251,0.305,73.333,599417.000,1.000
3.847,9.946,8.294,5.393,-3.260,7.832,-0.135,3.472,-0.074,0.992,-0.080,-1.129,-1.251,0.336,73.333,599418.000,1.000
2.323,9.287,7.907,5.039,-4.232,6.520,-0.958,0.563,-0.074,0.990,-0.085,-1.251,-1.221,0.153,73.333,599419.000,1.000
0.748,7.097,6.855,3.971,-7.032,1.325,-4.509,-3.063,-0.075,0.991,-0.087,-1.190,-1.190,0.183,73.333,599420.000,1.000
-0.301,4.317,5.703,2.828,-10.774,-6.496,-10.006,-6.066,-0.076,0.991,-0.087,-1.282,-1.221,0.183,73.333,599421.000,1.000
-0.490,2.244,5.188,2.266,-14.027,-13.282,-14.814,-7.441,-0.075,0.991,-0.084,-1.312,-1.221,0.061,73.333,599422.000,1.000
0.068,1.783,5.746,2.584,-15.586,-15.386,-16.157,-6.734,-0.079,0.991,-0.082,-1.190,-1.343,0.031,73.333,599423.000,1.000
0.896,2.992,7.181,3.545,-15.083,-11.437,-12.980,-4.197,-0.078,0.990,-0.083,-1.221,-1.343,0.031,73.333,599424.000,1.000
1.538,5.083,8.859,4.702,-12.989,-3.307,-6.603,-0.273,-0.079,0.990,-0.083,-1.251,-1.373,0.061,73.333,599425.000,1.000
1.851,6.796,9.950,5.659,-10.452,4.732,-0.363,4.412,-0.079,0.990,-0.080,-1.160,-1.465,0.000,73.333,599426.000,1.000
2.063,7.150,9.906,6.103,-8.906,8.838,2.357,8.459,-0.079,0.988,-0.079,-1.099,-1.556,0.031,73.333,599427.000,1.000
2.594,6.077,8.787,5.888,-9.216,8.238,0.728,10.136,-0.081,0.989,-0.080,-1.160,-1.587,0.061,73.333,599428.000,1.000
3.745,4.380,7.234,5.192,-11.047,5.121,-3.005,8.820,-0.082,0.990,-0.081,-1.190,-1.648,0.061,73.333,599429.000,1.000
5.508,3.192,6.202,4.548,-12.992,2.661,-5.227,5.883,-0.083,0.989,-0.081,-1.251,-1.678,0.061,73.333,599430.000,1.000
7.560,3.371,6.406,4.657,-13.334,3.284,-2.919,4.035,-0.083,0.990,-0.083,-1.190,-1.770,0.061,73.333,599431.000,1.000
9.249,4.844,7.765,5.743,-11.466,7.241,4.233,5.045,-0.082,0.989,-0.081,-1.129,-1.953,0.000,73.333,599432.000,1.000
9.637,6.248,8.966,6.850,-9.158,11.521,12.019,7.434,-0.083,0.988,-0.082,-1.129,-1.953,0.244,73.333,599433.000,1.000
8.059,5.755,8.239,6.384,-9.483,11.629,14.009,7.464,-0.082,0.986,-0.080,-1.221,-2.045,0.214,73.333,599434.000,1.000
4.901,2.734,5.090,3.782,-13.811,5.869,7.412,3.073,-0.082,0.987,-0.081,-1.343,-2.045,0.275,73.333,599435.000,1.000
1.547,-1.620,0.807,0.253,-20.439,-3.089,-4.451,-3.855,-0.080,0.987,-0.080,-1.190,-2.106,0.275,73.333,599436.000,1.000
-0.612,-5.231,-2.547,-2.159,-26.029,-10.715,-14.955,-8.942,-0.082,0.987,-0.085,-0.977,-2.136,0.214,73.333,599437.000,1.000
-1.075,-6.494,-3.567,-2.078,-27.840,-13.307,-18.260,-8.578,-0.083,0.989,-0.084,-0.885,-2.197,0.336,73.333,599438.000,1.000
-0.370,-5.170,-2.249,0.257,-25.410,-9.468,-12.647,-2.818,-0.083,0.990,-0.081,-0.854,-2.289,0.488,73.333,599439.000,1.000
0.368,-2.561,0.027,3.028,-21.070,-1.262,-2.247,4.156,-0.081,0.990,-0.084,-0.671,-2.319,0.427,73.333,599440.000,1.000
0.118,-0.634,1.187,4.057,-18.356,6.358,5.460,7.255,-0.080,0.990,-0.081,-0.702,-2.319,0.488,73.333,599441.000,1.000
-1.299,-0.502,0.110,2.530,-19.148,9.005,5.690,4.874,-0.079,0.988,-0.077,-0.763,-2.289,0.519,73.333,599442.000,1.000
-3.067,-1.709,-2.396,-0.395,-22.379,6.197,-0.162,-0.187,-0.078,0.989,-0.082,-0.671,-2.289,0.610,73.333,599443.000,1.000
-4.034,-2.912,-4.381,-2.689,-25.442,1.233,-6.780,-3.866,-0.080,0.989,-0.083,-0.732,-2.319,0.641,73.333,599444.000,1.000
-3.566,-3.073,-4.480,-3.050,-26.541,-2.104,-9.899,-4.298,-0.078,0.989,-0.085,-0.610,-2.411,0.580,73.333,599445.000,1.000
-1.941,-2.149,-3.091,-1.700,-25.853,-2.705,-9.412,-2.571,-0.077,0.989,-0.086,-0.549,-2.319,0.671,73.333,599446.000,1.000
-0.077,-0.834,-1.693,0.108,-24.780,-2.069,-7.966,-0.824,-0.078,0.990,-0.087,-0.488,-2.197,0.641,73.333,599447.000,1.000
1.134,0.331,-1.276,1.301,-24.274,-1.507,-6.965,0.175,-0.076,0.991,-0.085,-0.427,-2.014,0.702,73.333,599448.000,1.000
1.403,1.535,-1.428,1.807,-23.914,-0.039,-4.416,1.720,-0.073,0.990,-0.085,-0.397,-2.045,0.671,73.333,599449.000,1.000
0.975,3.121,-1.122,2.106,-22.879,4.149,2.276,5.241,-0.073,0.992,-0.084,-0.366,-1.923,0.610,73.333,599450.000,1.000
0.012,4.374,-0.512,2.012,-21.932,9.734,10.976,9.637,-0.073,0.994,-0.086,-0.488,-1.831,0.671,73.333,599451.000,1.000
-1.587,3.701,-1.028,0.561,-23.412,11.796,14.911,11.452,-0.073,0.991,-0.087,-0.641,-1.801,0.763,73.333,599452.000,1.000
-3.610,0.492,-3.511,-2.583,-28.469,7.100,9.708,8.358,-0.072,0.992,-0.086,-0.610,-1.648,0.732,73.333,599453.000,1.000
-5.188,-3.774,-6.845,-6.176,-35.223,-1.902,-1.709,1.747,-0.074,0.990,-0.086,-0.580,-1.526,0.702,73.333,599454.000,1.000
-5.367,-6.640,-8.776,-8.218,-40.208,-9.203,-11.932,-4.496,-0.074,0.990,-0.084,-0.641,-1.434,0.702,73.333,599455.000,1.000
-3.951,-6.609,-7.975,-7.464,-41.093,-10.143,-15.122,-7.035,-0.075,0.991,-0.084,-0.519,-1.251,0.671,73.333,599456.000,1.000
-1.732,-4.190,-4.994,-4.235,-38.157,-4.745,-10.637,-5.032,-0.075,0.993,-0.085,-0.519,-1.221,0.702,73.333,599457.000,1.000
0.038,-1.429,-1.685,-0.138,-33.865,2.407,-2.716,-0.209,-0.077,0.991,-0.087,-0.641,-1.129,0.732,73.333,599458.000,1.000
0.433,-0.298,0.237,3.034,-31.015,5.740,3.108,4.689,-0.077,0.991,-0.085,-0.702,-0.885,0.671,73.333,599459.000,1.000
-0.689,-1.329,0.230,4.321,-30.923,2.847,4.066,7.671,-0.077,0.992,-0.085,-0.702,-0.916,0.732,73.333,599460.000,1.000
-2.697,-3.540,-1.193,3.831,-32.890,-4.092,1.551,8.159,-0.078,0.988,-0.087,-0.641,-0.946,0.793,73.333,599461.000,1.000
-4.522,-5.343,-2.928,2.405,-35.010,-10.305,-0.739,6.640,-0.078,0.986,-0.084,-0.702,-0.885,0.732,73.333,599462.000,1.000
-5.252,-5.649,-3.975,0.980,-35.634,-12.014,-0.330,3.870,-0.078,0.988,-0.084,-0.671,-0.977,0.793,73.333,599463.000,1.000
-4.685,-4.567,-4.065,-0.034,-34.550,-9.036,1.718,0.249,-0.079,0.987,-0.087,-0.610,-0.916,0.824,73.333,599464.000,1.000
-3.383,-3.240,-3.638,-0.807,-32.876,-4.673,1.993,-3.950,-0.077,0.988,-0.087,-0.519,-0.885,0.763,73.333,599465.000,1.000
-2.100,-2.742,-3.184,-1.461,-31.415,-2.511,-1.262,-7.645,-0.078,0.988,-0.088,-0.488,-0.702,0.763,73.333,599466.000,1.000
-1.080,-2.937,-2.406,-1.514,-29.199,-2.799,-5.383,-8.657,-0.081,0.990,-0.088,-0.519,-0.641,0.732,73.333,599467.000,1.000
0.020,-2.714,-0.593,-0.297,-24.426,-2.913,-5.893,-5.359,-0.082,0.991,-0.088,-0.458,-0.641,0.732,73.333,599468.000,1.000
1.546,-1.452,2.223,2.090,-16.903,-1.514,-2.001,1.138,-0.080,0.992,-0.087,-0.519,-0.641,0.732,73.333,599469.000,1.000
3.397,0.288,5.014,4.552,-8.732,-0.410,2.244,7.273,-0.082,0.991,-0.085,-0.549,-0.763,0.732,73.333,599470.000,1.000
5.205,1.702,6.658,5.893,-2.330,-1.630,2.670,9.795,-0.082,0.990,-0.085,-0.458,-0.916,0.702,73.333,599471.000,1.000
6.755,2.822,6.987,5.826,1.658,-4.163,-0.484,7.977,-0.081,0.990,-0.084,-0.549,-0.916,0.732,73.333,599472.000,1.000
8.057,4.408,6.691,5.116,4.525,-4.489,-2.965,3.642,-0.083,0.990,-0.085,-0.488,-1.007,0.702,73.333,599473.000,1.000
9.131,7.028,6.540,4.890,8.031,-0.163,-0.641,-0.234,-0.081,0.990,-0.084,-0.458,-1.007,0.671,73.333,599474.000,1.000
9.698,10.096,6.708,5.585,12.522,7.027,6.292,-1.532,-0.081,0.988,-0.088,-0.366,-1.099,0.763,73.333,599475.000,1.000
9.113,11.830,6.514,6.453,16.461,12.101,13.325,-0.304,-0.080,0.988,-0.086,-0.397,-1.068,0.763,73.333,599476.000,1.000
6.852,10.558,5.157,6.313,17.991,11.454,16.109,1.846,-0.077,0.987,-0.084,-0.427,-1.099,0.824,73.333,599477.000,1.000
3.061,6.032,2.398,4.560,16.510,5.549,13.632,3.137,-0.076,0.988,-0.084,-0.275,-1.038,0.946,73.333,599478.000,1.000
-1.427,-0.477,-1.384,1.415,12.824,-2.452,7.542,2.453,-0.077,0.988,-0.087,-0.305,-0.916,1.007,73.333,599479.000,1.000
-5.465,-6.833,-5.257,-2.277,8.612,-8.914,0.719,-0.216,-0.076,0.988,-0.088,-0.275,-0.854,0.977,73.333,599480.000,1.000
-8.047,-10.857,-7.971,-5.287,5.800,-10.994,-3.611,-3.631,-0.076,0.987,-0.083,-0.305,-0.885,0.946,73.333,599481.000,1.000
-8.781,-11.417,-8.541,-6.534,5.514,-8.274,-3.739,-5.948,-0.076,0.986,-0.085,-0.305,-0.885,0.885,73.333,599482.000,1.000
-8.059,-9.164,-7.085,-5.894,7.132,-3.835,-1.496,-6.186,-0.076,0.986,-0.088,-0.336,-0.824,0.977,73.333,599483.000,1.000
-6.608,-5.852,-4.724,-4.283,8.780,-1.888,-0.911,-5.143,-0.076,0.986,-0.091,-0.183,-0.793,1.007,73.333,599484.000,1.000
-4.903,-2.881,-2.468,-2.714,9.054,-3.831,-4.118,-4.429,-0.074,0.988,-0.090,-0.305,-0.793,0.977,73.333,599485.000,1.000
-3.000,-0.632,-0.541,-1.388,8.196,-7.320,-9.168,-4.483,-0.075,0.989,-0.091,-0.305,-0.763,0.916,73.333,599486.000,1.000
-0.831,1.083,1.399,0.105,7.523,-8.981,-12.118,-4.269,-0.075,0.990,-0.087,-0.305,-0.702,0.793,73.333,599487.000,1.000
1.325,2.250,3.312,1.757,7.746,-7.452,-11.057,-3.237,-0.074,0.990,-0.087,-0.336,-0.641,0.824,73.333,599488.000,1.000
2.833,2.523,4.456,2.805,8.395,-3.803,-7.267,-2.278,-0.075,0.993,-0.087,-0.458,-0.580,0.763,73.333,599489.000,1.000
3.209,1.721,4.130,2.445,8.742,-0.042,-3.230,-2.464,-0.078,0.993,-0.087,-0.488,-0.641,0.732,73.333,599490.000,1.000
2.514,0.174,2.293,0.517,8.561,2.103,-1.025,-3.974,-0.076,0.996,-0.085,-0.732,-0.610,0.519,73.333,599491.000,1.000
1.387,-1.297,-0.159,-2.202,8.327,1.936,-1.284,-5.766,-0.079,0.993,-0.086,-0.702,-0.580,0.580,73.333,599492.000,1.000
0.726,-1.770,-1.872,-4.253,8.990,0.141,-2.704,-5.809,-0.077,0.992,-0.083,-0.793,-0.580,0.580,73.333,599493.000,1.000
1.031,-0.912,-2.093,-4.564,11.050,-1.804,-3.328,-2.926,-0.077,0.991,-0.084,-0.946,-0.580,0.458,73.333,599494.000,1.000
2.053,0.723,-1.222,-3.415,13.818,-2.558,-2.268,1.443,-0.077,0.989,-0.087,-1.068,-0.519,0.519,73.333,599495.000,1.000
3.118,2.148,-0.415,-2.137,15.850,-1.745,-0.210,4.364,-0.075,0.988,-0.087,-0.977,-0.488,0.641,73.333,599496.000,1.000
3.597,2.535,-0.708,-2.107,15.840,-0.256,1.076,3.809,-0.074,0.987,-0.086,-1.007,-0.458,0.549,73.333,599497.000,1.000
3.146,1.492,-2.599,-4.022,13.232,0.531,-0.165,-0.548,-0.074,0.986,-0.087,-0.916,-0.366,0.671,73.333,599498.000,1.000
1.905,-0.745,-5.796,-7.420,8.727,-0.221,-4.090,-7.224,-0.077,0.987,-0.089,-0.885,-0.244,0.641,73.333,599499.000,1.000
0.528,-3.242,-9.037,-10.640,4.379,-2.269,-8.485,-12.975,-0.078,0.989,-0.088,-0.732,-0.336,0.702,73.333,599500.000,1.000
-0.249,-4.772,-10.739,-11.771,2.516,-4.252,-10.239,-14.531,-0.079,0.988,-0.084,-0.671,-0.366,0.793,73.333,599501.000,1.000
-0.221,-4.648,-10.083,-10.041,4.037,-4.707,-8.044,-11.147,-0.078,0.991,-0.085,-0.641,-0.305,0.793,73.333,599502.000,1.000
0.004,-3.323,-7.829,-6.437,7.653,-3.645,-3.783,-5.165,-0.076,0.992,-0.085,-0.610,-0.305,0.885,73.333,599503.000,1.000
-0.552,-2.056,-5.762,-2.901,10.975,-2.554,-0.722,0.190,-0.078,0.995,-0.089,-0.702,-0.458,1.007,73.333,599504.000,1.000
-2.322,-1.806,-5.103,-0.805,12.453,-2.373,-0.107,3.284,-0.079,0.994,-0.087,-0.793,-0.458,1.007,73.333,599505.000,1.000
-4.763,-2.525,-5.749,-0.236,12.125,-2.224,-0.344,4.294,-0.078,0.994,-0.086,-0.885,-0.458,1.099,73.333,599506.000,1.000
-6.848,-3.588,-6.759,-0.554,10.688,-1.021,0.376,3.862,-0.079,0.992,-0.085,-0.824,-0.427,1.251,73.333,599507.000,1.000
-7.811,-4.576,-7.330,-1.135,8.506,0.420,1.596,2.400,-0.080,0.993,-0.088,-0.854,-0.488,1.373,73.333,599508.000,1.000
-7.413,-5.315,-7.089,-1.428,5.892,0.372,1.815,0.686,-0.081,0.992,-0.089,-0.824,-0.519,1.312,73.333,599509.000,1.000
-5.763,-5.393,-5.757,-0.795,3.827,-0.914,1.597,0.194,-0.081,0.993,-0.088,-0.793,-0.580,1.312,73.333,599510.000,1.000
-3.060,-4.091,-3.134,1.224,3.633,-0.693,3.701,2.071,-0.081,0.994,-0.084,-0.793,-0.671,1.190,73.333,599511.000,1.000
0.450,-0.991,0.681,4.493,5.823,3.574,9.811,5.907,-0.083,0.996,-0.087,-0.885,-0.854,1.099,73.333,599512.000,1.000
4.265,3.291,4.891,8.125,9.359,11.174,17.704,9.787,-0.083,0.993,-0.085,-1.038,-0.916,0.977,73.333,599513.000,1.000
7.568,7.128,8.078,10.817,12.161,17.925,22.397,11.651,-0.082,0.994,-0.084,-1.190,-0.854,0.916,73.333,599514.000,1.000
9.595,8.970,9.114,11.659,12.643,19.431,20.566,10.872,-0.082,0.993,-0.084,-1.282,-1.007,0.854,73.333,599515.000,1.000
10.089,8.436,7.901,10.751,10.915,14.639,13.412,8.619,-0.082,0.993,-0.086,-1.312,-1.068,0.732,73.333,599516.000,1.000
9.283,6.247,5.282,8.881,8.315,6.097,5.000,6.403,-0.078,0.993,-0.085,-1.373,-1.221,0.641,73.333,599517.000,1.000
7.564,3.440,2.189,6.709,6.044,-2.346,-1.183,4.449,-0.077,0.992,-0.084,-1.343,-1.221,0.549,73.333,599518.000,1.000
5.449,1.123,-0.634,4.652,4.866,-7.063,-3.097,2.318,-0.075,0.993,-0.083,-1.404,-1.282,0.458,73.333,599519.000,1.000
3.671,0.396,-2.411,3.177,5.396,-5.580,0.288,0.313,-0.074,0.994,-0.087,-1.495,-1.465,0.458,73.333,599520.000,1.000
2.752,1.496,-2.890,2.440,7.283,1.251,7.309,-1.194,-0.072,0.993,-0.084,-1.526,-1.251,0.519,73.333,599521.000,1.000
2.642,3.410,-2.596,2.017,8.769,8.807,13.139,-2.768,-0.073,0.994,-0.088,-1.617,-1.251,0.519,73.333,599522.000,1.000
3.052,5.049,-2.085,1.571,8.448,12.664,13.800,-4.839,-0.071,0.993,-0.086,-1.617,-1.129,0.519,73.333,599523.000,1.000
3.784,6.248,-1.308,1.330,6.748,11.868,9.440,-6.669,-0.072,0.991,-0.087,-1.709,-1.099,0.580,73.333,599524.000,1.000
4.551,7.182,-0.077,1.512,4.927,7.675,2.655,-7.476,-0.073,0.988,-0.086,-1.526,-0.977,0.610,73.333,599525.000,1.000
4.976,7.723,1.311,1.871,3.792,1.812,-4.004,-7.462,-0.072,0.985,-0.084,-1.526,-0.946,0.610,73.333,599526.000,1.000
5.012,7.793,2.541,2.188,3.844,-3.513,-8.241,-6.809,-0.074,0.988,-0.083,-1.373,-0.916,0.610,73.333,599527.000,1.000
5.065,7.753,3.717,2.737,5.623,-5.974,-8.076,-4.702,-0.077,0.988,-0.083,-1.373,-0.824,0.610,73.333,599528.000,1.000
5.630,8.159,5.210,4.055,9.354,-4.203,-2.737,-0.203,-0.078,0.986,-0.084,-1.221,-0.854,0.641,73.333,599529.000,1.000
6.857,9.207,7.278,6.360,14.375,1.414,6.496,6.270,-0.080,0.986,-0.081,-1.282,-0.916,0.549,73.333,599530.000,1.000
8.397,10.442,9.658,9.141,19.104,8.704,16.347,12.645,-0.080,0.986,-0.081,-1.129,-0.977,0.580,73.333,599531.000,1.000
9.568,11.013,11.620,11.308,21.690,14.396,22.878,16.278,-0.083,0.985,-0.083,-1.099,-1.007,0.519,73.333,599532.000,1.000
9.700,10.149,12.228,11.816,20.954,15.392,23.353,15.610,-0.084,0.984,-0.083,-1.038,-1.038,0.610,73.333,599533.000,1.000
8.470,7.619,10.834,10.333,17.086,10.618,17.655,11.211,-0.084,0.985,-0.081,-0.946,-1.251,0.519,73.333,599534.000,1.000
6.060,3.937,7.583,7.350,11.521,2.004,8.056,5.062,-0.085,0.984,-0.082,-0.977,-1.373,0.488,73.333,599535.000,1.000
3.091,0.154,3.370,3.854,6.187,-6.694,-2.150,-0.834,-0.084,0.984,-0.083,-0.885,-1.404,0.458,73.333,599536.000,1.000
0.423,-2.559,-0.382,1.085,2.961,-11.916,-9.356,-4.632,-0.084,0.984,-0.082,-0.885,-1.556,0.488,73.333,599537.000,1.000
-1.215,-3.467,-2.385,0.136,3.020,-11.867,-10.824,-4.779,-0.082,0.982,-0.082,-0.824,-1.709,0.427,73.333,599538.000,1.000
-1.698,-2.778,-2.263,1.229,5.951,-7.391,-6.824,-1.281,-0.081,0.984,-0.082,-0.793,-1.617,0.488,73.333,599539.000,1.000
-1.579,-1.531,-0.725,3.478,9.771,-1.436,-0.815,3.757,-0.078,0.984,-0.082,-0.793,-1.587,0.427,73.333,599540.000,1.000
-1.670,-0.966,0.826,5.456,12.104,2.553,2.912,7.446,-0.078,0.984,-0.085,-0.702,-1.678,0.458,73.333,599541.000,1.000
-2.545,-1.877,1.131,5.939,11.423,2.271,1.869,7.801,-0.079,0.985,-0.086,-0.671,-1.740,0.488,73.333,599542.000,1.000
-4.154,-4.033,-0.095,4.617,8.066,-1.762,-2.590,5.039,-0.077,0.986,-0.083,-0.641,-1.953,0.580,73.333,599543.000,1.000
-5.664,-5.995,-1.793,2.496,4.483,-5.625,-5.198,1.943,-0.073,0.985,-0.081,-0.610,-1.831,0.702,73.333,599544.000,1.000
-6.036,-6.216,-2.451,1.064,3.244,-5.244,-1.562,1.523,-0.076,0.986,-0.081,-0.641,-1.831,0.732,73.333,599545.000,1.000
-5.171,-4.856,-1.904,0.616,4.064,-1.469,5.650,3.472,-0.073,0.986,-0.083,-0.580,-1.740,0.854,73.333,599546.000,1.000
-4.146,-3.818,-1.496,0.017,3.982,0.349,8.519,4.381,-0.074,0.988,-0.084,-0.488,-1.801,0.885,73.333,599547.000,1.000
-4.070,-4.635,-2.418,-1.665,0.974,-3.157,2.811,1.869,-0.073,0.988,-0.082,-0.519,-1.678,1.007,73.333,599548.000,1.000
-5.119,-7.078,-4.529,-4.104,-3.966,-10.042,-8.097,-3.106,-0.075,0.988,-0.084,-0.397,-1.648,1.160,73.333,599549.000,1.000
-6.812,-9.936,-6.893,-6.397,-8.484,-16.489,-18.188,-8.047,-0.076,0.989,-0.084,-0.458,-1.556,1.129,73.333,599550.000,1.000
-8.525,-12.013,-8.642,-7.810,-10.786,-20.110,-23.498,-10.850,-0.077,0.987,-0.083,-0.458,-1.587,1.221,73.333,599551.000,1.000
-9.536,-12.272,-8.950,-7.697,-9.848,-19.591,-22.055,-9.910,-0.075,0.989,-0.083,-0.397,-1.587,1.282,73.333,599552.000,1.000
-9.287,-10.277,-7.392,-5.828,-5.823,-14.619,-14.334,-4.983,-0.075,0.992,-0.083,-0.397,-1.587,1.312,73.333,599553.000,1.000
-7.882,-6.835,-4.555,-3.003,-0.739,-7.218,-4.465,1.574,-0.075,0.993,-0.083,-0.397,-1.648,1.434,73.333,599554.000,1.000
-5.992,-3.475,-1.610,-0.601,2.670,-1.003,2.343,6.271,-0.076,0.993,-0.080,-0.488,-1.587,1.495,73.333,599555.000,1.000
-4.312,-1.258,0.525,0.503,3.146,1.730,3.845,7.432,-0.077,0.991,-0.085,-0.610,-1.495,1.526,73.333,599556.000,1.000
-3.399,-0.495,1.455,0.167,1.278,1.259,1.184,5.667,-0.077,0.992,-0.084,-0.671,-1.556,1.465,73.333,599557.000,1.000
-3.900,-1.398,0.797,-1.666,-1.984,-1.168,-3.714,1.961,-0.077,0.991,-0.083,-0.793,-1.495,1.465,73.333,599558.000,1.000
-6.392,-4.290,-1.903,-5.160,-6.277,-4.862,-9.685,-3.295,-0.076,0.992,-0.082,-0.854,-1.434,1.434,73.333,599559.000,1.000
-10.708,-8.888,-6.392,-9.977,-11.160,-8.900,-15.292,-9.335,-0.075,0.991,-0.084,-0.763,-1.495,1.343,73.333,599560.000,1.000
-15.530,-13.679,-11.309,-14.840,-15.287,-10.958,-17.729,-14.293,-0.075,0.993,-0.084,-0.854,-1.434,1.312,73.333,599561.000,1.000
-18.973,-16.629,-14.805,-18.125,-17.180,-8.979,-14.597,-16.255,-0.076,0.995,-0.081,-0.824,-1.495,1.190,73.333,599562.000,1.000
-19.811,-16.836,-15.931,-19.027,-16.899,-4.219,-7.119,-14.945,-0.076,0.997,-0.081,-0.946,-1.373,1.068,73.333,599563.000,1.000
-18.153,-15.236,-15.184,-18.019,-16.220,-1.051,-0.071,-11.882,-0.075,0.999,-0.083,-1.007,-1.404,1.007,73.333,599564.000,1.000
-15.151,-13.658,-13.780,-16.276,-17.003,-3.298,1.856,-8.963,-0.075,1.000,-0.083,-1.129,-1.343,0.885,73.333,599565.000,1.000
-12.318,-13.483,-12.836,-14.876,-19.701,-11.127,-2.726,-7.183,-0.076,0.996,-0.079,-1.282,-1.404,0.732,73.333,599566.000,1.000
-10.775,-14.826,-12.683,-14.195,-23.089,-20.823,-10.993,-6.302,-0.075,0.994,-0.081,-1.343,-1.373,0.824,73.333,599567.000,1.000
-10.714,-16.534,-12.772,-13.781,-25.063,-27.134,-17.618,-5.345,-0.073,0.992,-0.083,-1.404,-1.282,0.732,73.333,599568.000,1.000
-11.509,-17.094,-12.347,-12.892,-24.085,-26.768,-18.279,-3.456,-0.074,0.988,-0.084,-1.373,-1.312,0.793,73.333,599569.000,1.000
-12.380,-15.789,-11.213,-11.303,-20.409,-20.439,-12.504,-0.716,-0.073,0.986,-0.083,-1.251,-1.251,0.885,73.333,599570.000,1.000
-12.953,-13.160,-10.013,-9.633,-16.098,-11.879,-4.039,1.426,-0.070,0.987,-0.082,-1.221,-1.190,0.824,73.333,599571.000,1.000
-13.227,-10.416,-9.492,-8.755,-13.560,-5.050,1.815,1.108,-0.071,0.987,-0.083,-1.129,-0.977,0.854,73.333,599572.000,1.000
-13.083,-8.326,-9.621,-8.781,-13.541,-1.751,2.369,-1.901,-0.071,0.989,-0.085,-1.007,-1.068,0.824,73.333,599573.000,1.000
-12.128,-6.740,-9.524,-8.835,-14.645,-1.205,-0.781,-5.561,-0.071,0.991,-0.083,-0.885,-1.038,0.946,73.333,599574.000,1.000
-10.158,-5.243,-8.310,-7.916,-14.914,-1.790,-4.196,-7.392,-0.071,0.988,-0.084,-0.977,-0.916,0.977,73.333,599575.000,1.000
-7.556,-3.881,-5.937,-5.781,-13.452,-2.834,-5.793,-6.449,-0.071,0.989,-0.087,-0.732,-0.854,1.068,73.333,599576.000,1.000
-5.148,-3.102,-3.137,-3.061,-10.748,-4.701,-5.802,-3.636,-0.071,0.985,-0.086,-0.732,-0.702,1.190,73.333,599577.000,1.000
-3.688,-3.179,-0.929,-0.810,-8.004,-7.434,-5.633,-0.791,-0.072,0.983,-0.084,-0.610,-0.732,1.160,73.333,599578.000,1.000
-3.369,-3.686,-0.008,0.178,-6.137,-9.547,-5.892,0.452,-0.073,0.984,-0.082,-0.519,-0.610,1.221,73.333,599579.000,1.000
-3.818,-3.746,-0.427,-0.212,-5.282,-8.952,-5.879,-0.611,-0.075,0.983,-0.082,-0.336,-0.519,1.190,73.333,599580.000,1.000
-4.513,-2.891,-1.844,-1.487,-5.028,-5.559,-4.952,-3.276,-0.079,0.984,-0.084,-0.214,-0.580,1.129,73.333,599581.000,1.000
-5.036,-1.399,-3.584,-2.849,-4.775,-1.727,-3.271,-5.604,-0.082,0.986,-0.079,-0.183,-0.641,1.038,73.333,599582.000,1.000
-5.126,0.128,-4.842,-3.692,-4.085,0.407,-1.442,-6.093,-0.083,0.986,-0.083,-0.092,-0.641,0.916,73.333,599583.000,1.000
-4.738,1.181,-5.156,-4.008,-3.217,0.735,-0.306,-5.215,-0.082,0.988,-0.082,-0.183,-0.854,0.885,73.333,599584.000,1.000
-4.078,1.470,-4.663,-4.209,-3.427,0.072,-0.757,-4.620,-0.080,0.987,-0.085,-0.336,-0.854,0.824,73.333,599585.000,1.000
-3.398,0.999,-3.926,-4.581,-6.302,-1.241,-3.078,-5.053,-0.081,0.987,-0.085,-0.244,-1.038,0.824,73.333,599586.000,1.000
-2.700,0.220,-3.283,-4.933,-12.165,-2.970,-6.162,-5.568,-0.082,0.988,-0.085,-0.153,-1.068,0.671,73.333,599587.000,1.000
-1.823,-0.239,-2.708,-4.874,-19.325,-4.379,-8.053,-4.776,-0.081,0.986,-0.085,-0.244,-1.129,0.641,73.333,599588.000,1.000
-0.926,-0.257,-2.243,-4.400,-25.277,-4.888,-7.673,-2.396,-0.078,0.989,-0.083,-0.214,-1.251,0.641,73.333,599589.000,1.000
-0.564,-0.373,-2.207,-4.006,-28.327,-4.442,-5.483,0.502,-0.078,0.990,-0.083,-0.061,-1.343,0.702,73.333,599590.000,1.000
-1.135,-1.093,-2.972,-4.166,-28.015,-2.682,-2.180,2.485,-0.078,0.990,-0.086,-0.092,-1.343,0.580,73.333,599591.000,1.000
-2.440,-2.319,-4.477,-4.821,-24.844,1.117,2.520,2.960,-0.077,0.990,-0.086,-0.061,-1.373,0.580,73.333,599592.000,1.000
-3.879,-3.587,-6.259,-5.469,-20.175,6.605,8.613,2.367,-0.074,0.992,-0.088,-0.122,-1.373,0.610,73.333,599593.000,1.000
-4.880,-4.549,-7.810,-5.725,-15.973,11.398,13.523,1.111,-0.074,0.993,-0.086,0.000,-1.343,0.610,73.333,599594.000,1.000
-5.050,-5.069,-8.736,-5.560,-13.829,12.374,13.032,-1.128,-0.074,0.992,-0.090,-0.031,-1.404,0.824,73.333,599595.000,1.000
-4.213,-4.970,-8.754,-4.985,-13.627,8.640,5.909,-4.320,-0.072,0.993,-0.088,-0.061,-1.282,0.885,73.333,599596.000,1.000
-2.474,-3.879,-7.509,-3.730,-13.431,3.168,-3.346,-6.904,-0.072,0.994,-0.089,0.000,-1.282,0.916,73.333,599597.000,1.000
-0.210,-1.527,-4.831,-1.538,-11.301,0.614,-8.051,-6.772,-0.074,0.993,-0.088,-0.122,-1.282,1.038,73.333,599598.000,1.000
2.091,1.809,-1.130,1.332,-7.217,3.127,-5.151,-3.223,-0.077,0.998,-0.088,-0.092,-1.282,1.129,73.333,599599.000,1.000
4.035,5.336,2.723,4.091,-3.013,8.929,3.158,2.408,-0.075,0.997,-0.087,-0.153,-1.312,1.190,73.333,599600.000,1.000
5.483,8.230,5.791,5.837,-1.160,14.724,12.085,7.422,-0.076,0.995,-0.086,-0.183,-1.312,1.221,73.333,599601.000,1.000
6.521,9.938,7.496,6.000,-4.131,17.881,17.064,9.135,-0.075,0.995,-0.087,-0.336,-1.251,1.160,73.333,599602.000,1.000
7.338,10.302,7.792,4.675,-13.590,17.040,15.681,6.622,-0.075,0.993,-0.088,-0.519,-1.129,1.129,73.333,599603.000,1.000
8.259,9.890,7.305,2.794,-28.728,13.160,9.595,1.630,-0.075,0.990,-0.087,-0.610,-1.190,1.160,73.333,599604.000,1.000
9.672,9.853,7.065,1.687,-45.915,9.485,3.697,-2.641,-0.076,0.992,-0.088,-0.610,-1.129,1.129,73.333,599605.000,1.000
11.639,10.881,7.580,2.051,-60.636,8.615,1.578,-4.035,-0.078,0.993,-0.085,-0.671,-1.160,1.038,73.333,599606.000,1.000
13.763,12.572,8.569,3.511,-69.465,10.163,2.937,-2.608,-0.078,0.991,-0.085,-0.732,-1.160,1.068,73.333,599607.000,1.000
15.499,13.966,9.440,5.135,-70.911,11.792,5.396,0.068,-0.077,0.991,-0.085,-0.732,-1.282,0.946,73.333,599608.000,1.000
16.429,14.255,9.681,6.025,-65.849,11.310,6.638,1.830,-0.077,0.989,-0.086,-0.702,-1.221,0.854,73.333,599609.000,1.000
16.284,12.999,8.962,5.586,-57.148,7.790,5.027,0.870,-0.077,0.988,-0.084,-0.671,-1.099,0.793,73.333,599610.000,1.000
15.048,10.355,7.262,3.868,-47.890,2.178,0.507,-2.801,-0.075,0.988,-0.086,-0.702,-1.160,0.702,73.333,599611.000,1.000
13.144,7.257,5.184,1.747,-39.672,-3.162,-4.942,-6.925,-0.075,0.989,-0.088,-0.671,-1.129,0.641,73.333,599612.000,1.000
11.299,4.948,3.653,0.406,-32.606,-6.011,-8.782,-8.799,-0.076,0.989,-0.089,-0.671,-1.251,0.671,73.333,599613.000,1.000
10.186,4.332,3.330,0.594,-26.144,-5.100,-9.255,-7.212,-0.076,0.989,-0.091,-0.732,-1.190,0.671,73.333,599614.000,1.000
10.200,5.672,4.493,2.392,-19.628,-0.161,-5.353,-2.632,-0.076,0.990,-0.090,-0.641,-1.160,0.641,73.333,599615.000,1.000
11.392,8.567,7.031,5.356,-12.731,7.651,2.722,3.470,-0.077,0.990,-0.086,-0.732,-1.099,0.519,73.333,599616.000,1.000
13.463,12.158,10.522,8.739,-5.855,15.742,12.445,9.052,-0.077,0.990,-0.088,-0.732,-1.160,0.519,73.333,599617.000,1.000
15.828,15.469,14.150,11.700,0.048,21.151,19.672,12.185,-0.078,0.990,-0.087,-0.671,-1.190,0.519,73.333,599618.000,1.000
17.831,17.735,16.944,13.623,4.339,22.183,21.787,12.405,-0.078,0.990,-0.085,-0.732,-1.190,0.519,73.333,599619.000,1.000
19.068,18.722,18.440,14.419,7.347,19.673,19.921,11.304,-0.080,0.990,-0.089,-0.732,-1.190,0.488,73.333,599620.000,1.000
19.440,18.730,18.832,14.421,9.954,16.336,17.257,11.036,-0.080,0.988,-0.091,-0.763,-1.282,0.519,73.333,599621.000,1.000
18.954,18.150,18.593,13.962,12.571,14.305,15.766,12.288,-0.079,0.988,-0.089,-0.763,-1.343,0.488,73.333,599622.000,1.000
17.653,17.128,17.922,13.148,14.876,13.800,15.287,14.044,-0.080,0.988,-0.085,-0.702,-1.343,0.519,73.333,599623.000,1.000
15.724,15.643,16.729,11.995,16.460,13.988,14.960,14.895,-0.082,0.986,-0.087,-0.671,-1.465,0.488,73.333,599624.000,1.000
13.533,13.788,15.070,10.634,17.345,14.066,14.313,14.026,-0.080,0.986,-0.085,-0.610,-1.556,0.519,73.333,599625.000,1.000
11.569,11.921,13.291,9.320,18.037,13.563,13.228,11.350,-0.079,0.987,-0.087,-0.580,-1.678,0.610,73.333,599626.000,1.000
10.265,10.534,11.883,8.228,19.238,12.373,11.884,7.428,-0.079,0.988,-0.087,-0.580,-1.678,0.580,73.333,599627.000,1.000
9.772,9.843,11.038,7.271,21.304,10.636,10.474,3.188,-0.078,0.987,-0.088,-0.488,-1.709,0.519,73.333,599628.000,1.000
9.957,9.612,10.558,6.352,23.980,8.378,8.845,-0.255,-0.077,0.988,-0.084,-0.580,-1.740,0.549,73.333,599629.000,1.000
10.607,9.511,10.311,5.763,26.815,5.678,7.013,-1.545,-0.077,0.987,-0.083,-0.610,-1.770,0.580,73.333,599630.000,1.000
11.575,9.475,10.383,6.030,29.598,3.318,5.877,0.349,-0.077,0.989,-0.081,-0.641,-1.709,0.641,73.333,599631.000,1.000
12.714,9.599,10.934,7.356,32.320,2.638,6.627,5.062,-0.076,0.990,-0.083,-0.610,-1.709,0.671,73.333,599632.000,1.000
13.741,9.831,11.864,9.321,34.977,4.403,9.272,10.681,-0.073,0.990,-0.084,-0.793,-1.648,0.671,73.333,599633.000,1.000
14.252,9.879,12.727,11.150,37.566,7.859,12.470,14.998,-0.073,0.990,-0.082,-0.702,-1.526,0.610,73.333,599634.000,1.000
14.005,9.519,13.138,12.274,40.223,11.182,15.118,17.022,-0.075,0.991,-0.082,-0.732,-1.648,0.580,73.333,599635.000,1.000
13.205,8.942,13.101,12.674,43.148,13.002,17.214,17.366,-0.075,0.992,-0.082,-0.824,-1.556,0.580,73.333,599636.000,1.000
12.348,8.624,12.947,12.652,46.161,13.520,19.047,17.147,-0.075,0.991,-0.085,-0.916,-1.495,0.488,73.333,599637.000,1.000
11.676,8.731,12.736,12.306,48.388,13.855,20.040,16.503,-0.073,0.992,-0.085,-1.038,-1.434,0.519,73.333,599638.000,1.000
10.924,8.816,12.082,11.475,48.690,14.091,18.556,14.593,-0.076,0.991,-0.084,-1.068,-1.404,0.488,73.333,599639.000,1.000
9.707,8.270,10.767,10.209,46.727,12.899,13.402,11.122,-0.075,0.993,-0.085,-0.977,-1.373,0.488,73.333,599640.000,1.000
7.987,6.995,9.069,8.973,43.611,9.593,5.797,7.195,-0.073,0.993,-0.085,-1.038,-1.282,0.580,73.333,599641.000,1.000
6.148,5.503,7.591,8.379,41.311,5.347,-0.845,4.542,-0.072,0.995,-0.082,-1.038,-1.221,0.580,73.333,599642.000,1.000
4.735,4.397,6.859,8.774,41.194,1.848,-3.779,4.181,-0.072,0.994,-0.083,-1.068,-1.221,0.610,73.333,599643.000,1.000
4.151,3.897,7.186,9.978,43.056,-0.170,-3.053,5.703,-0.073,0.996,-0.083,-1.099,-1.068,0.702,73.333,599644.000,1.000
4.463,3.851,8.687,11.302,45.469,-0.649,-0.661,7.504,-0.074,0.998,-0.083,-1.190,-1.099,0.671,73.333,599645.000,1.000
5.346,3.991,10.967,11.856,46.895,0.432,1.287,7.664,-0.076,0.996,-0.081,-1.343,-1.038,0.793,73.333,599646.000,1.000
6.207,4.085,13.148,11.067,46.516,2.646,1.610,5.071,-0.079,0.995,-0.083,-1.434,-1.129,0.732,73.333,599647.000,1.000
6.582,4.109,14.367,9.172,44.563,4.920,0.613,0.349,-0.078,0.993,-0.081,-1.404,-1.160,0.793,73.333,599648.000,1.000
6.498,4.397,14.433,7.250,42.145,6.512,-0.080,-4.106,-0.078,0.990,-0.082,-1.312,-1.160,0.824,73.333,599649.000,1.000
6.308,5.246,13.826,6.448,40.181,7.227,0.667,-5.723,-0.077,0.990,-0.082,-1.251,-1.038,0.885,73.333,599650.000,1.000
6.207,6.266,12.933,6.970,38.265,6.446,1.782,-3.906,-0.078,0.991,-0.081,-1.282,-1.190,0.854,73.333,599651.000,1.000
6.102,6.599,11.792,7.972,35.065,3.465,1.250,-0.336,-0.078,0.990,-0.082,-1.160,-1.312,0.916,73.333,599652.000,1.000
5.880,5.844,10.403,8.372,29.990,-0.835,-1.097,2.772,-0.077,0.988,-0.083,-1.160,-1.404,1.038,73.333,599653.000,1.000
5.582,4.479,8.957,7.666,24.021,-3.999,-3.177,4.286,-0.077,0.988,-0.080,-0.977,-1.404,1.068,73.333,599654.000,1.000
5.301,3.330,7.684,6.081,18.706,-4.225,-3.117,4.260,-0.077,0.988,-0.083,-0.916,-1.312,1.129,73.333,599655.000,1.000
5.055,2.837,6.553,4.253,14.728,-1.822,-1.191,3.300,-0.076,0.988,-0.083,-0.916,-1.373,1.221,73.333,599656.000,1.000
4.841,2.963,5.579,2.886,11.775,1.782,1.149,2.149,-0.077,0.986,-0.083,-0.763,-1.404,1.099,73.333,599657.000,1.000
4.702,3.541,5.050,2.415,9.384,5.588,3.163,1.366,-0.076,0.989,-0.082,-0.732,-1.343,1.129,73.333,599658.000,1.000
4.644,4.391,5.265,2.783,7.535,9.140,4.989,1.147,-0.075,0.990,-0.081,-0.641,-1.312,1.129,73.333,599659.000,1.000
4.593,5.258,6.274,3.628,6.617,11.972,6.621,1.521,-0.074,0.990,-0.084,-0.702,-1.343,1.251,73.333,599660.000,1.000
4.497,5.898,7.844,4.603,7.130,13.674,7.781,2.550,-0.075,0.989,-0.082,-0.702,-1.282,1.190,73.333,599661.000,1.000
4.365,6.243,9.732,5.526,9.374,14.197,8.705,4.356,-0.074,0.988,-0.084,-0.702,-1.343,1.160,73.333,599662.000,1.000
4.163,6.368,11.640,6.286,13.086,13.630,9.849,6.899,-0.074,0.988,-0.083,-0.824,-1.343,1.099,73.333,599663.000,1.000
3.742,6.279,13.019,6.704,17.254,11.971,10.891,9.674,-0.073,0.990,-0.081,-0.824,-1.312,1.099,73.333,599664.000,1.000
2.955,5.877,13.271,6.614,20.623,9.360,10.921,11.923,-0.073,0.990,-0.081,-0.793,-1.068,1.099,73.333,599665.000,1.000
1.751,5.030,12.091,6.032,22.492,6.023,9.272,13.220,-0.071,0.987,-0.084,-0.824,-1.038,1.038,73.333,599666.000,1.000
0.199,3.636,9.728,5.098,22.878,2.046,5.812,13.409,-0.073,0.986,-0.085,-0.854,-1.129,1.068,73.333,599667.000,1.000
-1.482,1.720,6.767,3.849,22.137,-2.257,0.879,11.968,-0.072,0.984,-0.085,-0.732,-0.946,0.977,73.333,599668.000,1.000
-3.006,-0.580,3.672,2.136,20.564,-6.228,-4.993,8.000,-0.073,0.984,-0.084,-0.671,-0.885,1.038,73.333,599669.000,1.000
-4.302,-3.250,0.507,-0.308,18.272,-9.544,-11.347,1.084,-0.073,0.980,-0.087,-0.671,-0.854,0.885,73.333,599670.000,1.000
-5.562,-6.401,-2.998,-3.636,15.499,-12.291,-17.455,-7.935,-0.074,0.981,-0.084,-0.549,-0.793,0.824,73.333,599671.000,1.000
-6.883,-9.847,-6.865,-7.540,12.961,-14.382,-22.029,-16.904,-0.075,0.983,-0.086,-0.397,-0.641,0.824,73.333,599672.000,1.000
-8.046,-12.956,-10.654,-11.164,11.627,-15.701,-23.887,-23.093,-0.077,0.984,-0.087,-0.336,-0.641,0.854,73.333,599673.000,1.000
-8.670,-14.935,-13.678,-13.414,12.258,-16.198,-22.480,-24.216,-0.076,0.986,-0.086,-0.397,-0.580,0.793,73.333,599674.000,1.000
-8.553,-15.275,-15.358,-13.622,14.950,-15.579,-18.127,-19.790,-0.074,0.987,-0.086,-0.336,-0.580,0.671,73.333,599675.000,1.000
-7.920,-14.178,-15.716,-12.175,18.720,-13.734,-12.495,-12.185,-0.075,0.990,-0.087,-0.336,-0.610,0.641,73.333,599676.000,1.000
-7.233,-12.431,-15.243,-10.257,21.924,-11.153,-8.029,-5.440,-0.076,0.990,-0.086,-0.427,-0.610,0.641,73.333,599677.000,1.000
-6.770,-10.745,-14.411,-8.849,23.417,-8.410,-6.199,-2.263,-0.076,0.990,-0.087,-0.397,-0.580,0.641,73.333,599678.000,1.000
-6.503,-9.378,-13.383,-8.164,23.096,-5.714,-6.455,-2.452,-0.076,0.991,-0.086,-0.397,-0.610,0.580,73.333,599679.000,1.000
-6.193,-8.164,-11.968,-7.827,21.622,-2.795,-6.740,-3.998,-0.077,0.992,-0.092,-0.458,-0.671,0.580,73.333,599680.000,1.000
-5.504,-6.662,-9.891,-7.266,20.062,1.046,-4.954,-4.900,-0.078,0.993,-0.089,-0.610,-0.641,0.519,73.333,599681.000,1.000
-4.399,-4.721,-7.190,-6.183,19.202,5.657,-0.795,-4.132,-0.078,0.993,-0.090,-0.793,-0.763,0.488,73.333,599682.000,1.000
-3.519,-3.121,-4.574,-4.982,18.705,8.676,3.352,-1.963,-0.078,0.992,-0.087,-0.763,-0.732,0.488,73.333,599683.000,1.000
-3.809,-3.027,-2.990,-4.500,17.564,7.309,4.548,0.404,-0.080,0.992,-0.088,-0.854,-0.671,0.397,73.333,599684.000,1.000
-5.607,-4.647,-2.732,-5.118,15.538,1.696,2.499,1.932,-0.080,0.996,-0.089,-0.946,-0.732,0.427,73.333,599685.000,1.000
-8.261,-6.884,-3.402,-6.289,13.455,-5.067,-0.660,2.630,-0.080,0.997,-0.086,-1.160,-0.824,0.519,73.333,599686.000,1.000
-10.703,-8.431,-4.466,-7.085,12.043,-10.259,-3.382,3.147,-0.079,0.995,-0.088,-1.129,-0.854,0.549,73.333,599687.000,1.000
-12.221,-8.797,-5.652,-7.058,11.165,-13.263,-5.970,3.500,-0.078,0.995,-0.088,-1.221,-0.793,0.488,73.333,599688.000,1.000
-12.613,-8.191,-6.689,-6.396,10.436,-14.042,-8.630,2.844,-0.078,0.992,-0.089,-1.282,-0.916,0.580,73.333,599689.000,1.000
-11.997,-6.958,-7.113,-5.467,10.065,-11.895,-9.841,0.737,-0.077,0.991,-0.085,-1.343,-0.946,0.580,73.333,599690.000,1.000
-10.782,-5.519,-6.832,-4.597,10.604,-6.813,-7.727,-1.970,-0.076,0.991,-0.084,-1.404,-0.977,0.641,73.333,599691.000,1.000
-9.582,-4.461,-6.360,-4.117,12.135,-0.838,-2.362,-3.905,-0.076,0.991,-0.086,-1.373,-0.977,0.732,73.333,599692.000,1.000
-8.827,-4.142,-6.306,-4.226,14.234,3.462,4.078,-4.417,-0.078,0.990,-0.084,-1.373,-0.977,0.793,73.333,599693.000,1.000
-8.509,-4.404,-6.805,-4.813,16.414,5.099,8.816,-3.950,-0.077,0.989,-0.087,-1.373,-0.946,0.916,73.333,599694.000,1.000
-8.551,-5.134,-7.771,-5.802,17.862,3.893,9.164,-3.955,-0.077,0.989,-0.086,-1.404,-1.007,0.854,73.333,599695.000,1.000
-9.185,-6.736,-9.485,-7.499,17.217,-0.864,3.175,-6.355,-0.076,0.987,-0.087,-1.373,-0.885,0.946,73.333,599696.000,1.000
-10.578,-9.450,-12.101,-9.972,13.830,-8.993,-8.123,-11.631,-0.075,0.987,-0.086,-1.251,-0.916,0.977,73.333,599697.000,1.000
-12.316,-12.607,-14.964,-12.380,8.993,-17.946,-20.121,-17.453,-0.075,0.988,-0.086,-1.282,-0.854,0.977,73.333,599698.000,1.000
-13.642,-15.079,-16.927,-13.526,5.064,-24.249,-27.721,-20.405,-0.074,0.990,-0.088,-1.221,-0.793,1.007,73.333,599699.000,1.000
-13.999,-16.086,-17.127,-12.849,3.653,-25.755,-28.532,-18.922,-0.073,0.990,-0.084,-1.099,-0.763,1.099,73.333,599700.000,1.000
-13.155,-15.380,-15.393,-10.573,4.951,-22.444,-23.318,-13.980,-0.073,0.987,-0.087,-1.068,-0.793,1.068,73.333,599701.000,1.000
-11.189,-13.134,-12.049,-7.284,8.103,-16.019,-14.748,-7.754,-0.074,0.990,-0.086,-1.129,-0.641,1.068,73.333,599702.000,1.000
-8.565,-9.940,-7.817,-3.735,11.783,-9.017,-6.154,-2.373,-0.074,0.991,-0.084,-1.038,-0.641,1.129,73.333,599703.000,1.000
-6.051,-6.694,-3.711,-0.763,14.721,-3.754,-0.300,0.755,-0.073,0.990,-0.082,-1.099,-0.671,1.221,73.333,599704.000,1.000
-4.442,-4.322,-0.737,0.875,16.006,-1.542,1.480,1.076,-0.073,0.988,-0.083,-1.038,-0.549,1.221,73.333,599705.000,1.000
-4.209,-3.460,0.383,0.770,15.265,-2.426,-0.752,-1.236,-0.074,0.988,-0.085,-0.977,-0.549,1.129,73.333,599706.000,1.000
-5.250,-4.167,-0.384,-0.886,12.895,-5.284,-5.587,-5.269,-0.075,0.989,-0.084,-1.038,-0.671,1.068,73.333,599707.000,1.000
-6.950,-5.871,-2.354,-3.353,9.900,-8.272,-10.540,-9.620,-0.077,0.991,-0.083,-0.916,-0.641,1.190,73.333,599708.000,1.000
-8.483,-7.625,-4.482,-5.657,7.216,-9.933,-13.455,-12.856,-0.077,0.991,-0.083,-0.977,-0.641,1.160,73.333,599709.000,1.000
-9.151,-8.581,-5.810,-6.933,5.284,-10.179,-13.911,-13.809,-0.076,0.990,-0.085,-0.977,-0.610,1.160,73.333,599710.000,1.000
-8.678,-8.394,-5.939,-6.728,4.204,-9.750,-12.768,-11.920,-0.076,0.990,-0.083,-0.946,-0.641,1.129,73.333,599711.000,1.000
-7.347,-7.327,-5.093,-5.250,3.914,-8.831,-10.575,-7.742,-0.076,0.991,-0.085,-0.946,-0.732,1.160,73.333,599712.000,1.000
-5.899,-6.114,-4.017,-3.365,3.959,-6.972,-7.278,-3.039,-0.075,0.989,-0.086,-0.854,-0.702,1.129,73.333,599713.000,1.000
-5.092,-5.551,-3.535,-2.071,3.457,-4.246,-3.081,0.317,-0.077,0.990,-0.085,-0.885,-0.671,1.160,73.333,599714.000,1.000
-5.125,-5.901,-3.797,-1.738,1.734,-1.674,1.180,1.821,-0.076,0.993,-0.084,-0.977,-0.732,1.190,73.333,599715.000,1.000
-5.521,-6.713,-4.238,-1.953,-1.146,-0.506,4.258,2.378,-0.077,0.992,-0.083,-0.946,-0.946,1.190,73.333,599716.000,1.000
-5.602,-7.300,-4.234,-2.123,-4.586,-1.279,4.981,2.984,-0.078,0.991,-0.085,-0.977,-0.946,1.160,73.333,599717.000,1.000
-4.996,-7.264,-3.814,-2.071,-7.930,-3.278,3.196,3.746,-0.077,0.989,-0.085,-0.977,-0.977,1.129,73.333,599718.000,1.000
-3.791,-6.576,-3.603,-2.038,-10.643,-4.922,0.513,4.156,-0.076,0.988,-0.085,-0.946,-1.038,1.160,73.333,599719.000,1.000
-2.413,-5.503,-4.174,-2.356,-12.517,-5.151,-0.751,3.758,-0.075,0.990,-0.086,-1.007,-1.038,1.099,73.333,599720.000,1.000
-1.459,-4.634,-5.759,-3.308,-14.029,-4.565,-0.178,2.153,-0.075,0.990,-0.085,-0.916,-1.068,1.129,73.333,599721.000,1.000
-1.397,-4.688,-8.130,-5.039,-16.087,-4.827,0.028,-0.994,-0.076,0.989,-0.085,-0.885,-1.099,1.099,73.333,599722.000,1.000
-2.216,-5.987,-10.640,-7.257,-18.941,-6.936,-2.626,-5.243,-0.076,0.989,-0.082,-0.916,-1.160,1.160,73.333,599723.000,1.000
-3.450,-8.116,-12.435,-9.152,-21.551,-10.572,-8.559,-9.044,-0.073,0.990,-0.084,-0.977,-1.160,1.038,73.333,599724.000,1.000
-4.599,-10.200,-12.868,-9.890,-22.378,-14.873,-15.937,-10.720,-0.072,0.991,-0.083,-0.977,-1.190,1.129,73.333,599725.000,1.000
-5.475,-11.414,-11.898,-9.269,-20.608,-18.751,-21.786,-9.805,-0.069,0.992,-0.085,-1.068,-1.282,1.068,73.333,599726.000,1.000
-6.126,-11.226,-9.916,-7.762,-16.649,-20.596,-23.412,-7.376,-0.069,0.991,-0.085,-1.129,-1.251,1.038,73.333,599727.000,1.000
-6.520,-9.434,-7.457,-6.008,-11.802,-18.992,-19.961,-5.211,-0.068,0.991,-0.084,-1.129,-1.282,0.977,73.333,599728.000,1.000
-6.364,-6.177,-4.960,-4.248,-7.472,-13.906,-12.934,-4.410,-0.069,0.992,-0.084,-1.221,-1.160,0.916,73.333,599729.000,1.000
-5.379,-1.987,-2.698,-2.349,-4.528,-6.888,-5.246,-4.781,-0.068,0.992,-0.084,-1.099,-1.129,0.946,73.333,599730.000,1.000
-3.702,2.243,-0.989,-0.224,-3.084,-0.122,0.552,-5.353,-0.069,0.992,-0.085,-1.160,-0.946,0.916,73.333,599731.000,1.000
-1.825,5.708,0.031,2.058,-2.549,4.841,3.960,-4.903,-0.067,0.994,-0.085,-1.282,-0.885,0.854,73.333,599732.000,1.000
-0.325,7.990,0.516,4.296,-2.382,7.373,5.981,-2.600,-0.066,0.993,-0.084,-1.282,-0.916,0.854,73.333,599733.000,1.000
0.242,8.878,0.565,5.969,-3.164,7.324,7.060,0.990,-0.066,0.992,-0.081,-1.343,-0.763,0.885,73.333,599734.000,1.000
-0.425,8.384,0.184,6.416,-6.306,5.271,6.761,4.061,-0.065,0.990,-0.081,-1.312,-0.763,0.885,73.333,599735.000,1.000
-2.013,7.060,-0.406,5.485,-12.427,2.882,5.061,5.215,-0.066,0.990,-0.082,-1.404,-0.671,0.824,73.333,599736.000,1.000
-3.699,5.824,-0.672,3.785,-20.416,1.936,2.941,4.597,-0.068,0.991,-0.080,-1.434,-0.732,0.732,73.333,599737.000,1.000
-4.787,5.211,-0.456,2.085,-28.212,2.666,1.466,3.318,-0.069,0.992,-0.079,-1.526,-0.610,0.671,73.333,599738.000,1.000
-5.091,5.005,-0.347,0.670,-34.167,3.596,0.721,2.244,-0.070,0.992,-0.082,-1.404,-0.641,0.519,73.333,599739.000,1.000
-4.669,4.842,-0.840,-0.419,-37.424,3.539,0.377,1.700,-0.071,0.991,-0.078,-1.373,-0.671,0.580,73.333,599740.000,1.000
-3.413,4.944,-1.494,-0.762,-37.477,3.225,0.957,2.100,-0.072,0.990,-0.078,-1.373,-0.732,0.519,73.333,599741.000,1.000
-1.176,5.877,-1.232,0.302,-34.352,4.194,3.399,3.881,-0.073,0.991,-0.076,-1.282,-0.763,0.458,73.333,599742.000,1.000
1.803,7.720,0.386,2.764,-29.318,6.748,7.338,6.427,-0.074,0.990,-0.076,-1.434,-0.885,0.397,73.333,599743.000,1.000
4.909,9.905,2.716,5.713,-24.497,9.869,11.132,8.181,-0.073,0.991,-0.077,-1.404,-0.916,0.366,73.333,599744.000,1.000
7.605,11.781,4.845,8.155,-21.476,12.379,13.509,8.358,-0.075,0.993,-0.080,-1.373,-0.946,0.488,73.333,599745.000,1.000
9.661,12.981,6.252,9.712,-20.479,13.594,14.421,7.875,-0.074,0.991,-0.081,-1.404,-1.038,0.458,73.333,599746.000,1.000
11.037,13.453,6.952,10.542,-20.670,13.636,14.809,8.323,-0.073,0.991,-0.081,-1.343,-1.129,0.397,73.333,599747.000,1.000
11.660,13.220,7.127,10.832,-21.187,13.092,15.413,10.171,-0.076,0.990,-0.080,-1.282,-1.190,0.488,73.333,599748.000,1.000
11.244,12.007,6.698,10.435,-22.013,11.879,15.568,12.071,-0.076,0.988,-0.081,-1.312,-1.251,0.397,73.333,599749.000,1.000
9.434,9.339,5.372,9.003,-23.781,9.050,13.687,11.962,-0.075,0.988,-0.081,-1.282,-1.404,0.397,73.333,599750.000,1.000
6.316,5.252,3.087,6.534,-26.872,4.101,8.900,8.872,-0.078,0.986,-0.079,-1.312,-1.556,0.458,73.333,599751.000,1.000
2.638,0.640,0.418,3.680,-30.901,-2.131,1.983,3.772,-0.080,0.986,-0.080,-1.312,-1.648,0.366,73.333,599752.000,1.000
-0.573,-3.203,-1.737,1.351,-34.821,-7.848,-5.049,-1.260,-0.079,0.984,-0.081,-1.312,-1.709,0.305,73.333,599753.000,1.000
-2.410,-5.076,-2.573,0.225,-37.062,-10.793,-9.515,-4.328,-0.078,0.982,-0.084,-1.343,-1.740,0.275,73.333,599754.000,1.000
-2.383,-4.361,-1.629,0.488,-36.176,-9.306,-9.119,-4.563,-0.079,0.983,-0.082,-1.282,-1.953,0.244,73.333,599755.000,1.000
-0.756,-1.675,0.667,1.578,-32.226,-4.362,-4.247,-2.798,-0.079,0.985,-0.080,-1.282,-1.831,0.214,73.333,599756.000,1.000
1.521,1.257,3.083,2.422,-27.200,0.218,1.383,-1.081,-0.080,0.985,-0.080,-1.190,-2.075,0.183,73.333,599757.000,1.000
3.473,2.755,4.442,2.303,-23.609,0.690,3.518,-0.830,-0.082,0.988,-0.081,-1.068,-2.136,0.244,73.333,599758.000,1.000
4.695,2.321,4.456,1.474,-22.704,-3.449,0.992,-1.553,-0.080,0.987,-0.083,-1.129,-2.228,0.214,73.333,599759.000,1.000
5.363,0.793,3.760,0.796,-23.964,-9.113,-3.503,-1.685,-0.081,0.987,-0.084,-1.129,-2.319,0.122,73.333,599760.000,1.000
5.759,-0.626,2.967,0.696,-26.213,-12.365,-6.395,-0.772,-0.082,0.990,-0.082,-1.068,-2.502,0.122,73.333,599761.000,1.000
5.925,-1.384,2.084,0.717,-28.785,-11.320,-6.250,-0.241,-0.083,0.991,-0.082,-1.007,-2.686,0.031,73.333,599762.000,1.000
5.880,-1.520,0.938,0.266,-31.204,-6.481,-3.549,-1.471,-0.082,0.993,-0.081,-0.916,-2.747,-0.122,73.333,599763.000,1.000
5.890,-1.207,-0.256,-0.609,-32.623,0.240,0.671,-3.910,-0.082,0.991,-0.079,-0.977,-2.930,-0.214,73.333,599764.000,1.000
6.128,-0.892,-1.260,-1.544,-32.591,5.871,4.670,-5.898,-0.081,0.991,-0.081,-1.160,-2.991,-0.244,73.333,599765.000,1.000
6.263,-1.284,-2.467,-2.524,-31.844,7.443,6.050,-6.640,-0.078,0.992,-0.081,-1.221,-3.082,-0.214,73.333,599766.000,1.000
5.716,-2.644,-4.417,-3.792,-31.685,4.299,3.626,-6.655,-0.075,0.991,-0.081,-1.343,-3.021,-0.122,73.333,599767.000,1.000
4.258,-4.382,-7.014,-5.366,-32.802,-1.247,-1.217,-6.786,-0.072,0.988,-0.083,-1.221,-3.021,-0.153,73.333,599768.000,1.000
2.276,-5.521,-9.399,-6.821,-34.766,-6.014,-5.526,-7.202,-0.071,0.987,-0.086,-1.160,-2.991,-0.153,73.333,599769.000,1.000
0.556,-5.365,-10.437,-7.456,-36.312,-7.998,-6.762,-7.210,-0.071,0.989,-0.086,-1.068,-2.808,-0.092,73.333,599770.000,1.000
-0.269,-3.884,-9.603,-6.817,-36.146,-6.595,-4.062,-6.043,-0.071,0.990,-0.083,-1.099,-2.625,-0.061,73.333,599771.000,1.000
-0.205,-1.784,-7.437,-5.217,-33.911,-2.549,1.443,-3.952,-0.070,0.992,-0.081,-0.916,-2.502,0.031,73.333,599772.000,1.000
0.123,-0.171,-5.224,-3.655,-30.549,1.919,6.960,-2.262,-0.071,0.992,-0.082,-1.007,-2.350,0.061,73.333,599773.000,1.000
0.012,0.120,-4.012,-3.038,-27.617,4.173,9.173,-2.187,-0.071,0.992,-0.082,-1.099,-2.075,0.122,73.333,599774.000,1.000
-0.764,-0.961,-3.929,-3.515,-26.114,3.046,6.267,-3.775,-0.070,0.990,-0.081,-1.129,-1.923,0.122,73.333,599775.000,1.000
-1.852,-2.714,-4.432,-4.493,-25.742,-0.346,-0.284,-5.824,-0.070,0.991,-0.084,-1.099,-1.740,0.214,73.333,599776.000,1.000
-2.622,-4.119,-4.749,-5.143,-25.123,-3.431,-6.382,-6.704,-0.070,0.990,-0.083,-1.190,-1.709,0.183,73.333,599777.000,1.000
-2.631,-4.412,-4.339,-4.986,-22.908,-3.909,-8.608,-5.766,-0.071,0.989,-0.083,-1.129,-1.587,0.275,73.333,599778.000,1.000
-1.978,-3.563,-3.240,-4.223,-18.888,-1.323,-6.767,-4.084,-0.070,0.990,-0.087,-1.099,-1.495,0.275,73.333,599779.000,1.000
-1.282,-2.336,-2.063,-3.575,-14.165,2.622,-3.415,-3.549,-0.071,0.990,-0.085,-1.007,-1.251,0.397,73.333,599780.000,1.000
-1.193,-1.756,-1.647,-3.691,-10.153,5.451,-1.516,-5.064,-0.072,0.992,-0.087,-0.854,-1.038,0.488,73.333,599781.000,1.000
-1.845,-2.328,-2.260,-4.499,-7.297,5.648,-2.305,-7.418,-0.071,0.991,-0.085,-0.854,-0.793,0.336,73.333,599782.000,1.000
-2.763,-3.684,-3.310,-5.150,-4.757,3.390,-4.847,-7.993,-0.072,0.993,-0.083,-0.854,-0.702,0.427,73.333,599783.000,1.000
-3.263,-4.904,-3.888,-4.748,-1.346,0.326,-7.126,-5.039,-0.073,0.994,-0.084,-0.885,-0.671,0.366,73.333,599784.000,1.000
-2.928,-5.146,-3.485,-3.188,3.286,-1.344,-7.576,0.343,-0.077,0.994,-0.081,-0.946,-0.366,0.366,73.333,599785.000,1.000
-1.773,-4.102,-2.334,-1.193,8.379,-0.290,-6.083,4.825,-0.077,0.993,-0.083,-0.946,-0.275,0.397,73.333,599786.000,1.000
-0.147,-2.126,-1.040,0.428,12.838,2.940,-3.764,5.894,-0.080,0.994,-0.083,-0.977,-0.305,0.305,73.333,599787.000,1.000
1.436,-0.052,-0.127,1.385,16.080,6.274,-1.827,3.865,-0.080,0.997,-0.082,-1.068,-0.244,0.275,73.333,599788.000,1.000
2.487,1.261,0.149,1.838,18.201,7.622,-0.656,0.899,-0.079,0.994,-0.082,-1.129,-0.244,0.336,73.333,599789.000,1.000
2.692,1.408,-0.222,1.951,19.574,6.240,0.134,-1.151,-0.081,0.995,-0.083,-1.099,-0.305,0.275,73.333,599790.000,1.000
2.025,0.591,-1.165,1.703,20.576,3.063,1.190,-1.650,-0.081,0.996,-0.083,-1.099,-0.305,0.275,73.333,599791.000,1.000
0.814,-0.545,-2.341,1.156,21.698,0.203,3.224,-0.628,-0.079,0.995,-0.082,-1.312,-0.336,0.244,73.333,599792.000,1.000
-0.392,-1.291,-3.219,0.597,23.457,-0.190,6.569,1.574,-0.078,0.995,-0.080,-1.282,-0.488,0.275,73.333,599793.000,1.000
-1.262,-1.328,-3.559,0.214,25.801,2.621,10.481,3.961,-0.077,0.997,-0.081,-1.343,-0.336,0.275,73.333,599794.000,1.000
-1.912,-0.849,-3.582,-0.126,27.880,7.711,13.647,5.148,-0.074,0.996,-0.081,-1.404,-0.427,0.244,73.333,599795.000,1.000
-2.632,-0.216,-3.624,-0.620,28.710,13.467,15.473,4.500,-0.074,0.997,-0.081,-1.495,-0.458,0.336,73.333,599796.000,1.000
-3.563,0.243,-3.722,-1.268,27.707,17.600,15.723,2.719,-0.073,0.993,-0.083,-1.465,-0.397,0.397,73.333,599797.000,1.000
-4.689,0.165,-3.799,-1.970,24.667,17.116,13.411,1.086,-0.071,0.993,-0.083,-1.495,-0.305,0.427,73.333,599798.000,1.000
-5.875,-0.654,-3.858,-2.607,19.975,10.677,7.910,0.448,-0.075,0.991,-0.082,-1.495,-0.122,0.458,73.333,599799.000,1.000
-6.808,-1.885,-3.716,-2.925,14.920,0.912,0.789,0.877,-0.075,0.990,-0.084,-1.434,-0.061,0.610,73.333,599800.000,1.000
-7.010,-2.640,-2.905,-2.467,11.296,-6.752,-4.415,2.177,-0.075,0.987,-0.082,-1.282,-0.153,0.580,73.333,599801.000,1.000
-6.063,-2.006,-0.951,-0.807,10.355,-7.906,-4.486,4.440,-0.073,0.986,-0.082,-1.251,-0.153,0.671,73.333,599802.000,1.000
-4.030,0.026,1.833,1.836,11.741,-2.551,0.502,7.364,-0.076,0.984,-0.083,-1.160,-0.092,0.702,73.333,599803.000,1.000
-1.652,2.285,4.176,4.337,13.629,5.112,6.981,9.538,-0.079,0.985,-0.079,-0.977,0.000,0.671,73.333,599804.000,1.000
0.056,3.307,4.850,5.414,14.227,10.364,11.024,9.562,-0.080,0.985,-0.081,-0.946,-0.031,0.641,73.333,599805.000,1.000
0.422,2.357,3.578,4.601,12.930,11.051,10.804,7.501,-0.081,0.986,-0.080,-0.854,-0.092,0.732,73.333,599806.000,1.000
-0.531,-0.177,1.135,2.477,10.206,8.012,6.978,4.628,-0.081,0.986,-0.083,-0.824,-0.153,0.671,73.333,599807.000,1.000
-2.171,-3.067,-1.367,0.112,6.901,4.036,1.996,2.148,-0.080,0.988,-0.083,-0.793,-0.275,0.671,73.333,599808.000,1.000
-3.586,-4.962,-3.163,-1.545,3.757,1.938,-1.340,0.756,-0.083,0.985,-0.084,-0.763,-0.244,0.671,73.333,599809.000,1.000
-3.976,-5.047,-3.928,-1.951,1.312,2.646,-1.479,0.919,-0.081,0.986,-0.082,-0.763,-0.458,0.641,73.333,599810.000,1.000
-3.099,-3.397,-3.765,-1.226,-0.279,4.742,0.658,2.355,-0.082,0.984,-0.081,-0.885,-0.458,0.641,73.333,599811.000,1.000
-1.527,-0.937,-3.135,-0.262,-1.599,5.698,2.118,3.387,-0.083,0.986,-0.079,-0.824,-0.580,0.641,73.333,599812.000,1.000
-0.242,1.151,-2.630,-0.098,-3.576,4.219,0.792,2.137,-0.081,0.986,-0.083,-0.702,-0.671,0.641,73.333,599813.000,1.000
0.182,2.314,-2.467,-0.947,-6.301,2.049,-1.925,-1.374,-0.083,0.986,-0.081,-0.671,-0.824,0.641,73.333,599814.000,1.000
-0.130,2.776,-2.401,-2.089,-8.726,2.403,-2.523,-4.969,-0.083,0.987,-0.081,-0.671,-0.885,0.732,73.333,599815.000,1.000
-0.828,2.811,-2.332,-2.762,-9.774,6.053,0.639,-6.269,-0.080,0.988,-0.080,-0.671,-0.977,0.702,73.333,599816.000,1.000
-1.690,2.403,-2.423,-2.813,-9.231,10.311,5.990,-4.576,-0.079,0.990,-0.082,-0.641,-1.038,0.702,73.333,599817.000,1.000
-2.569,1.516,-2.805,-2.585,-7.524,11.778,10.558,-1.007,-0.081,0.988,-0.080,-0.641,-1.160,0.732,73.333,599818.000,1.000
-3.359,0.195,-3.474,-2.506,-5.165,8.714,11.867,2.715,-0.081,0.987,-0.084,-0.671,-1.221,0.793,73.333,599819.000,1.000
-3.955,-1.381,-4.228,-2.735,-2.329,1.879,9.323,5.414,-0.080,0.986,-0.084,-0.793,-1.312,0.793,73.333,599820.000,1.000
-4.091,-2.668,-4.629,-3.025,1.247,-5.502,4.828,6.705,-0.079,0.987,-0.083,-0.854,-1.312,0.763,73.333,599821.000,1.000
-3.434,-2.946,-4.183,-2.969,5.599,-9.463,1.339,6.577,-0.079,0.987,-0.081,-0.946,-1.495,0.824,73.333,599822.000,1.000
-1.979,-2.029,-2.951,-2.475,9.722,-8.167,0.301,5.083,-0.079,0.988,-0.082,-0.885,-1.495,0.854,73.333,599823.000,1.000
-0.242,-0.630,-1.778,-1.877,11.786,-3.418,0.546,2.626,-0.078,0.989,-0.081,-0.977,-1.495,0.916,73.333,599824.000,1.000
0.941,0.032,-1.756,-1.723,10.219,0.552,-0.695,-0.170,-0.080,0.989,-0.080,-0.977,-1.526,0.916,73.333,599825.000,1.000
0.843,-1.019,-3.590,-2.488,4.749,0.199,-5.518,-3.178,-0.080,0.990,-0.080,-1.038,-1.556,0.824,73.333,599826.000,1.000
-0.629,-3.757,-6.944,-4.124,-2.912,-4.586,-12.988,-6.409,-0.080,0.991,-0.080,-1.038,-1.587,0.763,73.333,599827.000,1.000
-2.726,-6.950,-10.422,-5.854,-9.478,-10.488,-19.298,-9.065,-0.080,0.992,-0.082,-1.068,-1.678,0.793,73.333,599828.000,1.000
-4.278,-8.959,-12.369,-6.710,-12.083,-13.755,-21.081,-9.969,-0.080,0.990,-0.083,-1.160,-1.801,0.793,73.333,599829.000,1.000
-4.355,-8.805,-11.765,-6.195,-10.137,-12.948,-17.911,-8.611,-0.078,0.991,-0.085,-1.190,-1.801,0.702,73.333,599830.000,1.000
-2.654,-6.509,-8.689,-4.366,-5.055,-8.858,-11.584,-5.238,-0.078,0.992,-0.080,-1.160,-1.831,0.732,73.333,599831.000,1.000
0.405,-2.851,-4.142,-1.735,1.139,-3.290,-4.636,-0.681,-0.077,0.994,-0.081,-1.312,-1.709,0.793,73.333,599832.000,1.000
3.742,0.889,0.273,0.691,6.631,1.356,0.196,3.345,-0.076,0.995,-0.083,-1.343,-1.740,0.763,73.333,599833.000,1.000
6.045,3.443,3.028,1.798,10.288,2.925,1.228,4.872,-0.077,0.994,-0.084,-1.404,-1.831,0.610,73.333,599834.000,1.000
6.510,4.298,3.570,1.187,12.258,1.205,-0.616,3.432,-0.077,0.994,-0.083,-1.495,-1.740,0.580,73.333,599835.000,1.000
5.295,3.892,2.415,-0.483,13.781,-1.712,-2.410,0.735,-0.077,0.996,-0.081,-1.495,-1.648,0.549,73.333,599836.000,1.000
3.235,2.979,0.583,-2.106,15.860,-3.396,-1.877,-0.904,-0.078,0.997,-0.081,-1.495,-1.617,0.458,73.333,599837.000,1.000
1.226,2.005,-1.051,-3.021,18.108,-3.285,0.486,-0.740,-0.079,0.998,-0.077,-1.648,-1.709,0.488,73.333,599838.000,1.000
-0.095,1.170,-1.885,-3.219,19.145,-2.943,2.028,0.155,-0.077,0.997,-0.075,-1.831,-1.709,0.519,73.333,599839.000,1.000
-0.468,0.641,-1.584,-3.028,17.866,-4.542,0.396,0.331,-0.074,0.995,-0.073,-1.892,-1.648,0.488,73.333,599840.000,1.000
-0.108,0.487,-0.394,-2.866,14.253,-8.919,-4.709,-0.908,-0.073,0.990,-0.074,-1.953,-1.648,0.488,73.333,599841.000,1.000
0.556,0.752,1.081,-2.937,9.624,-14.342,-10.911,-3.051,-0.072,0.987,-0.076,-1.831,-1.495,0.519,73.333,599842.000,1.000
1.389,1.706,2.493,-2.915,6.250,-16.919,-13.795,-4.444,-0.070,0.987,-0.078,-1.770,-1.404,0.519,73.333,599843.000,1.000
2.689,3.731,4.072,-2.080,6.028,-13.020,-9.463,-3.285,-0.073,0.987,-0.083,-1.740,-1.312,0.488,73.333,599844.000,1.000
4.792,6.780,6.213,0.076,8.837,-2.755,1.651,0.959,-0.073,0.990,-0.082,-1.617,-1.251,0.519,73.333,599845.000,1.000
7.585,9.976,8.631,3.296,12.224,8.636,13.345,6.883,-0.075,0.990,-0.081,-1.495,-1.160,0.458,73.333,599846.000,1.000
10.453,12.084,10.434,6.653,13.339,14.398,18.178,12.033,-0.074,0.993,-0.081,-1.587,-1.007,0.458,73.333,599847.000,1.000
12.662,12.511,10.981,9.172,11.353,12.031,13.929,14.498,-0.072,0.992,-0.081,-1.556,-0.946,0.671,73.333,599848.000,1.000
13.780,11.668,10.397,10.318,7.783,4.799,4.621,13.753,-0.071,0.989,-0.079,-1.465,-0.793,0.641,73.333,599849.000,1.000
13.851,10.377,9.288,10.101,4.811,-2.011,-3.883,10.572,-0.073,0.989,-0.077,-1.404,-0.763,0.671,73.333,599850.000,1.000
13.313,9.195,8.139,8.924,3.573,-5.237,-8.117,6.489,-0.072,0.987,-0.079,-1.312,-0.549,0.671,73.333,599851.000,1.000
12.693,8.279,7.245,7.368,3.739,-4.829,-7.886,3.011,-0.076,0.987,-0.075,-1.221,-0.458,0.732,73.333,599852.000,1.000
12.288,7.573,6.821,5.940,4.247,-2.283,-4.997,0.885,-0.077,0.986,-0.073,-1.068,-0.427,0.671,73.333,599853.000,1.000
12.032,6.951,6.951,4.908,4.329,0.852,-1.745,0.019,-0.081,0.985,-0.078,-1.007,-0.549,0.671,73.333,599854.000,1.000
11.565,6.208,7.461,4.265,3.943,3.348,0.212,-0.095,-0.082,0.985,-0.077,-0.946,-0.580,0.610,73.333,599855.000,1.000
10.533,5.155,7.888,3.830,3.596,4.616,0.496,0.057,-0.086,0.984,-0.078,-0.977,-0.671,0.671,73.333,599856.000,1.000
9.028,3.960,7.969,3.580,4.138,5.201,0.061,0.439,-0.084,0.988,-0.074,-0.763,-0.763,0.610,73.333,599857.000,1.000
7.635,3.156,7.886,3.774,6.334,6.099,0.164,1.387,-0.086,0.991,-0.078,-0.702,-0.916,0.488,73.333,599858.000,1.000
6.861,3.101,7.960,4.580,10.187,7.276,1.139,3.006,-0.086,0.991,-0.076,-0.732,-1.099,0.427,73.333,599859.000,1.000
6.748,3.765,8.461,5.781,14.998,7.942,2.690,5.018,-0.085,0.994,-0.078,-0.671,-1.221,0.427,73.333,599860.000,1.000
7.112,5.018,9.566,6.912,19.995,7.798,4.498,6.914,-0.085,0.991,-0.079,-0.610,-1.373,0.488,73.333,599861.000,1.000
7.778,6.506,11.172,7.439,24.281,6.399,5.609,7.933,-0.083,0.992,-0.076,-0.702,-1.587,0.366,73.333,599862.000,1.000
8.532,7.531,12.716,6.968,26.844,2.870,4.590,7.521,-0.082,0.992,-0.081,-0.580,-1.556,0.397,73.333,599863.000,1.000
9.247,7.723,13.648,5.690,27.360,-1.978,1.507,5.971,-0.081,0.990,-0.082,-0.610,-1.648,0.427,73.333,599864.000,1.000
9.980,7.516,13.999,4.406,26.575,-4.984,-1.235,4.076,-0.081,0.989,-0.080,-0.549,-1.831,0.488,73.333,599865.000,1.000
10.677,7.524,14.065,3.848,25.470,-3.472,-1.163,2.339,-0.079,0.990,-0.080,-0.458,-1.892,0.519,73.333,599866.000,1.000
10.941,7.716,13.961,4.103,24.244,1.805,1.463,0.929,-0.078,0.991,-0.079,-0.366,-2.014,0.641,73.333,599867.000,1.000
10.315,7.460,13.534,4.670,22.332,7.136,3.884,0.035,-0.078,0.993,-0.080,-0.366,-1.984,0.641,73.333,599868.000,1.000
8.749,6.273,12.591,4.933,19.280,8.895,3.547,-0.178,-0.076,0.993,-0.084,-0.275,-1.953,0.671,73.333,599869.000,1.000
6.696,4.292,11.155,4.552,15.256,5.693,-0.320,0.041,-0.076,0.992,-0.083,-0.336,-1.923,0.885,73.333,599870.000,1.000
4.860,2.175,9.512,3.614,11.025,-1.163,-6.474,0.170,-0.076,0.994,-0.080,-0.336,-1.953,0.763,73.333,599871.000,1.000
3.858,0.784,8.262,2.681,7.911,-8.037,-11.517,0.354,-0.075,0.992,-0.079,-0.275,-1.892,0.732,73.333,599872.000,1.000
3.914,0.792,8.040,2.580,7.460,-10.692,-11.313,1.760,-0.077,0.991,-0.078,-0.336,-1.862,0.885,73.333,599873.000,1.000
4.690,2.246,9.026,3.799,10.467,-7.036,-4.046,5.349,-0.076,0.993,-0.083,-0.244,-1.801,0.824,73.333,599874.000,1.000
5.351,4.319,10.618,5.835,15.940,1.340,7.732,10.030,-0.077,0.993,-0.085,-0.336,-1.862,0.824,73.333,599875.000,1.000
4.988,5.682,11.558,7.240,21.273,10.295,18.378,12.529,-0.079,0.993,-0.084,-0.366,-1.740,0.885,73.333,599876.000,1.000
3.157,5.364,10.792,6.679,23.907,15.843,23.014,9.960,-0.077,0.992,-0.083,-0.366,-1.740,0.916,73.333,599877.000,1.000
0.008,3.275,8.126,3.916,22.942,16.144,20.356,2.525,-0.076,0.991,-0.083,-0.397,-1.648,0.824,73.333,599878.000,1.000
-3.867,0.147,4.216,-0.099,19.435,12.051,12.721,-6.446,-0.077,0.989,-0.085,-0.397,-1.465,0.702,73.333,599879.000,1.000
-7.670,-2.951,0.139,-3.925,15.462,6.049,3.962,-12.945,-0.075,0.990,-0.081,-0.366,-1.404,0.702,73.333,599880.000,1.000
-10.820,-5.351,-3.367,-6.588,12.580,0.149,-3.052,-15.122,-0.076,0.988,-0.082,-0.275,-1.343,0.641,73.333,599881.000,1.000
-13.193,-7.025,-6.113,-8.013,10.975,-5.031,-7.495,-14.177,-0.076,0.987,-0.081,-0.275,-1.312,0.641,73.333,599882.000,1.000
-14.871,-8.101,-8.130,-8.640,10.109,-9.326,-9.853,-12.565,-0.075,0.987,-0.081,-0.244,-1.190,0.610,73.333,599883.000,1.000
-15.794,-8.409,-9.307,-8.775,9.848,-12.164,-10.610,-11.577,-0.075,0.987,-0.081,-0.214,-1.068,0.580,73.333,599884.000,1.000
-15.800,-7.676,-9.410,-8.420,10.476,-12.953,-9.832,-10.837,-0.075,0.988,-0.082,-0.214,-0.916,0.641,73.333,599885.000,1.000
-15.047,-6.029,-8.551,-7.647,11.812,-11.698,-7.767,-9.601,-0.076,0.989,-0.081,-0.214,-0.793,0.641,73.333,599886.000,1.000
-14.195,-4.108,-7.327,-6.897,12.924,-8.918,-5.153,-8.048,-0.074,0.991,-0.084,-0.183,-0.793,0.671,73.333,599887.000,1.000
-14.015,-2.668,-6.544,-6.747,12.864,-5.253,-2.722,-7.399,-0.074,0.990,-0.080,-0.214,-0.732,0.610,73.333,599888.000,1.000
-14.790,-2.091,-6.669,-7.345,11.627,-1.230,-0.445,-8.636,-0.076,0.989,-0.078,-0.183,-0.671,0.702,73.333,599889.000,1.000
-16.123,-2.250,-7.428,-8.179,10.380,2.800,2.320,-11.112,-0.080,0.990,-0.079,-0.214,-0.610,0.702,73.333,599890.000,1.000
-17.258,-2.745,-8.086,-8.447,10.700,6.549,5.763,-12.700,-0.081,0.991,-0.082,-0.214,-0.610,0.641,73.333,599891.000,1.000
-17.609,-3.281,-8.094,-7.696,13.291,9.348,8.952,-11.513,-0.082,0.990,-0.083,-0.458,-0.610,0.702,73.333,599892.000,1.000
-17.127,-4.011,-7.712,-6.260,17.046,9.743,9.794,-7.812,-0.082,0.990,-0.083,-0.458,-0.641,0.641,73.333,599893.000,1.000
-16.229,-5.415,-7.809,-4.994,19.533,6.125,5.952,-4.026,-0.084,0.990,-0.083,-0.549,-0.671,0.641,73.333,599894.000,1.000
-15.333,-7.609,-8.813,-4.410,18.876,-1.447,-2.821,-2.406,-0.082,0.989,-0.082,-0.580,-0.732,0.732,73.333,599895.000,1.000
-14.488,-9.869,-10.116,-4.127,15.354,-10.101,-12.985,-2.820,-0.083,0.988,-0.081,-0.519,-0.793,0.854,73.333,599896.000,1.000
-13.457,-11.014,-10.476,-3.251,11.142,-15.587,-18.808,-3.014,-0.083,0.989,-0.082,-0.488,-0.916,0.854,73.333,599897.000,1.000
-12.041,-10.197,-9.023,-1.163,8.700,-14.968,-16.172,-0.572,-0.083,0.990,-0.083,-0.580,-1.099,0.977,73.333,599898.000,1.000
-10.285,-7.393,-5.847,1.972,9.143,-8.173,-5.345,5.152,-0.081,0.991,-0.082,-0.458,-1.129,0.916,73.333,599899.000,1.000
-8.639,-3.725,-2.068,4.964,11.079,1.298,8.242,11.685,-0.081,0.991,-0.081,-0.488,-1.190,0.946,73.333,599900.000,1.000
-7.869,-1.206,0.519,6.005,11.165,7.515,16.537,14.450,-0.082,0.991,-0.083,-0.641,-1.251,0.946,73.333,599901.000,1.000
-8.350,-1.263,0.817,4.181,6.938,6.587,15.030,10.764,-0.080,0.990,-0.083,-0.702,-1.282,1.068,73.333,599902.000,1.000
-9.539,-3.576,-0.735,0.404,-1.338,-0.164,5.948,2.281,-0.081,0.990,-0.080,-0.763,-1.312,1.038,73.333,599903.000,1.000
-10.434,-6.624,-2.868,-3.429,-11.816,-8.194,-5.152,-6.747,-0.080,0.990,-0.080,-0.793,-1.465,1.007,73.333,599904.000,1.000
-10.285,-8.772,-4.369,-5.639,-22.540,-13.174,-13.253,-12.121,-0.079,0.989,-0.081,-0.763,-1.373,1.038,73.333,599905.000,1.000
-8.850,-8.904,-4.447,-5.369,-31.929,-12.816,-15.194,-11.427,-0.078,0.988,-0.080,-0.793,-1.373,1.068,73.333,599906.000,1.000
-6.439,-6.958,-2.964,-3.023,-39.494,-8.035,-11.368,-5.656,-0.078,0.989,-0.081,-0.824,-1.404,1.099,73.333,599907.000,1.000
-3.806,-4.034,-0.657,-0.148,-46.015,-2.465,-6.058,1.009,-0.076,0.989,-0.081,-0.854,-1.373,1.068,73.333,599908.000,1.000
-1.745,-1.599,1.300,1.630,-52.274,0.519,-3.697,4.265,-0.077,0.990,-0.081,-0.885,-1.251,1.007,73.333,599909.000,1.000
-0.744,-0.565,2.090,1.604,-58.056,0.153,-5.390,2.489,-0.078,0.989,-0.079,-0.885,-1.312,1.007,73.333,599910.000,1.000
-0.814,-0.887,1.679,0.259,-62.225,-1.804,-8.974,-2.613,-0.076,0.990,-0.081,-0.885,-1.190,0.885,73.333,599911.000,1.000
-1.475,-1.702,0.903,-1.049,-63.201,-2.610,-10.921,-7.035,-0.074,0.993,-0.081,-0.854,-1.129,0.793,73.333,599912.000,1.000
-2.117,-2.085,0.709,-1.135,-60.135,-0.919,-9.243,-7.337,-0.076,0.993,-0.082,-0.977,-1.068,0.763,73.333,599913.000,1.000
-2.490,-1.885,1.195,-0.031,-53.996,1.864,-5.320,-3.321,-0.075,0.993,-0.082,-0.977,-1.099,0.793,73.333,599914.000,1.000
-2.719,-1.628,1.707,1.233,-46.917,3.288,-2.020,2.457,-0.075,0.994,-0.079,-1.007,-0.946,0.854,73.333,599915.000,1.000
-2.906,-1.688,1.679,1.777,-40.506,2.615,-0.755,7.208,-0.075,0.994,-0.077,-1.038,-0.824,0.885,73.333,599916.000,1.000
-2.859,-1.813,1.267,1.563,-35.082,1.262,-0.891,9.443,-0.074,0.994,-0.077,-0.946,-0.763,0.885,73.333,599917.000,1.000
-2.313,-1.551,0.967,1.059,-30.194,0.812,-1.239,8.962,-0.075,0.994,-0.076,-1.099,-0.671,0.946,73.333,599918.000,1.000
-1.345,-0.831,0.981,0.648,-25.372,1.234,-1.322,6.616,-0.075,0.994,-0.076,-1.099,-0.671,1.007,73.333,599919.000,1.000
-0.405,0.048,1.228,0.492,-20.322,1.368,-1.184,4.031,-0.077,0.991,-0.080,-1.129,-0.732,0.977,73.333,599920.000,1.000
0.084,0.828,1.623,0.713,-14.770,0.976,-0.486,2.755,-0.077,0.992,-0.081,-1.099,-0.641,1.007,73.333,599921.000,1.000
0.156,1.508,2.266,1.448,-8.512,1.624,1.837,3.444,-0.076,0.991,-0.079,-1.038,-0.763,1.099,73.333,599922.000,1.000
0.233,2.135,3.157,2.575,-1.872,4.808,6.410,5.610,-0.078,0.992,-0.079,-1.038,-0.671,1.190,73.333,599923.000,1.000
0.696,2.516,3.885,3.540,4.095,9.549,12.132,8.014,-0.076,0.992,-0.079,-1.038,-0.702,1.251,73.333,599924.000,1.000
1.633,2.407,3.968,3.750,8.336,12.960,16.896,9.604,-0.076,0.992,-0.078,-1.007,-0.702,1.221,73.333,599925.000,1.000
2.851,1.929,3.259,3.054,10.653,13.049,19.090,10.112,-0.077,0.994,-0.080,-1.038,-0.824,1.251,73.333,599926.000,1.000
3.984,1.560,2.055,1.815,11.678,10.258,18.214,9.839,-0.078,0.990,-0.081,-0.946,-0.763,1.343,73.333,599927.000,1.000
4.646,1.701,0.785,0.643,12.236,6.648,14.831,9.167,-0.080,0.988,-0.081,-0.946,-0.702,1.282,73.333,599928.000,1.000
4.654,2.397,-0.200,0.080,12.894,4.169,10.441,8.436,-0.078,0.986,-0.080,-0.885,-0.732,1.434,73.333,599929.000,1.000
4.197,3.433,-0.556,0.407,13.920,3.520,7.117,8.127,-0.077,0.988,-0.080,-0.702,-0.763,1.434,73.333,599930.000,1.000
3.657,4.457,-0.117,1.472,15.198,4.101,6.347,8.559,-0.078,0.989,-0.077,-0.641,-0.763,1.434,73.333,599931.000,1.000
3.247,5.092,0.945,2.645,16.076,4.807,7.957,9.204,-0.075,0.989,-0.079,-0.641,-0.793,1.526,73.333,599932.000,1.000
3.000,5.176,2.227,3.256,15.657,4.908,10.289,8.944,-0.076,0.990,-0.077,-0.610,-0.824,1.465,73.333,599933.000,1.000
3.060,4.908,3.448,3.226,13.450,4.235,11.392,7.257,-0.075,0.989,-0.076,-0.488,-0.824,1.465,73.333,599934.000,1.000
3.709,4.706,4.641,3.096,9.724,2.913,10.258,4.738,-0.075,0.988,-0.075,-0.458,-0.763,1.434,73.333,599935.000,1.000
5.077,4.971,5.892,3.451,5.477,1.371,7.589,2.492,-0.076,0.989,-0.077,-0.397,-0.793,1.434,73.333,599936.000,1.000
6.977,5.881,7.168,4.485,2.075,0.420,5.467,1.324,-0.075,0.990,-0.077,-0.366,-0.793,1.404,73.333,599937.000,1.000
8.992,7.242,8.289,5.959,0.526,0.775,5.555,1.270,-0.075,0.990,-0.079,-0.336,-0.763,1.465,73.333,599938.000,1.000
10.673,8.626,9.097,7.444,0.962,2.545,7.882,1.823,-0.074,0.988,-0.079,-0.427,-0.732,1.465,73.333,599939.000,1.000
11.757,9.711,9.678,8.631,2.806,5.238,11.507,2.650,-0.073,0.989,-0.083,-0.305,-0.702,1.373,73.333,599940.000,1.000
12.241,10.382,10.142,9.400,5.159,7.949,15.155,3.644,-0.075,0.988,-0.080,-0.214,-0.824,1.404,73.333,599941.000,1.000
12.270,10.550,10.428,9.734,6.969,9.307,17.109,4.466,-0.076,0.990,-0.080,-0.305,-0.824,1.312,73.333,599942.000,1.000
11.907,9.980,10.251,9.595,7.275,7.819,15.624,4.578,-0.074,0.990,-0.079,-0.214,-0.763,1.343,73.333,599943.000,1.000
11.117,8.509,9.354,8.943,5.805,3.362,10.506,3.702,-0.074,0.990,-0.079,-0.092,-0.824,1.312,73.333,599944.000,1.000
10.048,6.431,7.912,7.894,3.315,-1.962,3.914,1.971,-0.073,0.991,-0.080,-0.092,-0.732,1.221,73.333,599945.000,1.000
9.090,4.438,6.469,6.750,1.035,-5.489,-1.101,-0.098,-0.072,0.992,-0.079,-0.153,-0.702,1.160,73.333,599946.000,1.000
8.597,3.272,5.691,5.939,-0.023,-5.929,-2.274,-1.460,-0.072,0.990,-0.080,-0.061,-0.793,1.129,73.333,599947.000,1.000
8.553,3.379,5.953,5.761,0.534,-3.548,1.044,-0.997,-0.075,0.992,-0.082,-0.122,-0.763,1.099,73.333,599948.000,1.000
8.450,4.500,6.943,5.933,2.041,0.084,7.062,1.209,-0.074,0.991,-0.080,-0.122,-0.763,0.977,73.333,599949.000,1.000
7.617,5.654,7.788,5.609,2.985,2.539,11.967,3.544,-0.074,0.992,-0.076,-0.153,-0.793,0.946,73.333,599950.000,1.000
5.928,5.864,7.754,4.201,2.315,1.962,12.706,4.423,-0.073,0.991,-0.079,-0.122,-0.763,0.824,73.333,599951.000,1.000
4.147,5.017,6.993,2.165,0.537,-1.553,9.690,4.007,-0.073,0.992,-0.081,-0.092,-0.763,0.702,73.333,599952.000,1.000
3.440,3.964,6.384,0.772,-0.684,-5.901,6.382,3.924,-0.070,0.993,-0.081,-0.153,-0.641,0.793,73.333,599953.000,1.000
4.490,3.693,6.740,1.059,-0.018,-8.584,6.140,5.446,-0.073,0.994,-0.083,-0.336,-0.519,0.732,73.333,599954.000,1.000
6.963,4.352,8.148,2.973,2.235,-8.895,9.357,8.138,-0.072,0.993,-0.083,-0.275,-0.580,0.763,73.333,599955.000,1.000
9.756,5.182,9.881,5.429,4.315,-8.162,13.554,10.318,-0.074,0.992,-0.082,-0.244,-0.458,0.732,73.333,599956.000,1.000
11.802,5.391,11.101,7.192,4.577,-7.881,15.956,10.862,-0.073,0.994,-0.081,-0.366,-0.549,0.763,73.333,599957.000,1.000
12.672,4.853,11.442,7.646,2.785,-8.320,15.497,10.085,-0.071,0.992,-0.082,-0.458,-0.519,0.793,73.333,599958.000,1.000
12.614,4.032,11.032,6.905,0.005,-8.553,12.859,8.802,-0.071,0.991,-0.082,-0.458,-0.488,0.824,73.333,599959.000,1.000
12.281,3.545,10.301,5.563,-2.313,-7.220,9.572,7.266,-0.073,0.991,-0.082,-0.549,-0.519,0.824,73.333,599960.000,1.000
12.370,3.733,9.668,4.328,-3.300,-3.930,6.753,5.212,-0.076,0.990,-0.085,-0.488,-0.519,0.885,73.333,599961.000,1.000
13.252,4.441,9.390,3.649,-3.148,-0.246,4.201,2.412,-0.076,0.989,-0.081,-0.519,-0.580,0.916,73.333,599962.000,1.000
14.893,5.240,9.560,3.578,-2.690,1.632,1.012,-1.090,-0.076,0.989,-0.082,-0.610,-0.610,0.854,73.333,599963.000,1.000
16.988,5.866,10.212,3.969,-2.383,1.258,-2.806,-4.997,-0.078,0.990,-0.084,-0.641,-0.610,0.732,73.333,599964.000,1.000
19.021,6.314,11.294,4.701,-1.812,0.225,-5.874,-8.640,-0.077,0.990,-0.084,-0.549,-0.610,0.763,73.333,599965.000,1.000
20.329,6.614,12.430,5.701,-0.232,0.190,-6.779,-10.976,-0.076,0.991,-0.082,-0.549,-0.641,0.793,73.333,599966.000,1.000
20.349,6.606,13.067,6.856,2.550,1.099,-5.502,-11.015,-0.077,0.991,-0.082,-0.641,-0.702,0.793,73.333,599967.000,1.000
18.900,6.011,12.811,8.068,5.965,1.579,-3.110,-8.189,-0.078,0.992,-0.082,-0.671,-0.702,0.793,73.333,599968.000,1.000
16.347,4.850,11.717,9.375,9.130,1.016,-0.299,-2.517,-0.077,0.990,-0.082,-0.732,-0.732,0.793,73.333,599969.000,1.000
13.417,3.527,10.156,10.668,10.997,0.420,2.556,4.537,-0.075,0.991,-0.082,-0.732,-0.732,0.854,73.333,599970.000,1.000
10.655,2.293,8.242,11.246,10.378,1.047,4.265,9.643,-0.076,0.990,-0.083,-0.793,-0.793,0.854,73.333,599971.000,1.000
8.104,0.993,5.823,10.193,6.802,3.091,3.679,9.757,-0.078,0.990,-0.080,-0.793,-0.977,0.854,73.333,599972.000,1.000
5.572,-0.545,2.868,7.272,1.268,5.812,1.333,4.818,-0.077,0.990,-0.081,-0.763,-0.916,0.885,73.333,599973.000,1.000
3.072,-2.192,-0.380,3.219,-4.375,8.065,-1.156,-2.420,-0.075,0.990,-0.082,-0.763,-0.916,0.854,73.333,599974.000,1.000
0.917,-3.587,-3.466,-0.711,-8.587,8.648,-2.840,-8.535,-0.076,0.990,-0.081,-0.824,-0.977,0.854,73.333,599975.000,1.000
-0.549,-4.301,-5.871,-3.319,-10.523,7.023,-3.535,-10.867,-0.077,0.989,-0.081,-0.885,-1.099,0.946,73.333,599976.000,1.000
-1.295,-4.046,-7.130,-4.001,-9.975,3.991,-3.093,-8.523,-0.076,0.989,-0.081,-0.854,-1.099,0.916,73.333,599977.000,1.000
-1.727,-3.011,-7.229,-3.220,-7.571,1.211,-1.946,-3.525,-0.076,0.990,-0.084,-0.916,-1.160,0.885,73.333,599978.000,1.000
-2.412,-1.849,-6.755,-2.212,-4.493,0.077,-1.406,0.190,-0.076,0.989,-0.083,-0.824,-1.221,0.793,73.333,599979.000,1.000
-3.608,-1.193,-6.447,-1.941,-1.545,0.997,-2.283,0.061,-0.077,0.990,-0.083,-0.916,-1.068,0.854,73.333,599980.000,1.000
-5.102,-1.336,-6.814,-2.483,1.218,3.126,-4.150,-3.294,-0.076,0.990,-0.083,-0.854,-1.099,0.824,73.333,599981.000,1.000
-6.507,-2.288,-7.968,-3.361,3.911,4.542,-6.502,-7.379,-0.074,0.990,-0.081,-0.854,-1.129,0.732,73.333,599982.000,1.000
-7.641,-3.888,-9.719,-4.165,6.323,3.347,-9.422,-10.060,-0.076,0.988,-0.080,-0.824,-1.160,0.854,73.333,599983.000,1.000
-8.495,-5.675,-11.571,-4.668,8.346,-0.482,-12.277,-10.378,-0.074,0.990,-0.085,-0.854,-1.190,0.824,73.333,599984.000,1.000
-8.968,-6.908,-12.720,-4.633,10.379,-4.575,-13.314,-8.285,-0.075,0.989,-0.085,-0.824,-1.312,0.824,73.333,599985.000,1.000
-8.906,-7.059,-12.617,-3.979,12.581,-6.214,-11.775,-4.694,-0.075,0.989,-0.087,-0.854,-1.282,0.824,73.333,599986.000,1.000
-8.299,-6.181,-11.343,-2.984,14.075,-4.475,-8.907,-1.374,-0.075,0.987,-0.084,-0.885,-1.221,0.885,73.333,599987.000,1.000
-7.314,-4.781,-9.477,-2.132,13.483,-0.448,-6.425,0.058,-0.074,0.989,-0.083,-0.946,-1.251,0.763,73.333,599988.000,1.000
-6.224,-3.542,-7.764,-1.816,10.162,3.707,-5.248,-0.708,-0.074,0.991,-0.082,-0.916,-1.221,0.824,73.333,599989.000,1.000
-5.327,-3.122,-6.869,-2.230,4.752,5.914,-5.758,-2.630,-0.073,0.992,-0.082,-0.854,-1.221,0.824,73.333,599990.000,1.000
-4.861,-3.862,-7.287,-3.395,-1.228,5.165,-7.901,-4.339,-0.072,0.992,-0.082,-0.854,-1.190,0.793,73.333,599991.000,1.000
-4.919,-5.529,-9.063,-5.164,-6.071,2.014,-10.709,-5.182,-0.072,0.992,-0.082,-0.885,-1.221,0.793,73.333,599992.000,1.000
-5.438,-7.424,-11.708,-7.253,-8.577,-1.714,-12.689,-5.461,-0.073,0.992,-0.082,-0.885,-1.251,0.793,73.333,599993.000,1.000
-6.202,-8.750,-14.357,-9.200,-8.493,-3.973,-12.724,-5.707,-0.073,0.991,-0.081,-0.977,-1.221,0.854,73.333,599994.000,1.000
-6.899,-8.947,-16.026,-10.434,-6.504,-3.767,-10.671,-6.039,-0.072,0.991,-0.079,-0.885,-1.068,0.824,73.333,599995.000,1.000
-7.304,-8.015,-16.201,-10.720,-4.103,-2.020,-8.192,-6.754,-0.072,0.988,-0.083,-0.854,-1.038,0.763,73.333,599996.000,1.000
-7.394,-6.623,-15.137,-10.432,-3.110,-1.136,-8.342,-8.826,-0.073,0.991,-0.084,-0.916,-0.946,0.763,73.333,599997.000,1.000
-7.239,-5.633,-13.537,-10.134,-4.528,-2.980,-12.842,-12.851,-0.074,0.991,-0.084,-0.946,-0.977,0.763,73.333,599998.000,1.000
-6.801,-5.319,-11.865,-9.976,-7.683,-6.948,-19.819,-17.838,-0.073,0.990,-0.084,-0.916,-1.007,0.732,73.333,599999.000,1.000
-5.895,-5.196,-10.042,-9.657,-10.741,-10.414,-25.060,-21.654,-0.073,0.990,-0.082,-0.793,-0.977,0.732,73.333,600000.000,1.000
-4.506,-4.727,-7.958,-8.920,-12.209,-11.298,-25.796,-22.632,-0.072,0.990,-0.083,-0.763,-1.007,0.671,73.333,600001.000,1.000
-3.024,-3.897,-5.884,-7.818,-11.790,-9.745,-22.639,-20.488,-0.073,0.990,-0.080,-0.793,-1.038,0.610,73.333,600002.000,1.000
-2.081,-3.045,-4.388,-6.618,-10.100,-7.384,-18.211,-16.259,-0.073,0.989,-0.078,-0.916,-1.038,0.641,73.333,600003.000,1.000
-2.294,-2.532,-4.052,-5.756,-8.230,-5.872,-15.135,-12.026,-0.074,0.990,-0.081,-0.916,-1.068,0.732,73.333,600004.000,1.000
-4.030,-2.537,-5.057,-5.641,-7.228,-5.893,-14.776,-9.880,-0.073,0.990,-0.082,-0.946,-1.038,0.641,73.333,600005.000,1.000
-7.164,-2.950,-6.973,-6.232,-7.366,-6.758,-16.622,-10.337,-0.073,0.991,-0.083,-0.916,-1.007,0.488,73.333,600006.000,1.000
-11.058,-3.524,-8.972,-7.065,-8.076,-7.231,-18.918,-12.143,-0.075,0.989,-0.084,-0.916,-0.946,0.427,73.333,600007.000,1.000
-14.758,-4.103,-10.380,-7.687,-8.557,-6.857,-20.059,-13.514,-0.074,0.989,-0.082,-0.793,-0.946,0.397,73.333,600008.000,1.000
-17.177,-4.565,-10.830,-7.750,-8.196,-6.165,-19.166,-13.045,-0.075,0.991,-0.083,-0.702,-0.977,0.397,73.333,600009.000,1.000
-17.514,-4.786,-10.145,-6.952,-6.650,-5.783,-15.898,-9.930,-0.075,0.991,-0.082,-0.702,-0.916,0.366,73.333,600010.000,1.000
-15.791,-4.794,-8.516,-5.252,-3.911,-5.472,-10.360,-4.285,-0.072,0.993,-0.082,-0.824,-0.916,0.427,73.333,600011.000,1.000
-12.985,-4.881,-6.602,-3.208,-0.640,-4.372,-3.796,2.278,-0.074,0.993,-0.083,-0.763,-0.854,0.397,73.333,600012.000,1.000
-10.591,-5.552,-5.363,-1.936,1.646,-2.473,0.870,6.933,-0.074,0.990,-0.082,-0.885,-0.977,0.519,73.333,600013.000,1.000
-9.847,-7.120,-5.501,-2.339,1.501,-0.904,0.999,7.623,-0.074,0.989,-0.084,-0.854,-0.946,0.488,73.333,600014.000,1.000
-11.055,-9.215,-6.851,-4.317,-1.130,-0.494,-3.016,4.826,-0.073,0.991,-0.085,-0.854,-0.793,0.458,73.333,600015.000,1.000
-13.393,-10.808,-8.484,-6.779,-4.725,-0.675,-7.787,1.052,-0.073,0.991,-0.088,-0.824,-0.793,0.549,73.333,600016.000,1.000
-15.343,-10.784,-9.203,-8.352,-7.240,0.046,-9.485,-1.152,-0.075,0.990,-0.083,-0.763,-0.885,0.488,73.333,600017.000,1.000
-15.592,-8.785,-8.298,-8.236,-7.554,2.238,-7.001,-0.853,-0.076,0.989,-0.080,-0.793,-1.007,0.519,73.333,600018.000,1.000
-13.872,-5.630,-6.027,-6.675,-6.113,4.511,-2.919,0.975,-0.076,0.991,-0.081,-0.763,-0.946,0.488,73.333,600019.000,1.000
-10.995,-2.691,-3.266,-4.627,-4.114,5.236,-0.589,2.661,-0.078,0.990,-0.082,-0.854,-0.977,0.519,73.333,600020.000,1.000
-8.058,-0.822,-0.842,-2.850,-2.222,4.542,-0.584,3.526,-0.076,0.991,-0.082,-0.793,-0.885,0.549,73.333,600021.000,1.000
-5.667,-0.025,0.918,-1.362,-0.234,3.799,-0.663,4.540,-0.079,0.990,-0.080,-0.885,-1.038,0.519,73.333,600022.000,1.000
-3.883,0.099,2.081,0.242,2.331,4.103,1.487,7.232,-0.076,0.992,-0.082,-0.793,-1.129,0.519,73.333,600023.000,1.000
-2.564,-0.072,2.858,2.160,5.548,5.679,6.119,11.880,-0.075,0.993,-0.084,-0.916,-1.038,0.610,73.333,600024.000,1.000
-1.625,-0.345,3.424,4.047,8.617,7.529,11.097,16.572,-0.077,0.993,-0.083,-1.007,-1.129,0.641,73.333,600025.000,1.000
-1.117,-0.784,3.668,5.103,10.021,7.724,13.213,18.087,-0.076,0.991,-0.081,-1.038,-1.129,0.732,73.333,600026.000,1.000
-1.103,-1.485,3.312,4.641,8.755,5.316,10.869,14.376,-0.075,0.992,-0.083,-1.099,-1.160,0.732,73.333,600027.000,1.000
-1.497,-2.301,2.197,2.680,5.468,1.505,5.605,6.583,-0.075,0.988,-0.081,-1.099,-1.190,0.702,73.333,600028.000,1.000
-2.100,-2.952,0.385,-0.077,2.041,-1.822,0.573,-1.550,-0.077,0.990,-0.084,-1.099,-1.129,0.732,73.333,600029.000,1.000
-2.788,-3.340,-1.938,-2.825,0.140,-3.834,-2.191,-6.417,-0.077,0.991,-0.084,-1.099,-1.221,0.793,73.333,600030.000,1.000
-3.559,-3.589,-4.579,-5.153,0.276,-4.634,-2.707,-6.934,-0.079,0.990,-0.080,-0.977,-1.251,0.732,73.333,600031.000,1.000
-4.334,-3.722,-7.072,-6.938,2.077,-4.117,-1.463,-4.487,-0.076,0.991,-0.081,-1.068,-1.160,0.763,73.333,600032.000,1.000
-4.884,-3.575,-8.704,-8.037,4.889,-1.938,1.521,-1.168,-0.077,0.991,-0.081,-1.099,-1.221,0.824,73.333,600033.000,1.000
-5.083,-3.214,-9.099,-8.365,7.761,1.130,5.329,1.471,-0.076,0.990,-0.080,-1.099,-1.221,0.854,73.333,600034.000,1.000
-5.114,-3.093,-8.534,-8.110,9.495,2.980,7.662,2.607,-0.077,0.988,-0.081,-1.099,-1.312,0.824,73.333,600035.000,1.000
-5.282,-3.553,-7.646,-7.611,9.412,2.127,6.865,2.133,-0.075,0.987,-0.077,-1.068,-1.312,0.793,73.333,600036.000,1.000
-5.733,-4.379,-6.858,-7.077,7.932,-0.811,3.468,0.615,-0.074,0.987,-0.083,-1.099,-1.282,0.702,73.333,600037.000,1.000
-6.383,-5.024,-6.236,-6.558,6.130,-3.991,-0.871,-1.134,-0.074,0.988,-0.078,-1.007,-1.251,0.702,73.333,600038.000,1.000
-6.930,-5.027,-5.630,-5.973,5.039,-5.905,-4.741,-2.333,-0.072,0.986,-0.079,-1.038,-1.221,0.732,73.333,600039.000,1.000
-6.878,-4.087,-4.713,-5.070,5.349,-5.795,-6.823,-2.214,-0.072,0.989,-0.083,-0.946,-1.190,0.732,73.333,600040.000,1.000
-5.823,-2.170,-3.264,-3.639,7.076,-3.577,-6.112,-0.496,-0.072,0.989,-0.085,-1.038,-1.038,0.793,73.333,600041.000,1.000
-3.860,0.268,-1.424,-1.894,9.253,-0.064,-3.112,1.972,-0.073,0.991,-0.082,-0.977,-1.038,0.763,73.333,600042.000,1.000
-1.596,2.507,0.362,-0.435,10.520,3.406,0.377,3.677,-0.074,0.990,-0.079,-0.977,-1.068,0.702,73.333,600043.000,1.000
0.240,4.067,1.678,0.241,10.213,5.921,3.151,3.751,-0.074,0.989,-0.082,-0.916,-0.977,0.671,73.333,600044.000,1.000
1.168,4.868,2.369,0.095,8.714,7.410,5.512,2.637,-0.074,0.992,-0.078,-0.977,-1.038,0.671,73.333,600045.000,1.000
1.200,5.099,2.508,-0.408,6.960,8.207,8.202,1.642,-0.074,0.992,-0.081,-0.946,-1.007,0.671,73.333,600046.000,1.000
0.821,4.957,2.321,-0.599,5.577,8.142,10.813,1.880,-0.074,0.992,-0.081,-1.007,-1.068,0.763,73.333,600047.000,1.000
0.628,4.426,1.929,-0.130,4.296,6.422,11.660,3.273,-0.076,0.992,-0.083,-1.007,-1.007,0.671,73.333,600048.000,1.000
0.985,3.467,1.341,0.836,2.313,2.883,9.642,4.722,-0.075,0.990,-0.083,-1.038,-0.946,0.702,73.333,600049.000,1.000
1.941,2.303,0.711,1.890,-0.919,-1.197,5.715,5.272,-0.074,0.991,-0.082,-1.038,-1.099,0.793,73.333,600050.000,1.000
3.241,1.304,0.193,2.653,-5.384,-4.040,2.081,4.853,-0.074,0.990,-0.082,-0.946,-1.068,0.824,73.333,600051.000,1.000
4.393,0.672,-0.257,2.927,-10.669,-4.771,0.692,4.141,-0.074,0.990,-0.081,-1.007,-0.977,0.763,73.333,600052.000,1.000
4.914,0.334,-0.874,2.714,-16.304,-3.670,2.219,3.636,-0.076,0.990,-0.078,-1.007,-1.007,0.732,73.333,600053.000,1.000
4.487,-0.137,-2.067,1.923,-22.382,-2.049,4.755,2.480,-0.077,0.990,-0.079,-1.129,-1.038,0.854,73.333,600054.000,1.000
2.931,-1.523,-4.320,0.179,-29.785,-2.483,3.671,-1.247,-0.076,0.988,-0.079,-1.099,-1.099,0.732,73.333,600055.000,1.000
0.387,-4.268,-7.704,-2.656,-38.810,-7.168,-4.530,-8.216,-0.077,0.989,-0.081,-1.068,-1.129,0.610,73.333,600056.000,1.000
-2.283,-7.464,-11.112,-5.688,-47.342,-14.755,-17.239,-15.960,-0.077,0.989,-0.080,-1.129,-1.129,0.519,73.333,600057.000,1.000
-3.649,-9.009,-12.578,-7.171,-51.466,-20.401,-26.633,-20.004,-0.078,0.990,-0.079,-1.129,-1.129,0.610,73.333,600058.000,1.000
-2.634,-7.158,-10.735,-5.758,-48.460,-19.664,-25.813,-17.172,-0.077,0.990,-0.079,-1.007,-1.221,0.549,73.333,600059.000,1.000
0.683,-1.906,-5.825,-1.481,-38.899,-11.550,-13.298,-7.838,-0.078,0.991,-0.079,-0.885,-1.343,0.519,73.333,600060.000,1.000
5.054,4.861,0.379,4.241,-26.387,1.246,6.396,4.314,-0.077,0.989,-0.081,-0.854,-1.312,0.458,73.333,600061.000,1.000
8.644,10.266,5.475,9.239,-15.837,13.553,24.706,14.173,-0.078,0.989,-0.083,-0.854,-1.343,0.427,73.333,600062.000,1.000
9.876,11.920,7.562,11.562,-11.088,20.178,33.450,17.859,-0.078,0.990,-0.081,-0.885,-1.343,0.458,73.333,600063.000,1.000
8.249,9.206,6.132,10.447,-12.937,18.794,29.672,14.751,-0.079,0.989,-0.078,-0.885,-1.343,0.488,73.333,600064.000,1.000
4.552,3.481,2.163,6.550,-19.165,11.028,16.791,7.233,-0.078,0.988,-0.080,-0.916,-1.526,0.397,73.333,600065.000,1.000
0.293,-2.782,-2.624,1.425,-26.225,1.412,1.861,-1.117,-0.077,0.987,-0.082,-0.824,-1.526,0.336,73.333,600066.000,1.000
-3.122,-7.248,-6.542,-3.248,-31.148,-5.371,-8.674,-7.257,-0.077,0.988,-0.081,-0.763,-1.648,0.336,73.333,600067.000,1.000
-4.831,-8.770,-8.584,-6.262,-32.761,-7.789,-12.441,-9.787,-0.077,0.987,-0.080,-0.610,-1.556,0.458,73.333,600068.000,1.000
-4.534,-7.564,-8.550,-7.046,-31.463,-7.686,-10.962,-8.898,-0.075,0.988,-0.080,-0.610,-1.404,0.397,73.333,600069.000,1.000
-2.499,-4.586,-6.765,-5.659,-28.122,-7.089,-6.719,-5.583,-0.074,0.989,-0.080,-0.702,-1.404,0.397,73.333,600070.000,1.000
0.415,-0.991,-4.028,-2.895,-23.656,-6.289,-1.708,-1.317,-0.073,0.991,-0.079,-0.610,-1.465,0.458,73.333,600071.000,1.000
