EEG 1,EEG 2,EEG 3,EEG 4,EEG 5,EEG 6,EEG 7,EEG 8,Accelerometer X,Accelerometer Y,Accelerometer Z,Gyroscope X,Gyroscope Y,Gyroscope Z,Battery Level,Counter,Validation Indicator
-13.971,-5.362,-13.729,-5.728,-5.840,-2.617,-2.000,-1.012,-0.004,0.975,-0.141,0.366,-0.793,0.214,66.667,712241.000,1.000
-15.563,-5.790,-14.355,-4.942,-6.239,-3.636,-3.791,-3.182,-0.004,0.977,-0.143,0.458,-0.824,0.153,66.667,712242.000,1.000
-16.259,-6.009,-14.529,-4.022,-6.542,-3.170,-3.190,-3.735,-0.006,0.979,-0.145,0.336,-0.854,0.092,66.667,712243.000,1.000
-16.123,-6.390,-14.158,-3.317,-6.879,-2.298,-1.244,-3.058,-0.006,0.979,-0.145,0.336,-0.885,0.061,66.667,712244.000,1.000
-15.259,-7.022,-13.158,-2.986,-7.214,-1.998,0.744,-2.017,-0.006,0.978,-0.146,0.244,-0.854,0.183,66.667,712245.000,1.000
-13.757,-7.532,-11.448,-2.810,-7.166,-2.035,2.546,-1.153,-0.005,0.977,-0.144,0.122,-0.916,0.275,66.667,712246.000,1.000
-11.945,-7.528,-9.234,-2.565,-6.517,-1.563,4.520,-0.863,-0.006,0.976,-0.144,0.092,-0.946,0.305,66.667,712247.000,1.000
-10.303,-7.056,-7.059,-2.318,-5.777,-0.681,6.205,-1.710,-0.006,0.974,-0.144,0.122,-1.068,0.366,66.667,712248.000,1.000
-9.130,-6.485,-5.443,-2.218,-5.874,-0.546,6.280,-3.982,-0.007,0.974,-0.146,0.153,-0.977,0.275,66.667,712249.000,1.000
-8.539,-6.237,-4.662,-2.339,-7.392,-2.115,3.607,-7.353,-0.008,0.974,-0.145,0.183,-1.038,0.244,66.667,712250.000,1.000
-8.745,-6.753,-4.914,-2.835,-10.322,-5.602,-1.991,-11.252,-0.007,0.974,-0.146,0.122,-1.038,0.336,66.667,712251.000,1.000
-9.846,-8.218,-6.194,-3.825,-14.076,-10.561,-9.375,-15.131,-0.008,0.974,-0.143,0.214,-1.221,0.305,66.667,712252.000,1.000
-11.236,-9.925,-7.810,-4.905,-17.367,-15.418,-16.079,-18.184,-0.007,0.973,-0.145,0.275,-1.190,0.366,66.667,712253.000,1.000
-11.649,-10.340,-8.448,-5.153,-18.520,-17.602,-19.219,-19.315,-0.008,0.973,-0.146,0.366,-1.190,0.397,66.667,712254.000,1.000
-10.086,-8.256,-7.049,-3.856,-16.452,-15.215,-17.146,-17.747,-0.009,0.975,-0.145,0.366,-1.221,0.488,66.667,712255.000,1.000
-6.670,-3.852,-3.633,-1.150,-11.473,-8.533,-10.363,-13.612,-0.009,0.977,-0.145,0.305,-1.190,0.519,66.667,712256.000,1.000
-2.794,1.202,0.486,1.952,-5.321,0.046,-1.306,-8.080,-0.010,0.976,-0.143,0.305,-1.282,0.580,66.667,712257.000,1.000
-0.593,4.477,3.085,3.919,-0.556,7.120,6.566,-3.082,-0.008,0.976,-0.142,0.244,-1.251,0.610,66.667,712258.000,1.000
-1.800,4.185,2.176,3.490,0.785,10.068,10.452,-0.380,-0.007,0.976,-0.143,0.183,-1.312,0.641,66.667,712259.000,1.000
-6.518,0.470,-2.539,0.622,-1.408,8.648,9.813,-0.410,-0.007,0.973,-0.142,0.122,-1.312,0.610,66.667,712260.000,1.000
-13.060,-4.685,-9.268,-3.394,-5.328,4.779,6.257,-2.180,-0.008,0.975,-0.143,0.153,-1.373,0.641,66.667,712261.000,1.000
-19.096,-8.892,-15.298,-6.882,-8.721,0.972,2.192,-4.181,-0.006,0.974,-0.145,0.031,-1.343,0.671,66.667,712262.000,1.000
-23.094,-10.820,-18.708,-8.909,-10.330,-0.938,-0.260,-5.260,-0.007,0.973,-0.142,0.061,-1.343,0.610,66.667,712263.000,1.000
-24.924,-10.782,-19.338,-9.717,-10.432,-0.740,-0.437,-5.195,-0.006,0.973,-0.141,0.061,-1.373,0.671,66.667,712264.000,1.000
-25.384,-10.243,-18.437,-10.267,-10.348,-0.252,0.171,-4.786,-0.007,0.972,-0.143,0.153,-1.404,0.732,66.667,712265.000,1.000
-25.366,-10.590,-17.453,-11.313,-11.197,-1.663,-0.475,-5.051,-0.006,0.972,-0.143,0.244,-1.404,0.732,66.667,712266.000,1.000
-25.300,-12.068,-17.031,-12.771,-12.893,-5.154,-2.706,-6.179,-0.005,0.972,-0.142,0.244,-1.434,0.671,66.667,712267.000,1.000
-25.101,-13.812,-16.888,-13.886,-14.370,-8.865,-5.200,-7.411,-0.005,0.972,-0.142,0.214,-1.404,0.732,66.667,712268.000,1.000
-24.465,-14.768,-16.364,-13.923,-14.602,-10.888,-6.508,-7.838,-0.006,0.973,-0.143,0.336,-1.495,0.793,66.667,712269.000,1.000
-23.281,-14.532,-15.030,-12.746,-13.352,-10.653,-5.910,-7.138,-0.005,0.975,-0.143,0.427,-1.495,0.885,66.667,712270.000,1.000
-21.870,-13.522,-13.033,-10.965,-11.301,-8.892,-3.702,-5.747,-0.008,0.975,-0.140,0.366,-1.404,0.793,66.667,712271.000,1.000
-20.791,-12.517,-10.948,-9.494,-9.545,-6.832,-1.296,-4.535,-0.007,0.976,-0.139,0.305,-1.404,0.732,66.667,712272.000,1.000
-20.316,-11.927,-9.224,-8.795,-8.685,-5.142,-0.204,-4.091,-0.007,0.976,-0.140,0.366,-1.404,0.763,66.667,712273.000,1.000
-20.141,-11.467,-7.797,-8.510,-8.339,-3.515,-0.549,-4.232,-0.008,0.975,-0.142,0.336,-1.434,0.702,66.667,712274.000,1.000
-19.766,-10.657,-6.419,-7.995,-7.748,-1.493,-1.268,-4.421,-0.010,0.973,-0.147,0.244,-1.434,0.549,66.667,712275.000,1.000
-19.122,-9.627,-5.328,-7.155,-6.836,0.501,-1.628,-4.615,-0.009,0.971,-0.146,0.244,-1.434,0.488,66.667,712276.000,1.000
-18.548,-9.147,-5.229,-6.488,-6.281,1.241,-1.754,-5.245,-0.006,0.971,-0.143,0.275,-1.404,0.427,66.667,712277.000,1.000
-18.250,-9.810,-6.511,-6.397,-6.545,-0.197,-1.924,-6.405,-0.005,0.967,-0.145,0.427,-1.434,0.519,66.667,712278.000,1.000
-18.105,-11.428,-8.761,-6.807,-7.254,-3.409,-2.109,-7.592,-0.003,0.966,-0.147,0.488,-1.251,0.519,66.667,712279.000,1.000
-17.896,-13.188,-11.065,-7.360,-7.603,-6.770,-2.083,-8.189,-0.002,0.966,-0.148,0.580,-1.343,0.519,66.667,712280.000,1.000
-17.506,-14.262,-12.623,-7.747,-7.153,-8.679,-1.698,-7.919,-0.002,0.964,-0.146,0.732,-1.190,0.580,66.667,712281.000,1.000
-16.872,-14.292,-13.115,-7.858,-6.145,-8.634,-1.081,-6.958,-0.001,0.964,-0.145,0.946,-1.129,0.641,66.667,712282.000,1.000
-15.881,-13.317,-12.537,-7.600,-4.978,-6.976,-0.198,-5.479,-0.001,0.966,-0.145,1.007,-0.946,0.610,66.667,712283.000,1.000
-14.561,-11.610,-11.072,-6.814,-3.761,-4.209,1.479,-3.296,-0.002,0.969,-0.147,1.190,-0.885,0.641,66.667,712284.000,1.000
-13.513,-9.942,-9.463,-5.767,-2.766,-1.162,4.058,-0.564,-0.002,0.972,-0.150,1.251,-0.763,0.641,66.667,712285.000,1.000
-13.673,-9.454,-8.962,-5.360,-2.793,0.842,6.301,1.486,-0.002,0.977,-0.146,1.282,-0.671,0.671,66.667,712286.000,1.000
-15.229,-10.572,-10.210,-6.266,-4.313,1.062,6.679,1.495,0.000,0.978,-0.148,1.373,-0.488,0.549,66.667,712287.000,1.000
-17.103,-12.350,-12.415,-8.047,-6.537,0.428,5.344,-0.408,-0.001,0.980,-0.147,1.282,-0.366,0.641,66.667,712288.000,1.000
-17.869,-13.445,-14.139,-9.598,-8.134,0.338,3.769,-2.790,-0.002,0.981,-0.146,1.068,-0.153,0.793,66.667,712289.000,1.000
-17.030,-13.522,-14.677,-10.235,-8.689,0.547,2.485,-4.566,-0.005,0.982,-0.145,1.038,-0.183,0.885,66.667,712290.000,1.000
-15.216,-13.288,-14.319,-9.999,-8.787,-0.421,0.831,-5.575,-0.006,0.983,-0.148,0.885,-0.153,0.885,66.667,712291.000,1.000
-13.372,-13.471,-13.620,-9.213,-8.969,-3.215,-1.309,-5.863,-0.009,0.985,-0.145,0.702,-0.183,0.793,66.667,712292.000,1.000
-11.945,-14.200,-12.855,-8.143,-9.285,-7.080,-3.196,-5.412,-0.012,0.987,-0.146,0.488,-0.244,0.732,66.667,712293.000,1.000
-10.651,-15.023,-11.913,-6.874,-9.497,-10.634,-4.365,-4.433,-0.014,0.986,-0.144,0.397,-0.244,0.671,66.667,712294.000,1.000
-8.819,-15.185,-10.388,-5.251,-9.167,-12.422,-4.717,-3.218,-0.015,0.986,-0.143,0.092,-0.336,0.519,66.667,712295.000,1.000
-5.924,-13.944,-7.816,-2.949,-7.668,-11.313,-3.834,-1.624,-0.015,0.985,-0.143,-0.122,-0.458,0.366,66.667,712296.000,1.000
-1.895,-10.838,-3.971,0.246,-4.500,-7.156,-1.376,0.803,-0.016,0.985,-0.144,-0.336,-0.580,0.397,66.667,712297.000,1.000
2.619,-6.120,0.732,3.975,0.082,-1.261,1.980,3.838,-0.015,0.984,-0.144,-0.488,-0.732,0.275,66.667,712298.000,1.000
6.245,-0.989,5.062,7.189,4.835,4.123,4.700,6.201,-0.012,0.982,-0.144,-0.580,-0.824,0.336,66.667,712299.000,1.000
7.682,3.050,7.620,8.819,8.298,7.266,5.520,6.752,-0.010,0.981,-0.145,-0.580,-0.824,0.366,66.667,712300.000,1.000
6.607,5.117,7.692,8.478,9.739,7.956,4.246,5.655,-0.009,0.981,-0.145,-0.702,-0.916,0.366,66.667,712301.000,1.000
3.688,5.218,5.475,6.544,9.327,7.087,1.552,4.134,-0.008,0.980,-0.140,-0.732,-0.977,0.519,66.667,712302.000,1.000
-0.010,3.983,1.833,3.888,7.791,5.681,-1.599,3.573,-0.010,0.979,-0.141,-0.824,-1.007,0.458,66.667,712303.000,1.000
-3.443,2.328,-2.008,1.592,6.113,4.506,-4.147,4.877,-0.010,0.977,-0.143,-0.916,-1.038,0.458,66.667,712304.000,1.000
-5.763,1.106,-4.829,0.579,5.239,4.185,-5.091,8.086,-0.009,0.974,-0.145,-0.854,-1.007,0.549,66.667,712305.000,1.000
-6.561,0.735,-5.922,1.206,5.662,5.058,-3.993,12.272,-0.007,0.974,-0.147,-0.824,-1.068,0.580,66.667,712306.000,1.000
-6.002,1.139,-5.326,3.162,7.208,6.984,-1.194,16.057,-0.008,0.973,-0.145,-0.732,-1.068,0.610,66.667,712307.000,1.000
-4.576,2.046,-3.532,5.835,9.296,9.525,2.631,18.533,-0.009,0.974,-0.145,-0.732,-1.068,0.580,66.667,712308.000,1.000
-2.770,3.216,-1.106,8.643,11.266,12.118,6.693,19.539,-0.010,0.975,-0.144,-0.732,-1.038,0.610,66.667,712309.000,1.000
-0.901,4.459,1.452,11.065,12.568,14.122,9.869,19.164,-0.010,0.976,-0.142,-0.671,-1.129,0.610,66.667,712310.000,1.000
0.928,5.623,3.750,12.677,12.893,14.996,10.998,17.468,-0.008,0.974,-0.141,-0.610,-1.221,0.671,66.667,712311.000,1.000
2.739,6.561,5.552,13.259,12.262,14.401,9.631,14.663,-0.009,0.974,-0.141,-0.610,-1.129,0.641,66.667,712312.000,1.000
4.567,7.145,6.835,12.881,11.043,12.359,6.428,11.288,-0.008,0.975,-0.140,-0.549,-1.190,0.641,66.667,712313.000,1.000
6.401,7.309,7.824,11.932,9.850,9.400,2.826,8.246,-0.009,0.972,-0.142,-0.397,-1.343,0.610,66.667,712314.000,1.000
8.205,7.116,8.885,11.051,9.287,6.410,0.402,6.582,-0.012,0.971,-0.142,-0.427,-1.282,0.610,66.667,712315.000,1.000
9.965,6.742,10.305,10.834,9.661,4.270,0.283,6.872,-0.010,0.973,-0.142,-0.366,-1.312,0.671,66.667,712316.000,1.000
11.605,6.333,12.033,11.419,10.824,3.464,2.475,8.607,-0.011,0.973,-0.139,-0.244,-1.343,0.519,66.667,712317.000,1.000
12.861,5.858,13.572,12.306,12.143,3.776,5.491,10.333,-0.010,0.970,-0.139,-0.214,-1.221,0.549,66.667,712318.000,1.000
13.368,5.158,14.214,12.649,12.775,4.411,7.088,10.592,-0.009,0.970,-0.139,-0.061,-1.312,0.488,66.667,712319.000,1.000
13.064,4.221,13.639,11.938,12.246,4.539,5.799,8.897,-0.009,0.970,-0.141,0.061,-1.251,0.458,66.667,712320.000,1.000
12.526,3.449,12.422,10.538,10.957,3.926,2.045,5.895,-0.009,0.970,-0.138,0.061,-1.282,0.427,66.667,712321.000,1.000
12.745,3.557,11.803,9.487,10.050,3.184,-1.909,2.847,-0.008,0.968,-0.143,0.122,-1.343,0.488,66.667,712322.000,1.000
14.277,4.901,12.646,9.580,10.491,3.196,-3.404,0.896,-0.009,0.967,-0.140,0.214,-1.373,0.519,66.667,712323.000,1.000
16.641,6.955,14.614,10.666,12.149,4.204,-1.691,0.318,-0.008,0.968,-0.141,0.336,-1.373,0.427,66.667,712324.000,1.000
18.702,8.763,16.539,11.923,13.998,5.745,1.472,0.528,-0.006,0.969,-0.140,0.488,-1.190,0.366,66.667,712325.000,1.000
19.502,9.788,17.444,12.618,15.106,7.236,3.890,0.976,-0.008,0.965,-0.144,0.671,-1.160,0.275,66.667,712326.000,1.000
18.695,10.097,17.066,12.452,15.159,8.138,4.567,1.606,-0.008,0.967,-0.144,0.793,-1.190,0.336,66.667,712327.000,1.000
16.626,9.982,15.726,11.498,14.281,7.841,3.353,2.534,-0.007,0.966,-0.147,0.916,-1.068,0.275,66.667,712328.000,1.000
14.190,9.618,13.969,10.022,12.763,5.989,0.595,3.684,-0.008,0.969,-0.144,0.977,-1.099,0.397,66.667,712329.000,1.000
12.374,8.953,12.172,8.260,10.875,2.928,-2.640,4.630,-0.008,0.968,-0.144,1.190,-0.977,0.397,66.667,712330.000,1.000
11.804,7.965,10.554,6.489,8.883,-0.423,-5.109,4.927,-0.007,0.969,-0.146,1.221,-0.977,0.397,66.667,712331.000,1.000
12.664,7.080,9.522,5.283,7.288,-3.013,-6.329,4.694,-0.006,0.970,-0.147,1.282,-0.885,0.519,66.667,712332.000,1.000
14.684,6.993,9.542,5.275,6.682,-4.035,-6.516,4.594,-0.007,0.970,-0.145,1.343,-0.885,0.641,66.667,712333.000,1.000
17.132,8.006,10.571,6.533,7.183,-3.313,-5.894,5.184,-0.006,0.971,-0.146,1.404,-0.854,0.671,66.667,712334.000,1.000
19.161,9.735,11.954,8.434,8.239,-1.485,-4.553,6.513,-0.007,0.971,-0.146,1.526,-0.763,0.732,66.667,712335.000,1.000
20.223,11.361,12.876,10.096,9.028,0.389,-2.755,8.180,-0.008,0.975,-0.149,1.495,-0.702,0.732,66.667,712336.000,1.000
20.226,12.078,12.849,10.814,8.966,1.547,-0.966,9.597,-0.007,0.977,-0.149,1.465,-0.671,0.854,66.667,712337.000,1.000
19.518,11.592,12.014,10.341,8.012,1.981,0.480,10.309,-0.009,0.976,-0.147,1.373,-0.641,0.854,66.667,712338.000,1.000
18.760,10.417,11.128,9.039,6.688,2.302,1.489,10.243,-0.012,0.979,-0.145,1.434,-0.641,0.885,66.667,712339.000,1.000
18.541,9.535,11.089,7.666,5.736,3.001,2.003,9.681,-0.012,0.983,-0.145,1.434,-0.610,0.793,66.667,712340.000,1.000
18.841,9.465,12.111,6.735,5.458,3.690,1.853,8.877,-0.014,0.986,-0.145,1.160,-0.610,0.793,66.667,712341.000,1.000
19.041,9.824,13.465,6.181,5.507,3.442,1.013,7.848,-0.014,0.987,-0.140,0.854,-0.671,0.763,66.667,712342.000,1.000
18.646,9.979,14.223,5.729,5.477,2.081,0.145,6.656,-0.014,0.986,-0.141,0.610,-0.732,0.824,66.667,712343.000,1.000
17.890,9.843,14.125,5.332,5.407,0.590,0.339,5.463,-0.014,0.984,-0.142,0.275,-0.885,0.732,66.667,712344.000,1.000
17.466,9.838,13.636,5.108,5.565,0.090,1.942,4.234,-0.013,0.980,-0.141,0.092,-0.916,0.824,66.667,712345.000,1.000
17.785,10.330,13.365,5.111,6.023,0.848,4.076,2.783,-0.011,0.976,-0.143,-0.153,-0.977,0.824,66.667,712346.000,1.000
18.582,11.251,13.483,5.269,6.549,2.160,5.297,1.033,-0.007,0.974,-0.146,-0.183,-0.824,0.793,66.667,712347.000,1.000
19.078,12.116,13.565,5.465,6.759,2.776,4.614,-0.886,-0.007,0.973,-0.146,-0.244,-0.885,0.854,66.667,712348.000,1.000
18.449,12.412,12.969,5.660,6.475,1.802,2.383,-2.516,-0.004,0.974,-0.149,-0.153,-0.824,0.854,66.667,712349.000,1.000
16.388,12.034,11.437,5.996,6.024,-0.428,0.352,-3.045,-0.004,0.977,-0.147,-0.244,-0.702,0.977,66.667,712350.000,1.000
13.269,11.161,9.202,6.559,5.835,-2.824,-0.049,-2.059,-0.005,0.978,-0.144,-0.153,-0.671,1.007,66.667,712351.000,1.000
9.863,9.803,6.658,7.088,5.760,-4.779,0.462,-0.341,-0.003,0.977,-0.143,-0.214,-0.610,1.038,66.667,712352.000,1.000
7.044,7.828,4.264,7.204,5.223,-6.368,-0.087,0.741,-0.003,0.975,-0.145,-0.244,-0.397,1.068,66.667,712353.000,1.000
5.607,5.419,2.670,6.933,4.044,-7.607,-2.430,0.662,-0.001,0.975,-0.149,-0.183,-0.336,1.221,66.667,712354.000,1.000
6.047,3.325,2.606,6.802,2.846,-7.944,-5.248,0.236,-0.001,0.973,-0.148,-0.153,-0.122,1.373,66.667,712355.000,1.000
8.291,2.466,4.400,7.364,2.561,-6.468,-6.483,0.792,-0.003,0.972,-0.147,-0.153,-0.092,1.434,66.667,712356.000,1.000
11.597,3.210,7.530,8.671,3.501,-2.697,-5.087,3.023,-0.006,0.971,-0.146,-0.183,0.000,1.434,66.667,712357.000,1.000
14.790,5.023,10.716,10.157,4.955,2.527,-1.795,6.445,-0.009,0.970,-0.144,0.000,0.122,1.343,66.667,712358.000,1.000
16.768,6.837,12.592,10.951,5.674,7.080,1.456,9.648,-0.011,0.969,-0.145,0.031,0.061,1.129,66.667,712359.000,1.000
17.035,7.743,12.450,10.379,4.786,8.846,2.912,11.077,-0.011,0.970,-0.143,0.000,0.092,1.007,66.667,712360.000,1.000
15.828,7.351,10.439,8.264,2.227,7.027,1.917,9.792,-0.012,0.971,-0.140,0.122,0.031,0.793,66.667,712361.000,1.000
13.754,5.740,7.206,4.893,-1.465,2.425,-1.214,5.768,-0.012,0.971,-0.139,0.183,0.000,0.763,66.667,712362.000,1.000
11.450,3.412,3.607,0.928,-5.408,-3.113,-5.504,-0.071,-0.010,0.971,-0.142,0.214,0.000,0.671,66.667,712363.000,1.000
9.488,1.224,0.609,-2.675,-8.586,-7.649,-9.609,-6.066,-0.011,0.972,-0.143,0.336,-0.061,0.519,66.667,712364.000,1.000
8.239,-0.084,-1.070,-5.048,-10.273,-10.030,-12.409,-10.493,-0.009,0.972,-0.144,0.488,-0.153,0.336,66.667,712365.000,1.000
7.717,-0.370,-1.402,-5.895,-10.400,-10.138,-13.276,-12.321,-0.009,0.974,-0.145,0.458,-0.244,0.519,66.667,712366.000,1.000
7.730,0.036,-0.963,-5.531,-9.398,-8.522,-11.895,-11.567,-0.007,0.976,-0.143,0.519,-0.153,0.488,66.667,712367.000,1.000
8.113,0.747,-0.423,-4.621,-7.850,-6.107,-8.607,-9.246,-0.007,0.978,-0.143,0.549,-0.122,0.580,66.667,712368.000,1.000
8.665,1.383,-0.245,-3.948,-6.405,-4.262,-5.111,-7.028,-0.006,0.979,-0.144,0.488,-0.244,0.519,66.667,712369.000,1.000
9.021,1.555,-0.632,-4.089,-5.623,-4.348,-3.694,-6.327,-0.007,0.981,-0.144,0.397,-0.183,0.549,66.667,712370.000,1.000
8.738,1.080,-1.520,-5.069,-5.631,-6.558,-5.054,-7.243,-0.008,0.982,-0.144,0.275,-0.122,0.763,66.667,712371.000,1.000
7.490,0.040,-2.688,-6.449,-6.144,-9.738,-7.720,-8.729,-0.008,0.980,-0.143,0.275,-0.092,0.885,66.667,712372.000,1.000
5.309,-1.424,-3.921,-7.718,-6.891,-12.598,-9.870,-9.817,-0.008,0.981,-0.142,0.183,-0.061,0.977,66.667,712373.000,1.000
2.849,-3.074,-4.911,-8.419,-7.639,-14.471,-10.739,-10.106,-0.005,0.981,-0.143,0.214,-0.122,1.160,66.667,712374.000,1.000
1.247,-4.394,-5.119,-8.106,-7.927,-15.056,-10.370,-9.368,-0.006,0.979,-0.143,0.275,-0.122,1.160,66.667,712375.000,1.000
1.347,-4.762,-4.122,-6.624,-7.317,-14.330,-9.340,-7.678,-0.006,0.980,-0.144,0.183,-0.092,1.221,66.667,712376.000,1.000
3.107,-3.735,-1.980,-4.288,-5.745,-12.609,-8.615,-5.673,-0.008,0.980,-0.141,0.122,-0.153,1.373,66.667,712377.000,1.000
5.766,-1.140,0.896,-1.583,-3.320,-10.048,-8.449,-3.889,-0.008,0.979,-0.142,0.092,-0.122,1.312,66.667,712378.000,1.000
8.264,2.708,3.896,1.064,-0.232,-6.453,-7.874,-2.269,-0.010,0.976,-0.140,0.061,-0.122,1.373,66.667,712379.000,1.000
9.611,6.803,6.250,3.212,2.970,-2.035,-5.924,-0.619,-0.010,0.977,-0.142,0.153,-0.122,1.312,66.667,712380.000,1.000
9.316,9.852,7.357,4.496,5.491,2.198,-2.758,1.029,-0.009,0.978,-0.143,0.153,-0.061,1.343,66.667,712381.000,1.000
7.630,10.999,7.170,4.821,6.772,4.928,0.470,2.515,-0.008,0.976,-0.142,0.092,-0.031,1.282,66.667,712382.000,1.000
5.267,10.125,6.126,4.334,6.680,5.174,2.345,3.514,-0.009,0.977,-0.143,0.061,-0.153,1.404,66.667,712383.000,1.000
2.941,7.732,4.790,3.304,5.477,2.980,2.101,3.583,-0.008,0.976,-0.141,0.031,-0.305,1.495,66.667,712384.000,1.000
1.237,4.848,3.674,2.156,3.898,-0.126,0.411,2.752,-0.009,0.975,-0.143,-0.061,-0.366,1.404,66.667,712385.000,1.000
0.628,2.777,3.149,1.423,2.960,-1.868,-0.888,1.864,-0.008,0.974,-0.141,0.092,-0.397,1.282,66.667,712386.000,1.000
1.237,2.379,3.244,1.405,3.255,-0.900,-0.315,1.882,-0.007,0.973,-0.139,0.122,-0.458,1.282,66.667,712387.000,1.000
2.471,3.379,3.458,1.817,4.349,2.151,1.961,2.866,-0.008,0.972,-0.143,0.092,-0.488,1.251,66.667,712388.000,1.000
3.063,4.446,2.922,1.826,4.918,4.993,4.154,3.791,-0.008,0.973,-0.143,0.183,-0.458,1.251,66.667,712389.000,1.000
1.814,4.180,1.025,0.635,3.757,5.207,4.181,3.402,-0.009,0.972,-0.140,0.153,-0.549,1.038,66.667,712390.000,1.000
-1.453,2.202,-1.932,-1.818,0.847,2.055,1.448,1.308,-0.007,0.970,-0.144,0.366,-0.580,1.038,66.667,712391.000,1.000
-5.737,-0.686,-4.883,-4.767,-2.613,-3.036,-2.569,-1.699,-0.007,0.970,-0.147,0.397,-0.671,0.916,66.667,712392.000,1.000
-9.676,-3.295,-6.886,-7.206,-5.237,-7.638,-5.563,-4.290,-0.006,0.971,-0.146,0.488,-0.641,0.916,66.667,712393.000,1.000
-12.348,-4.782,-7.690,-8.461,-6.366,-9.785,-6.106,-5.497,-0.008,0.971,-0.145,0.519,-0.671,0.885,66.667,712394.000,1.000
-13.490,-4.918,-7.611,-8.442,-6.199,-8.817,-4.301,-5.191,-0.009,0.972,-0.146,0.610,-0.702,0.793,66.667,712395.000,1.000
-13.540,-4.252,-7.371,-7.780,-5.603,-5.710,-1.324,-4.162,-0.007,0.971,-0.146,0.671,-0.702,0.641,66.667,712396.000,1.000
-13.462,-4.039,-7.967,-7.614,-5.841,-2.921,1.068,-3.775,-0.009,0.974,-0.146,0.702,-0.854,0.732,66.667,712397.000,1.000
-14.164,-5.502,-10.119,-8.791,-7.863,-2.947,1.155,-4.982,-0.010,0.975,-0.145,0.702,-0.854,0.519,66.667,712398.000,1.000
-15.874,-8.832,-13.619,-11.147,-11.479,-6.191,-1.499,-7.366,-0.009,0.974,-0.147,0.793,-0.977,0.549,66.667,712399.000,1.000
-18.066,-12.924,-17.325,-13.637,-15.369,-10.606,-5.376,-9.376,-0.009,0.974,-0.143,0.702,-1.038,0.549,66.667,712400.000,1.000
-19.960,-16.189,-19.930,-15.204,-18.088,-13.712,-8.201,-9.726,-0.010,0.974,-0.142,0.671,-0.977,0.610,66.667,712401.000,1.000
-21.059,-17.615,-20.724,-15.471,-18.935,-14.383,-8.715,-8.411,-0.010,0.975,-0.140,0.610,-1.038,0.610,66.667,712402.000,1.000
-21.134,-17.025,-19.676,-14.624,-17.912,-12.689,-6.875,-6.252,-0.010,0.976,-0.142,0.702,-1.038,0.671,66.667,712403.000,1.000
-20.030,-14.753,-17.145,-12.979,-15.352,-9.137,-3.191,-4.028,-0.011,0.973,-0.145,0.763,-1.221,0.580,66.667,712404.000,1.000
-17.884,-11.499,-13.853,-10.966,-12.018,-4.737,1.087,-2.419,-0.012,0.973,-0.147,0.763,-1.312,0.549,66.667,712405.000,1.000
-15.343,-8.203,-10.784,-9.153,-9.077,-0.986,4.066,-2.011,-0.012,0.974,-0.145,0.702,-1.343,0.488,66.667,712406.000,1.000
-13.081,-5.471,-8.570,-7.833,-7.312,1.097,4.673,-2.676,-0.012,0.973,-0.144,0.671,-1.343,0.519,66.667,712407.000,1.000
-11.239,-3.259,-7.118,-6.832,-6.561,1.598,3.556,-3.436,-0.011,0.974,-0.146,0.702,-1.373,0.427,66.667,712408.000,1.000
-9.543,-1.299,-5.979,-5.916,-6.135,1.143,2.170,-3.352,-0.010,0.974,-0.145,0.702,-1.373,0.488,66.667,712409.000,1.000
-7.739,0.411,-4.840,-5.110,-5.502,0.292,1.475,-2.300,-0.010,0.974,-0.145,0.732,-1.495,0.610,66.667,712410.000,1.000
-5.853,1.595,-3.666,-4.617,-4.549,-0.502,1.494,-0.908,-0.010,0.973,-0.145,0.671,-1.556,0.702,66.667,712411.000,1.000
-4.121,1.992,-2.554,-4.576,-3.453,-0.925,1.610,0.012,-0.011,0.973,-0.144,0.671,-1.617,0.702,66.667,712412.000,1.000
-2.674,1.692,-1.483,-4.834,-2.318,-0.855,1.370,0.180,-0.011,0.973,-0.140,0.641,-1.617,0.580,66.667,712413.000,1.000
-1.399,1.199,-0.269,-4.959,-1.023,-0.246,1.005,0.067,-0.011,0.971,-0.141,0.641,-1.740,0.702,66.667,712414.000,1.000
-0.199,1.013,1.150,-4.590,0.480,0.825,0.973,0.319,-0.013,0.972,-0.146,0.732,-1.770,0.671,66.667,712415.000,1.000
0.812,1.342,2.606,-3.628,2.042,2.141,1.634,1.353,-0.011,0.972,-0.142,0.763,-1.709,0.732,66.667,712416.000,1.000
1.437,2.204,3.939,-2.077,3.632,3.767,3.503,3.504,-0.011,0.976,-0.143,0.763,-1.648,0.824,66.667,712417.000,1.000
1.469,3.368,4.990,-0.142,5.286,5.993,6.785,6.732,-0.010,0.977,-0.142,0.641,-1.709,0.824,66.667,712418.000,1.000
0.777,4.276,5.461,1.620,6.737,8.578,10.569,10.155,-0.010,0.976,-0.145,0.610,-1.740,0.885,66.667,712419.000,1.000
-0.277,4.521,5.273,2.752,7.700,10.705,13.558,12.856,-0.010,0.976,-0.147,0.549,-1.709,0.946,66.667,712420.000,1.000
-0.796,4.249,4.863,3.389,8.258,11.794,15.382,14.849,-0.010,0.975,-0.146,0.519,-1.678,1.038,66.667,712421.000,1.000
-0.105,3.829,4.733,3.904,8.503,11.852,16.265,16.388,-0.010,0.975,-0.147,0.519,-1.709,1.007,66.667,712422.000,1.000
1.533,3.405,4.862,4.288,8.131,11.219,16.076,16.892,-0.011,0.975,-0.146,0.458,-1.740,1.129,66.667,712423.000,1.000
3.029,2.849,4.698,4.119,6.743,10.401,14.524,15.382,-0.009,0.978,-0.145,0.427,-1.709,1.099,66.667,712424.000,1.000
3.251,1.989,3.701,3.072,4.397,9.932,11.812,11.650,-0.009,0.977,-0.144,0.488,-1.617,1.129,66.667,712425.000,1.000
1.847,0.903,1.910,1.318,1.761,10.030,8.740,6.684,-0.008,0.978,-0.144,0.275,-1.648,1.190,66.667,712426.000,1.000
-0.560,-0.014,0.050,-0.547,-0.255,10.382,6.117,2.134,-0.008,0.979,-0.146,0.183,-1.617,1.190,66.667,712427.000,1.000
-2.874,-0.313,-0.937,-1.861,-1.018,10.448,4.261,-0.636,-0.008,0.977,-0.143,0.092,-1.587,1.190,66.667,712428.000,1.000
-4.204,0.249,-0.477,-2.199,-0.414,9.999,3.210,-1.164,-0.008,0.978,-0.146,0.061,-1.465,1.190,66.667,712429.000,1.000
-4.266,1.583,1.326,-1.545,1.161,9.278,2.973,-0.001,-0.006,0.979,-0.148,0.031,-1.373,1.221,66.667,712430.000,1.000
-3.334,3.343,3.866,-0.220,3.006,8.761,3.464,1.685,-0.008,0.976,-0.146,-0.031,-1.373,1.251,66.667,712431.000,1.000
-1.785,5.234,6.574,1.470,4.642,9.008,4.654,2.966,-0.008,0.977,-0.146,0.031,-1.282,1.160,66.667,712432.000,1.000
0.196,7.160,9.224,3.403,6.142,10.535,6.798,3.764,-0.008,0.978,-0.146,-0.092,-1.251,1.160,66.667,712433.000,1.000
2.414,8.968,11.665,5.381,7.741,13.147,9.967,4.551,-0.008,0.978,-0.147,-0.153,-1.221,1.129,66.667,712434.000,1.000
4.419,10.214,13.488,6.898,9.254,15.409,13.267,5.527,-0.008,0.974,-0.147,-0.214,-1.099,1.160,66.667,712435.000,1.000
5.734,10.475,14.237,7.442,10.214,15.659,15.315,6.328,-0.009,0.974,-0.147,-0.153,-1.007,1.099,66.667,712436.000,1.000
6.315,9.858,13.940,7.020,10.550,13.720,15.794,6.590,-0.008,0.975,-0.144,-0.275,-0.977,1.160,66.667,712437.000,1.000
6.480,8.927,13.107,6.172,10.643,10.955,15.648,6.454,-0.008,0.976,-0.146,-0.275,-0.946,1.129,66.667,712438.000,1.000
6.431,8.107,12.189,5.441,10.671,8.665,15.471,6.289,-0.010,0.973,-0.147,-0.427,-0.885,1.068,66.667,712439.000,1.000
6.089,7.370,11.263,5.032,10.344,7.039,14.622,6.202,-0.008,0.974,-0.146,-0.458,-0.824,1.099,66.667,712440.000,1.000
5.408,6.593,10.280,4.950,9.443,5.749,12.275,6.048,-0.007,0.975,-0.148,-0.366,-0.854,1.068,66.667,712441.000,1.000
4.684,6.039,9.414,5.279,8.369,4.877,8.680,5.909,-0.008,0.974,-0.148,-0.336,-0.702,1.068,66.667,712442.000,1.000
4.309,6.166,8.897,6.107,7.820,4.777,5.071,6.217,-0.009,0.974,-0.148,-0.366,-0.702,1.129,66.667,712443.000,1.000
4.237,6.995,8.540,7.169,7.992,5.508,2.649,7.169,-0.010,0.972,-0.149,-0.305,-0.702,1.099,66.667,712444.000,1.000
4.033,7.994,7.802,7.883,8.443,6.945,2.074,8.399,-0.010,0.974,-0.144,-0.183,-0.671,1.129,66.667,712445.000,1.000
3.516,8.624,6.438,7.888,8.730,9.011,3.545,9.447,-0.010,0.974,-0.146,-0.183,-0.610,1.221,66.667,712446.000,1.000
3.093,8.783,4.902,7.417,8.882,11.457,6.662,10.242,-0.009,0.974,-0.143,-0.305,-0.580,1.099,66.667,712447.000,1.000
3.405,8.783,4.083,7.162,9.311,13.716,10.423,11.119,-0.008,0.974,-0.142,-0.244,-0.519,1.007,66.667,712448.000,1.000
4.705,8.996,4.589,7.700,10.336,15.128,13.650,12.357,-0.008,0.974,-0.143,-0.183,-0.458,0.916,66.667,712449.000,1.000
6.488,9.440,6.102,8.887,11.731,15.316,15.312,13.520,-0.009,0.975,-0.144,-0.244,-0.488,1.007,66.667,712450.000,1.000
7.780,9.776,7.509,9.917,12.802,14.506,14.834,13.596,-0.011,0.977,-0.145,-0.153,-0.488,1.038,66.667,712451.000,1.000
7.862,9.721,7.783,10.058,12.958,13.380,12.513,12.058,-0.011,0.976,-0.147,-0.244,-0.488,1.068,66.667,712452.000,1.000
6.661,9.273,6.686,9.160,12.118,12.575,9.544,9.448,-0.010,0.975,-0.147,-0.153,-0.488,1.129,66.667,712453.000,1.000
4.616,8.602,4.746,7.560,10.642,12.431,7.405,6.881,-0.010,0.975,-0.147,-0.122,-0.519,1.282,66.667,712454.000,1.000
2.361,7.902,2.797,5.789,9.075,12.965,6.990,5.302,-0.009,0.976,-0.148,-0.092,-0.458,1.251,66.667,712455.000,1.000
0.379,7.197,1.406,4.268,7.804,13.724,8.017,4.989,-0.010,0.977,-0.148,-0.122,-0.519,1.404,66.667,712456.000,1.000
-1.301,6.116,0.431,3.019,6.710,13.676,9.054,5.311,-0.011,0.977,-0.147,-0.031,-0.610,1.373,66.667,712457.000,1.000
-3.118,3.990,-0.931,1.656,5.170,11.676,8.513,5.047,-0.010,0.975,-0.147,0.031,-0.580,1.343,66.667,712458.000,1.000
-5.544,0.490,-3.425,-0.169,2.637,7.484,5.990,3.319,-0.009,0.975,-0.146,-0.031,-0.702,1.190,66.667,712459.000,1.000
-8.570,-3.819,-6.967,-2.330,-0.716,2.335,2.532,0.374,-0.010,0.975,-0.143,-0.061,-0.641,1.312,66.667,712460.000,1.000
-11.739,-7.816,-10.770,-4.422,-4.153,-1.848,-0.487,-2.683,-0.010,0.977,-0.145,-0.031,-0.641,1.282,66.667,712461.000,1.000
-14.584,-10.733,-14.140,-6.296,-7.153,-4.051,-2.667,-4.962,-0.012,0.976,-0.145,0.061,-0.610,1.373,66.667,712462.000,1.000
-16.795,-12.548,-16.837,-8.157,-9.734,-4.772,-4.591,-6.425,-0.010,0.976,-0.146,0.122,-0.549,1.312,66.667,712463.000,1.000
-18.060,-13.568,-18.745,-10.109,-11.969,-5.077,-6.659,-7.477,-0.008,0.976,-0.145,0.031,-0.610,1.312,66.667,712464.000,1.000
-18.087,-13.951,-19.660,-11.845,-13.585,-5.526,-8.380,-8.321,-0.008,0.975,-0.150,0.000,-0.549,1.251,66.667,712465.000,1.000
-16.901,-13.681,-19.504,-12.848,-14.201,-6.013,-8.917,-8.823,-0.007,0.975,-0.147,0.000,-0.641,1.221,66.667,712466.000,1.000
-14.891,-12.732,-18.387,-12.713,-13.642,-6.172,-8.014,-8.646,-0.006,0.976,-0.149,0.031,-0.549,1.282,66.667,712467.000,1.000
-12.470,-11.116,-16.340,-11.247,-11.884,-5.657,-6.045,-7.401,-0.007,0.978,-0.146,0.031,-0.580,1.312,66.667,712468.000,1.000
-9.749,-8.869,-13.212,-8.481,-8.977,-4.324,-3.467,-5.001,-0.009,0.974,-0.147,-0.061,-0.580,1.312,66.667,712469.000,1.000
-6.654,-6.156,-9.002,-4.741,-5.235,-2.498,-0.696,-1.984,-0.008,0.975,-0.150,-0.061,-0.580,1.251,66.667,712470.000,1.000
-3.364,-3.448,-4.260,-0.762,-1.509,-0.884,1.588,0.578,-0.009,0.975,-0.147,-0.122,-0.580,1.282,66.667,712471.000,1.000
-0.488,-1.420,-0.027,2.423,0.986,-0.097,2.475,1.543,-0.009,0.977,-0.148,-0.153,-0.549,1.221,66.667,712472.000,1.000
1.325,-0.531,2.774,3.997,1.418,-0.384,1.600,0.457,-0.010,0.977,-0.146,-0.122,-0.610,1.190,66.667,712473.000,1.000
1.942,-0.663,3.942,3.943,0.067,-1.567,-0.161,-1.942,-0.010,0.978,-0.147,-0.275,-0.641,1.160,66.667,712474.000,1.000
1.849,-1.218,4.046,3.110,-1.827,-3.138,-1.521,-4.233,-0.010,0.978,-0.146,-0.214,-0.610,1.160,66.667,712475.000,1.000
1.739,-1.588,3.959,2.626,-2.974,-4.635,-2.119,-5.341,-0.009,0.978,-0.145,-0.275,-0.610,1.160,66.667,712476.000,1.000
2.133,-1.372,4.397,3.174,-2.714,-5.839,-2.430,-5.039,-0.010,0.976,-0.144,-0.397,-0.580,1.160,66.667,712477.000,1.000
3.298,-0.267,5.700,4.728,-1.106,-6.433,-2.883,-3.847,-0.012,0.975,-0.144,-0.305,-0.580,1.099,66.667,712478.000,1.000
5.305,1.984,7.847,6.865,1.376,-5.736,-3.512,-2.427,-0.012,0.976,-0.146,-0.427,-0.671,1.190,66.667,712479.000,1.000
8.127,5.447,10.714,9.321,4.382,-3.057,-3.697,-0.688,-0.011,0.976,-0.145,-0.427,-0.854,1.190,66.667,712480.000,1.000
11.374,9.523,13.968,11.926,7.649,1.353,-2.412,2.060,-0.012,0.974,-0.143,-0.397,-0.885,1.251,66.667,712481.000,1.000
13.853,12.544,16.474,13.861,10.186,5.776,0.166,5.280,-0.011,0.974,-0.145,-0.397,-0.885,1.190,66.667,712482.000,1.000
14.125,12.679,16.677,13.804,10.460,8.271,2.216,6.602,-0.012,0.974,-0.144,-0.427,-1.068,1.160,66.667,712483.000,1.000
11.909,9.636,14.148,11.333,7.970,8.371,2.315,4.211,-0.010,0.976,-0.143,-0.458,-1.099,1.190,66.667,712484.000,1.000
8.454,4.866,10.148,7.529,3.808,6.852,0.594,-1.129,-0.011,0.973,-0.144,-0.488,-1.129,1.160,66.667,712485.000,1.000
5.427,0.214,6.504,4.020,-0.507,4.248,-2.312,-7.061,-0.010,0.973,-0.142,-0.488,-1.190,1.190,66.667,712486.000,1.000
3.787,-3.184,4.382,1.881,-4.067,0.296,-5.999,-11.587,-0.010,0.971,-0.143,-0.519,-1.251,1.221,66.667,712487.000,1.000
3.513,-5.140,3.890,1.292,-6.630,-5.330,-9.939,-13.876,-0.010,0.971,-0.144,-0.427,-1.221,1.190,66.667,712488.000,1.000
3.957,-6.132,4.310,1.713,-8.339,-12.113,-13.426,-14.189,-0.009,0.970,-0.143,-0.366,-1.282,1.312,66.667,712489.000,1.000
4.439,-6.768,4.684,2.328,-9.517,-18.542,-16.010,-13.498,-0.011,0.968,-0.143,-0.214,-1.312,1.373,66.667,712490.000,1.000
4.749,-7.286,4.485,2.621,-10.418,-22.675,-17.414,-12.745,-0.012,0.971,-0.144,-0.092,-1.282,1.282,66.667,712491.000,1.000
5.183,-7.441,3.897,2.672,-10.948,-22.982,-17.158,-12.119,-0.011,0.972,-0.140,0.000,-1.343,1.343,66.667,712492.000,1.000
5.955,-6.935,3.366,2.813,-10.848,-19.331,-15.004,-11.202,-0.010,0.974,-0.144,0.061,-1.343,1.282,66.667,712493.000,1.000
6.686,-6.004,2.921,3.025,-10.232,-13.470,-11.825,-9.819,-0.010,0.975,-0.148,0.092,-1.434,1.404,66.667,712494.000,1.000
6.721,-5.302,2.234,2.923,-9.577,-7.997,-9.251,-8.388,-0.007,0.977,-0.146,0.122,-1.404,1.404,66.667,712495.000,1.000
5.921,-5.092,1.362,2.402,-8.977,-4.380,-8.011,-7.286,-0.007,0.980,-0.144,0.122,-1.434,1.465,66.667,712496.000,1.000
4.928,-4.833,1.035,2.012,-7.767,-2.254,-7.074,-6.162,-0.008,0.980,-0.143,0.031,-1.404,1.495,66.667,712497.000,1.000
4.580,-3.813,1.980,2.477,-5.198,-0.578,-4.818,-4.238,-0.008,0.979,-0.142,-0.122,-1.373,1.495,66.667,712498.000,1.000
5.179,-1.964,4.111,3.903,-1.383,0.990,-0.968,-1.287,-0.009,0.976,-0.141,-0.214,-1.373,1.404,66.667,712499.000,1.000
6.313,0.091,6.489,5.600,2.613,1.911,2.936,1.905,-0.009,0.975,-0.143,-0.214,-1.404,1.312,66.667,712500.000,1.000
7.342,1.741,8.106,6.735,5.651,1.760,5.019,4.201,-0.009,0.974,-0.145,-0.275,-1.343,1.312,66.667,712501.000,1.000
8.009,2.996,8.678,7.100,7.414,1.042,4.623,5.048,-0.009,0.975,-0.146,-0.153,-1.343,1.160,66.667,712502.000,1.000
8.401,4.144,8.558,7.020,8.197,0.559,2.253,4.536,-0.008,0.977,-0.144,-0.092,-1.282,1.129,66.667,712503.000,1.000
8.428,5.014,8.040,6.635,8.039,0.288,-1.372,2.749,-0.009,0.977,-0.143,-0.153,-1.251,1.160,66.667,712504.000,1.000
7.750,5.015,7.153,5.717,6.669,-0.424,-5.491,-0.337,-0.006,0.976,-0.143,-0.122,-1.160,1.007,66.667,712505.000,1.000
6.167,3.793,5.958,4.090,4.240,-1.746,-8.800,-4.243,-0.004,0.976,-0.144,-0.153,-1.251,0.946,66.667,712506.000,1.000
3.887,1.636,4.695,1.968,1.662,-2.908,-9.761,-7.662,-0.005,0.973,-0.143,-0.183,-1.160,1.038,66.667,712507.000,1.000
1.561,-0.612,3.713,-0.027,0.150,-2.620,-7.756,-9.097,-0.002,0.969,-0.142,-0.183,-1.068,1.068,66.667,712508.000,1.000
-0.049,-2.071,3.211,-1.232,0.380,-0.117,-3.813,-8.022,-0.001,0.967,-0.145,-0.153,-1.038,1.129,66.667,712509.000,1.000
-0.752,-2.555,2.880,-1.555,1.895,3.684,-0.090,-5.298,-0.003,0.966,-0.145,-0.153,-0.793,1.038,66.667,712510.000,1.000
-1.147,-2.654,2.003,-1.549,3.441,6.488,1.701,-2.342,-0.002,0.968,-0.144,0.031,-0.732,1.129,66.667,712511.000,1.000
-1.918,-2.928,0.214,-1.736,4.088,6.731,1.655,0.032,-0.004,0.971,-0.146,0.214,-0.519,1.221,66.667,712512.000,1.000
-3.136,-3.273,-2.047,-2.134,3.827,4.893,1.295,1.788,-0.005,0.972,-0.146,0.214,-0.366,1.190,66.667,712513.000,1.000
-4.365,-3.195,-3.959,-2.535,3.123,2.589,1.803,2.948,-0.006,0.974,-0.147,0.275,-0.427,1.373,66.667,712514.000,1.000
-5.150,-2.384,-4.973,-2.898,2.321,1.175,2.981,3.180,-0.007,0.976,-0.146,0.122,-0.458,1.465,66.667,712515.000,1.000
-5.312,-0.955,-5.086,-3.404,1.494,1.280,3.833,2.114,-0.010,0.976,-0.145,0.061,-0.427,1.373,66.667,712516.000,1.000
-4.924,0.671,-4.709,-4.272,0.536,2.739,3.561,-0.206,-0.011,0.978,-0.146,0.061,-0.488,1.465,66.667,712517.000,1.000
-4.174,1.965,-4.357,-5.509,-0.678,4.503,2.055,-3.065,-0.012,0.980,-0.144,0.061,-0.458,1.465,66.667,712518.000,1.000
-3.334,2.492,-4.403,-6.833,-2.086,5.205,-0.047,-5.241,-0.014,0.980,-0.140,0.000,-0.519,1.434,66.667,712519.000,1.000
-2.809,2.044,-5.046,-7.911,-3.444,4.219,-1.716,-5.858,-0.017,0.983,-0.142,-0.153,-0.519,1.251,66.667,712520.000,1.000
-3.047,0.633,-6.387,-8.618,-4.581,2.035,-2.284,-5.189,-0.018,0.984,-0.143,-0.336,-0.702,1.160,66.667,712521.000,1.000
-4.239,-1.562,-8.369,-8.999,-5.497,-0.406,-2.068,-4.335,-0.018,0.984,-0.143,-0.488,-0.916,0.946,66.667,712522.000,1.000
-6.098,-4.141,-10.639,-9.110,-6.194,-2.414,-2.110,-4.149,-0.017,0.986,-0.145,-0.610,-1.038,0.916,66.667,712523.000,1.000
-7.987,-6.399,-12.601,-8.937,-6.504,-3.524,-2.995,-4.620,-0.016,0.989,-0.144,-0.732,-1.190,0.916,66.667,712524.000,1.000
-9.272,-7.525,-13.689,-8.448,-6.157,-3.242,-4.107,-5.116,-0.013,0.988,-0.144,-0.885,-1.282,0.885,66.667,712525.000,1.000
-9.653,-7.133,-13.731,-7.764,-5.069,-1.387,-4.295,-5.075,-0.011,0.984,-0.145,-1.007,-1.312,0.916,66.667,712526.000,1.000
-9.201,-5.567,-13.005,-7.170,-3.511,1.397,-3.120,-4.512,-0.010,0.985,-0.143,-1.099,-1.312,1.038,66.667,712527.000,1.000
-8.151,-3.615,-11.945,-6.859,-1.937,3.845,-1.344,-3.989,-0.010,0.986,-0.143,-1.190,-1.312,1.099,66.667,712528.000,1.000
-6.770,-2.017,-10.891,-6.720,-0.663,4.969,-0.229,-4.013,-0.006,0.982,-0.143,-1.312,-1.282,1.221,66.667,712529.000,1.000
-5.339,-1.198,-10.079,-6.461,0.256,4.753,-0.302,-4.502,-0.004,0.981,-0.141,-1.373,-1.312,1.312,66.667,712530.000,1.000
-4.072,-1.207,-9.652,-5.810,0.888,3.832,-0.968,-4.905,-0.006,0.982,-0.141,-1.434,-1.312,1.465,66.667,712531.000,1.000
-3.033,-1.740,-9.548,-4.604,1.361,2.740,-1.212,-4.613,-0.007,0.981,-0.139,-1.373,-1.282,1.526,66.667,712532.000,1.000
-2.236,-2.380,-9.519,-2.907,1.804,1.626,-0.317,-3.298,-0.009,0.978,-0.137,-1.343,-1.282,1.587,66.667,712533.000,1.000
-1.772,-2.984,-9.417,-1.186,2.119,0.335,1.709,-1.247,-0.009,0.977,-0.140,-1.373,-1.373,1.587,66.667,712534.000,1.000
-1.743,-3.762,-9.355,-0.152,1.889,-1.414,3.955,0.575,-0.010,0.974,-0.140,-1.434,-1.221,1.526,66.667,712535.000,1.000
-2.158,-4.948,-9.518,-0.282,0.675,-3.690,4.987,0.932,-0.009,0.974,-0.138,-1.221,-1.251,1.617,66.667,712536.000,1.000
-2.916,-6.482,-9.876,-1.468,-1.546,-6.028,3.872,-0.931,-0.009,0.972,-0.136,-1.160,-1.282,1.587,66.667,712537.000,1.000
-3.811,-7.964,-10.141,-3.070,-4.192,-7.559,1.115,-4.656,-0.009,0.971,-0.136,-1.129,-1.373,1.495,66.667,712538.000,1.000
-4.635,-8.885,-10.028,-4.306,-6.371,-7.648,-1.690,-8.857,-0.010,0.969,-0.134,-0.946,-1.434,1.373,66.667,712539.000,1.000
-5.368,-8.983,-9.500,-4.699,-7.429,-6.503,-3.217,-11.907,-0.009,0.970,-0.137,-0.854,-1.434,1.343,66.667,712540.000,1.000
-6.220,-8.525,-8.876,-4.292,-7.359,-5.350,-3.417,-12.861,-0.011,0.967,-0.140,-0.732,-1.343,1.129,66.667,712541.000,1.000
-7.420,-8.190,-8.705,-3.596,-6.766,-5.773,-3.337,-11.903,-0.009,0.968,-0.137,-0.671,-1.404,1.007,66.667,712542.000,1.000
-8.907,-8.518,-9.345,-3.238,-6.336,-8.355,-3.851,-9.950,-0.009,0.968,-0.139,-0.580,-1.343,1.038,66.667,712543.000,1.000
-10.217,-9.418,-10.515,-3.479,-6.266,-12.092,-4.673,-7.787,-0.007,0.967,-0.140,-0.336,-1.282,0.854,66.667,712544.000,1.000
-10.726,-10.185,-11.357,-4.062,-6.178,-15.203,-4.707,-5.593,-0.005,0.967,-0.140,-0.153,-1.312,0.793,66.667,712545.000,1.000
-10.152,-10.044,-11.123,-4.577,-5.565,-16.372,-3.256,-3.200,-0.005,0.964,-0.140,0.153,-1.251,0.641,66.667,712546.000,1.000
-8.861,-8.811,-9.855,-4.892,-4.382,-15.458,-0.877,-0.735,-0.007,0.964,-0.140,0.366,-1.221,0.580,66.667,712547.000,1.000
-7.521,-6.926,-8.209,-5.041,-3.032,-13.159,1.179,1.232,-0.006,0.966,-0.139,0.488,-1.221,0.671,66.667,712548.000,1.000
-6.418,-4.903,-6.653,-4.822,-1.831,-10.279,2.267,2.278,-0.007,0.964,-0.141,0.641,-1.190,0.580,66.667,712549.000,1.000
-5.311,-3.054,-5.110,-3.818,-0.814,-7.598,2.521,2.503,-0.008,0.966,-0.141,0.763,-1.129,0.610,66.667,712550.000,1.000
-3.880,-1.665,-3.355,-1.887,-0.056,-6.046,2.053,2.149,-0.008,0.966,-0.140,0.916,-1.129,0.488,66.667,712551.000,1.000
-2.085,-1.039,-1.467,0.533,0.171,-6.371,0.615,1.151,-0.008,0.966,-0.141,1.099,-1.068,0.519,66.667,712552.000,1.000
-0.122,-1.292,0.230,2.694,-0.272,-8.433,-1.706,-0.557,-0.008,0.968,-0.139,1.160,-1.007,0.519,66.667,712553.000,1.000
1.820,-2.122,1.559,4.149,-0.969,-10.888,-3.799,-2.394,-0.008,0.971,-0.142,1.282,-1.038,0.427,66.667,712554.000,1.000
3.664,-2.926,2.609,4.996,-1.211,-12.139,-4.375,-3.431,-0.007,0.973,-0.141,1.312,-0.977,0.549,66.667,712555.000,1.000
5.269,-3.280,3.398,5.443,-0.786,-11.809,-3.534,-3.428,-0.009,0.973,-0.142,1.312,-0.946,0.397,66.667,712556.000,1.000
6.387,-3.167,3.751,5.490,-0.104,-10.677,-2.599,-2.939,-0.008,0.976,-0.139,1.343,-0.763,0.427,66.667,712557.000,1.000
6.802,-2.847,3.481,5.068,0.368,-9.422,-2.574,-2.476,-0.010,0.977,-0.139,1.282,-0.854,0.610,66.667,712558.000,1.000
6.285,-2.768,2.427,4.142,0.394,-8.248,-3.503,-2.183,-0.008,0.976,-0.143,1.373,-0.946,0.702,66.667,712559.000,1.000
4.696,-3.333,0.556,2.743,-0.017,-7.135,-4.794,-2.062,-0.010,0.978,-0.144,1.129,-0.854,0.732,66.667,712560.000,1.000
2.348,-4.436,-1.730,1.148,-0.503,-5.638,-5.387,-1.945,-0.011,0.982,-0.145,1.160,-0.793,0.854,66.667,712561.000,1.000
-0.009,-5.352,-3.636,-0.115,-0.439,-2.851,-4.247,-1.364,-0.009,0.982,-0.143,1.007,-0.763,0.824,66.667,712562.000,1.000
-1.682,-5.163,-4.420,-0.603,0.633,1.932,-1.149,0.188,-0.013,0.984,-0.143,0.763,-0.946,0.885,66.667,712563.000,1.000
-2.340,-3.366,-3.807,-0.278,2.651,8.420,3.061,2.738,-0.013,0.984,-0.143,0.702,-0.885,0.916,66.667,712564.000,1.000
-2.001,-0.315,-2.147,0.408,4.907,14.940,6.680,5.447,-0.012,0.985,-0.143,0.519,-0.854,0.977,66.667,712565.000,1.000
-1.028,2.828,-0.343,0.728,6.223,18.883,7.761,6.904,-0.013,0.984,-0.142,0.305,-0.793,0.916,66.667,712566.000,1.000
0.009,4.795,0.640,0.174,5.635,18.281,5.450,6.200,-0.013,0.983,-0.142,0.122,-0.854,0.916,66.667,712567.000,1.000
0.674,5.016,0.380,-1.146,3.115,13.314,0.912,3.732,-0.012,0.981,-0.143,0.061,-0.946,1.007,66.667,712568.000,1.000
0.916,3.833,-0.827,-2.616,-0.423,6.229,-3.606,0.816,-0.013,0.982,-0.141,-0.122,-1.068,0.946,66.667,712569.000,1.000
1.023,2.187,-2.238,-3.564,-3.644,0.066,-6.421,-1.314,-0.014,0.981,-0.143,-0.153,-1.160,1.068,66.667,712570.000,1.000
1.296,1.082,-3.094,-3.640,-5.379,-2.710,-6.830,-2.088,-0.014,0.978,-0.140,-0.275,-1.221,1.038,66.667,712571.000,1.000
1.734,1.019,-3.022,-2.952,-5.180,-1.390,-4.874,-1.621,-0.014,0.975,-0.140,-0.458,-1.160,1.007,66.667,712572.000,1.000
2.001,1.733,-2.211,-1.960,-3.669,2.399,-1.609,-0.599,-0.013,0.972,-0.142,-0.519,-1.251,1.099,66.667,712573.000,1.000
1.695,2.493,-1.208,-1.214,-2.164,5.484,1.013,0.030,-0.010,0.971,-0.144,-0.458,-1.282,1.068,66.667,712574.000,1.000
0.677,2.699,-0.511,-1.028,-1.658,5.337,1.539,-0.319,-0.008,0.972,-0.145,-0.397,-1.251,1.129,66.667,712575.000,1.000
-0.812,2.215,-0.346,-1.382,-2.210,1.857,0.199,-1.443,-0.007,0.972,-0.145,-0.336,-1.221,1.160,66.667,712576.000,1.000
-2.440,1.121,-0.816,-2.194,-3.374,-3.219,-1.822,-2.711,-0.007,0.974,-0.144,-0.244,-1.160,1.221,66.667,712577.000,1.000
-4.117,-0.656,-2.099,-3.588,-4.982,-8.292,-4.030,-3.842,-0.007,0.974,-0.145,-0.244,-1.038,1.221,66.667,712578.000,1.000
-5.796,-3.135,-4.172,-5.604,-7.128,-12.605,-6.978,-5.143,-0.006,0.975,-0.148,-0.244,-0.977,1.404,66.667,712579.000,1.000
-6.932,-5.676,-6.277,-7.647,-9.386,-15.375,-10.728,-6.692,-0.004,0.974,-0.145,-0.183,-0.885,1.526,66.667,712580.000,1.000
-6.614,-7.004,-7.081,-8.592,-10.559,-15.349,-13.684,-7.647,-0.002,0.974,-0.145,-0.092,-0.854,1.526,66.667,712581.000,1.000
-4.443,-6.077,-5.593,-7.622,-9.515,-11.669,-13.684,-6.850,-0.003,0.972,-0.144,-0.031,-0.671,1.556,66.667,712582.000,1.000
-1.090,-2.960,-1.989,-4.893,-6.159,-4.999,-9.913,-3.988,-0.007,0.970,-0.143,0.061,-0.488,1.526,66.667,712583.000,1.000
2.037,1.070,2.349,-1.545,-1.697,2.301,-3.627,-0.026,-0.011,0.969,-0.142,0.031,-0.458,1.495,66.667,712584.000,1.000
3.621,4.286,5.631,0.938,2.038,7.439,2.549,3.470,-0.014,0.969,-0.143,0.061,-0.519,1.312,66.667,712585.000,1.000
3.197,5.630,6.829,1.653,3.776,8.924,6.140,5.545,-0.014,0.971,-0.144,0.153,-0.641,1.221,66.667,712586.000,1.000
1.443,5.229,6.234,0.739,3.479,7.119,6.003,6.221,-0.017,0.969,-0.145,0.092,-0.702,1.038,66.667,712587.000,1.000
-0.362,3.961,4.937,-1.008,1.934,3.345,2.461,5.757,-0.017,0.971,-0.145,0.153,-0.824,0.763,66.667,712588.000,1.000
-1.193,2.844,4.069,-2.670,0.204,-0.973,-2.807,4.487,-0.016,0.972,-0.145,0.061,-0.763,0.641,66.667,712589.000,1.000
-0.623,2.814,4.494,-3.377,-0.488,-4.238,-6.901,3.385,-0.015,0.970,-0.143,0.153,-0.946,0.458,66.667,712590.000,1.000
1.112,4.259,6.436,-2.681,0.672,-4.998,-7.248,3.566,-0.013,0.972,-0.144,0.183,-1.007,0.397,66.667,712591.000,1.000
3.075,6.418,9.039,-1.016,3.183,-3.211,-3.849,5.024,-0.010,0.976,-0.144,0.244,-0.946,0.488,66.667,712592.000,1.000
4.082,7.805,10.795,0.600,5.503,-0.461,0.731,6.659,-0.011,0.977,-0.144,0.183,-0.946,0.397,66.667,712593.000,1.000
3.666,7.625,10.809,1.548,6.513,1.688,3.834,7.566,-0.010,0.977,-0.144,0.122,-0.946,0.397,66.667,712594.000,1.000
2.571,6.584,9.602,2.149,6.478,3.140,4.819,7.830,-0.010,0.979,-0.146,0.183,-0.854,0.458,66.667,712595.000,1.000
2.130,6.208,8.607,3.238,6.522,4.744,4.900,8.151,-0.008,0.979,-0.143,0.092,-0.916,0.610,66.667,712596.000,1.000
3.218,7.522,9.050,5.394,7.479,6.857,5.542,9.129,-0.009,0.979,-0.146,0.000,-0.824,0.702,66.667,712597.000,1.000
5.733,10.348,11.192,8.535,9.365,8.992,7.352,10.886,-0.009,0.980,-0.147,-0.061,-0.885,0.854,66.667,712598.000,1.000
8.747,13.539,14.262,11.952,11.582,10.499,9.940,13.014,-0.008,0.980,-0.146,-0.061,-0.763,1.068,66.667,712599.000,1.000
11.072,15.687,16.911,14.657,13.307,10.879,12.103,14.772,-0.009,0.979,-0.144,0.000,-0.793,1.099,66.667,712600.000,1.000
11.904,15.901,17.979,15.881,13.894,9.796,12.593,15.565,-0.009,0.979,-0.146,-0.092,-0.854,1.190,66.667,712601.000,1.000
11.258,14.410,17.168,15.476,13.332,7.579,11.275,15.403,-0.009,0.979,-0.145,-0.092,-0.793,1.221,66.667,712602.000,1.000
9.764,12.387,15.066,13.798,12.206,5.367,9.111,14.697,-0.011,0.976,-0.146,-0.122,-0.702,1.251,66.667,712603.000,1.000
8.029,10.926,12.461,11.250,10.998,4.083,6.858,13.553,-0.009,0.977,-0.142,-0.153,-0.702,1.312,66.667,712604.000,1.000
6.273,10.210,9.806,8.097,9.622,3.607,4.534,11.649,-0.011,0.978,-0.139,-0.153,-0.824,1.465,66.667,712605.000,1.000
4.590,9.759,7.332,4.745,7.817,3.323,2.165,8.910,-0.012,0.977,-0.143,-0.244,-0.732,1.526,66.667,712606.000,1.000
3.353,9.310,5.498,1.998,5.876,3.116,0.275,6.142,-0.010,0.977,-0.144,-0.183,-0.732,1.373,66.667,712607.000,1.000
3.101,9.181,4.979,0.826,4.775,3.564,-0.228,4.950,-0.011,0.977,-0.146,-0.305,-0.732,1.373,66.667,712608.000,1.000
4.015,9.732,6.084,1.674,5.437,5.320,1.555,6.694,-0.010,0.978,-0.144,-0.275,-0.824,1.434,66.667,712609.000,1.000
5.620,10.706,8.226,3.946,7.725,8.188,5.462,10.894,-0.011,0.977,-0.144,-0.275,-0.824,1.312,66.667,712610.000,1.000
6.986,11.232,10.089,6.217,10.248,10.810,9.542,14.934,-0.009,0.975,-0.141,-0.275,-0.793,1.251,66.667,712611.000,1.000
7.249,10.529,10.439,7.149,11.417,11.698,11.364,16.128,-0.009,0.974,-0.141,-0.366,-0.793,1.129,66.667,712612.000,1.000
6.098,8.488,8.817,6.237,10.566,10.415,10.043,13.811,-0.009,0.974,-0.144,-0.244,-0.854,1.038,66.667,712613.000,1.000
3.819,5.541,5.544,3.792,8.013,7.577,6.470,9.254,-0.008,0.970,-0.146,-0.244,-0.854,1.099,66.667,712614.000,1.000
0.952,2.280,1.361,0.538,4.525,4.229,2.133,4.399,-0.007,0.969,-0.144,-0.244,-0.824,1.038,66.667,712615.000,1.000
-1.959,-0.680,-2.796,-2.648,1.043,1.441,-1.692,0.921,-0.008,0.970,-0.143,-0.153,-0.854,0.946,66.667,712616.000,1.000
-4.286,-2.728,-5.927,-4.912,-1.498,-0.033,-4.180,-0.307,-0.009,0.970,-0.143,-0.092,-0.885,0.916,66.667,712617.000,1.000
-5.350,-3.485,-7.286,-5.722,-2.591,-0.094,-5.129,0.436,-0.009,0.969,-0.143,-0.122,-0.824,0.793,66.667,712618.000,1.000
-4.848,-3.072,-6.758,-5.133,-2.485,0.783,-4.854,1.997,-0.010,0.969,-0.140,-0.061,-0.824,0.702,66.667,712619.000,1.000
-3.197,-2.065,-4.957,-3.752,-1.977,1.998,-3.750,3.276,-0.013,0.970,-0.144,0.000,-0.854,0.702,66.667,712620.000,1.000
-1.343,-1.195,-2.983,-2.470,-1.945,2.988,-2.110,3.819,-0.011,0.971,-0.144,0.031,-0.854,0.702,66.667,712621.000,1.000
-0.192,-1.025,-1.896,-2.048,-2.960,3.098,-0.352,3.570,-0.009,0.971,-0.141,0.122,-0.885,0.549,66.667,712622.000,1.000
-0.120,-1.712,-2.179,-2.723,-5.024,1.819,0.876,2.507,-0.010,0.972,-0.145,0.153,-0.916,0.519,66.667,712623.000,1.000
-0.974,-3.076,-3.670,-4.228,-7.721,-0.871,0.662,0.553,-0.011,0.972,-0.145,0.214,-0.824,0.366,66.667,712624.000,1.000
-2.408,-4.899,-5.913,-6.149,-10.602,-4.639,-1.947,-2.277,-0.010,0.975,-0.143,0.183,-0.885,0.427,66.667,712625.000,1.000
-4.061,-7.008,-8.383,-8.073,-13.246,-8.894,-6.935,-5.522,-0.010,0.974,-0.142,0.153,-0.977,0.458,66.667,712626.000,1.000
-5.490,-9.093,-10.480,-9.543,-15.135,-12.573,-12.629,-8.223,-0.014,0.974,-0.142,0.122,-1.068,0.458,66.667,712627.000,1.000
-6.209,-10.659,-11.666,-10.216,-15.896,-14.352,-16.629,-9.614,-0.013,0.972,-0.141,0.153,-1.038,0.519,66.667,712628.000,1.000
-5.937,-11.267,-11.721,-10.082,-15.603,-13.405,-17.315,-9.795,-0.013,0.975,-0.140,0.244,-1.160,0.488,66.667,712629.000,1.000
-4.818,-10.788,-10.809,-9.399,-14.603,-9.975,-14.404,-9.411,-0.011,0.977,-0.138,0.183,-1.251,0.366,66.667,712630.000,1.000
-3.415,-9.524,-9.433,-8.568,-13.274,-5.395,-8.850,-8.948,-0.013,0.978,-0.137,0.061,-1.312,0.427,66.667,712631.000,1.000
-2.457,-8.137,-8.366,-8.153,-12.114,-1.700,-2.937,-8.767,-0.012,0.978,-0.140,-0.031,-1.251,0.488,66.667,712632.000,1.000
-2.404,-7.264,-8.297,-8.675,-11.716,-0.672,0.335,-9.340,-0.013,0.978,-0.143,-0.031,-1.282,0.488,66.667,712633.000,1.000
-3.110,-7.049,-9.262,-10.088,-12.239,-2.549,-0.641,-10.691,-0.013,0.976,-0.142,-0.092,-1.404,0.427,66.667,712634.000,1.000
-4.010,-7.237,-10.632,-11.701,-13.150,-5.841,-4.607,-11.981,-0.013,0.977,-0.143,-0.122,-1.343,0.549,66.667,712635.000,1.000
-4.753,-7.790,-11.867,-12.852,-13.896,-8.830,-8.805,-12.312,-0.015,0.977,-0.139,-0.122,-1.434,0.549,66.667,712636.000,1.000
-5.487,-9.044,-13.002,-13.435,-14.465,-10.862,-11.358,-11.714,-0.013,0.976,-0.142,-0.153,-1.404,0.671,66.667,712637.000,1.000
-6.499,-11.092,-14.185,-13.632,-14.959,-11.969,-11.829,-10.916,-0.015,0.976,-0.142,-0.183,-1.556,0.641,66.667,712638.000,1.000
-7.761,-13.309,-15.115,-13.463,-15.086,-12.115,-10.472,-10.447,-0.015,0.975,-0.143,-0.244,-1.526,0.671,66.667,712639.000,1.000
-8.874,-14.674,-15.194,-12.777,-14.479,-11.369,-7.933,-10.344,-0.016,0.976,-0.142,-0.244,-1.556,0.702,66.667,712640.000,1.000
-9.376,-14.480,-14.091,-11.531,-13.195,-10.100,-5.157,-10.398,-0.015,0.975,-0.143,-0.275,-1.648,0.732,66.667,712641.000,1.000
-9.117,-12.775,-12.056,-9.916,-11.578,-8.565,-2.719,-10.208,-0.015,0.978,-0.141,-0.305,-1.617,0.824,66.667,712642.000,1.000
-8.366,-10.318,-9.836,-8.330,-9.935,-6.891,-0.518,-9.305,-0.012,0.977,-0.139,-0.305,-1.617,0.916,66.667,712643.000,1.000
-7.632,-8.218,-8.324,-7.308,-8.621,-5.606,1.255,-7.800,-0.012,0.977,-0.142,-0.305,-1.434,0.885,66.667,712644.000,1.000
-7.333,-7.359,-8.096,-7.294,-8.049,-5.412,1.541,-6.641,-0.011,0.976,-0.142,-0.366,-1.373,0.977,66.667,712645.000,1.000
-7.589,-7.882,-9.066,-8.301,-8.346,-6.310,-0.373,-6.806,-0.011,0.977,-0.142,-0.427,-1.404,0.946,66.667,712646.000,1.000
-8.266,-9.190,-10.581,-9.849,-9.170,-7.495,-3.720,-8.482,-0.010,0.977,-0.143,-0.610,-1.404,1.038,66.667,712647.000,1.000
-9.208,-10.480,-11.941,-11.305,-9.995,-8.061,-6.807,-11.009,-0.009,0.978,-0.141,-0.458,-1.282,1.007,66.667,712648.000,1.000
-10.354,-11.258,-12.818,-12.256,-10.418,-7.610,-8.249,-13.259,-0.010,0.978,-0.142,-0.519,-1.251,1.099,66.667,712649.000,1.000
-11.583,-11.435,-13.223,-12.619,-10.229,-6.445,-7.741,-14.166,-0.008,0.977,-0.142,-0.549,-1.099,1.190,66.667,712650.000,1.000
-12.475,-11.111,-13.175,-12.474,-9.396,-5.334,-6.022,-13.347,-0.009,0.976,-0.140,-0.641,-1.007,1.282,66.667,712651.000,1.000
-12.351,-10.333,-12.490,-11.856,-7.966,-4.746,-3.982,-11.359,-0.008,0.976,-0.142,-0.641,-0.946,1.251,66.667,712652.000,1.000
-10.669,-9.017,-10.891,-10.646,-5.875,-4.160,-1.609,-9.056,-0.008,0.976,-0.143,-0.732,-0.854,1.373,66.667,712653.000,1.000
-7.492,-7.079,-8.340,-8.702,-3.006,-2.486,1.747,-6.799,-0.009,0.975,-0.140,-0.702,-0.824,1.282,66.667,712654.000,1.000
-3.690,-4.725,-5.364,-6.212,0.316,0.535,5.990,-4.588,-0.009,0.973,-0.142,-0.702,-0.732,1.343,66.667,712655.000,1.000
-0.649,-2.549,-2.955,-3.789,3.196,3.814,9.983,-2.535,-0.009,0.973,-0.142,-0.732,-0.671,1.465,66.667,712656.000,1.000
0.381,-1.270,-1.999,-2.098,4.750,6.046,12.615,-0.896,-0.010,0.974,-0.144,-0.732,-0.641,1.434,66.667,712657.000,1.000
-1.176,-1.505,-2.913,-1.555,4.481,6.665,13.262,-0.009,-0.010,0.975,-0.141,-0.824,-0.519,1.373,66.667,712658.000,1.000
-4.944,-3.500,-5.559,-2.246,2.262,5.483,11.357,-0.246,-0.008,0.972,-0.139,-0.732,-0.366,1.343,66.667,712659.000,1.000
-9.489,-6.628,-9.014,-3.677,-1.322,2.508,6.766,-1.498,-0.009,0.974,-0.139,-0.763,-0.244,1.282,66.667,712660.000,1.000
-12.743,-9.358,-11.668,-4.691,-4.747,-1.420,0.774,-2.817,-0.009,0.975,-0.142,-0.610,-0.183,1.465,66.667,712661.000,1.000
-13.002,-10.109,-12.032,-4.105,-6.307,-4.646,-4.303,-3.015,-0.009,0.974,-0.139,-0.641,-0.061,1.373,66.667,712662.000,1.000
-9.832,-8.246,-9.599,-1.519,-5.200,-5.789,-6.580,-1.533,-0.008,0.974,-0.138,-0.671,0.000,1.282,66.667,712663.000,1.000
-4.266,-4.337,-5.073,2.445,-1.900,-4.562,-5.495,1.321,-0.008,0.972,-0.140,-0.610,0.153,1.373,66.667,712664.000,1.000
1.824,0.304,0.083,6.528,2.331,-1.582,-1.875,4.588,-0.010,0.973,-0.145,-0.549,0.275,1.343,66.667,712665.000,1.000
6.755,4.366,4.475,9.528,6.184,2.127,2.585,7.151,-0.009,0.973,-0.144,-0.397,0.275,1.404,66.667,712666.000,1.000
9.763,7.070,7.448,10.871,8.835,5.334,6.114,8.344,-0.008,0.973,-0.142,-0.427,0.336,1.404,66.667,712667.000,1.000
11.067,8.358,9.214,10.799,10.169,6.990,7.676,8.295,-0.008,0.976,-0.140,-0.336,0.427,1.434,66.667,712668.000,1.000
11.445,8.777,10.472,10.149,10.742,6.979,7.599,7.851,-0.010,0.976,-0.139,-0.427,0.519,1.312,66.667,712669.000,1.000
11.662,9.055,11.770,9.809,11.379,6.243,7.481,8.183,-0.010,0.977,-0.138,-0.366,0.549,1.312,66.667,712670.000,1.000
12.031,9.485,13.020,10.087,12.428,5.804,8.838,9.949,-0.012,0.975,-0.140,-0.275,0.580,1.221,66.667,712671.000,1.000
12.433,9.758,13.630,10.565,13.369,5.795,11.389,12.403,-0.012,0.975,-0.141,-0.336,0.549,1.221,66.667,712672.000,1.000
12.776,9.526,13.267,10.665,13.389,5.772,13.371,13.845,-0.011,0.977,-0.143,-0.244,0.488,1.221,66.667,712673.000,1.000
13.277,8.962,12.332,10.243,12.289,5.654,13.631,13.189,-0.010,0.976,-0.142,-0.275,0.549,1.251,66.667,712674.000,1.000
14.189,8.540,11.546,9.493,10.536,5.708,12.363,10.525,-0.011,0.977,-0.141,-0.336,0.519,1.251,66.667,712675.000,1.000
15.433,8.518,11.306,8.612,8.722,5.852,10.222,6.579,-0.012,0.977,-0.139,-0.305,0.427,1.190,66.667,712676.000,1.000
16.641,8.843,11.575,7.796,7.320,5.664,7.808,2.415,-0.013,0.977,-0.141,-0.366,0.305,1.312,66.667,712677.000,1.000
17.394,9.269,12.043,7.228,6.563,4.747,5.487,-0.875,-0.014,0.977,-0.142,-0.305,0.214,1.221,66.667,712678.000,1.000
17.390,9.444,12.260,6.931,6.305,2.920,3.276,-2.669,-0.015,0.979,-0.142,-0.275,0.092,1.251,66.667,712679.000,1.000
16.553,9.142,11.855,6.788,6.274,0.648,1.342,-2.905,-0.012,0.978,-0.141,-0.244,0.031,1.129,66.667,712680.000,1.000
14.993,8.402,10.704,6.626,6.308,-1.021,0.185,-2.057,-0.011,0.976,-0.140,-0.275,0.092,1.129,66.667,712681.000,1.000
12.946,7.371,8.936,6.257,6.290,-1.447,0.023,-1.018,-0.012,0.977,-0.140,-0.275,0.092,1.343,66.667,712682.000,1.000
10.748,6.162,6.936,5.638,6.154,-0.984,0.624,-0.452,-0.013,0.977,-0.142,-0.214,0.092,1.221,66.667,712683.000,1.000
8.705,4.812,5.229,4.950,5.903,-0.586,1.556,-0.411,-0.010,0.977,-0.140,-0.214,0.061,1.282,66.667,712684.000,1.000
6.960,3.344,4.220,4.476,5.528,-0.989,2.174,-0.731,-0.010,0.975,-0.141,-0.244,0.000,1.312,66.667,712685.000,1.000
5.689,2.036,4.170,4.557,5.103,-2.029,1.899,-1.211,-0.009,0.975,-0.138,-0.336,-0.061,1.373,66.667,712686.000,1.000
5.331,1.531,5.350,5.570,4.923,-2.770,0.708,-1.398,-0.010,0.976,-0.141,-0.153,-0.153,1.404,66.667,712687.000,1.000
6.306,2.333,7.791,7.614,5.205,-2.593,-0.876,-0.762,-0.010,0.976,-0.143,-0.275,-0.092,1.404,66.667,712688.000,1.000
8.447,4.192,10.872,10.209,5.737,-1.942,-2.039,0.838,-0.009,0.973,-0.142,-0.214,-0.061,1.251,66.667,712689.000,1.000
11.021,6.231,13.565,12.482,6.027,-1.651,-2.036,2.922,-0.012,0.972,-0.142,-0.183,-0.122,1.282,66.667,712690.000,1.000
13.219,7.610,15.099,13.664,5.685,-1.919,-0.989,4.459,-0.012,0.974,-0.143,-0.092,-0.122,1.343,66.667,712691.000,1.000
14.482,7.986,15.324,13.451,4.687,-2.317,-0.069,4.550,-0.010,0.973,-0.142,-0.122,-0.214,1.312,66.667,712692.000,1.000
14.568,7.536,14.579,12.101,3.435,-2.489,-0.276,3.259,-0.011,0.974,-0.140,-0.183,-0.214,1.129,66.667,712693.000,1.000
13.595,6.762,13.408,10.248,2.499,-2.492,-1.478,1.513,-0.010,0.975,-0.140,-0.122,-0.305,1.221,66.667,712694.000,1.000
12.036,6.277,12.398,8.653,2.353,-2.405,-2.559,0.423,-0.010,0.973,-0.140,-0.092,-0.244,1.312,66.667,712695.000,1.000
10.489,6.569,12.062,7.940,3.305,-1.843,-1.940,0.937,-0.009,0.974,-0.141,0.031,-0.183,1.251,66.667,712696.000,1.000
9.309,7.712,12.559,8.282,5.327,-0.153,1.396,3.443,-0.008,0.977,-0.143,-0.122,-0.214,1.312,66.667,712697.000,1.000
8.444,9.297,13.496,9.225,7.859,2.948,6.650,7.167,-0.008,0.977,-0.142,-0.031,-0.244,1.190,66.667,712698.000,1.000
7.644,10.699,14.184,9.975,9.978,6.912,11.284,10.311,-0.009,0.975,-0.140,-0.061,-0.214,1.221,66.667,712699.000,1.000
6.757,11.471,14.121,9.972,10.993,10.472,12.778,11.268,-0.009,0.975,-0.142,0.000,-0.305,1.251,66.667,712700.000,1.000
5.879,11.625,13.316,9.323,10.954,12.412,10.477,9.913,-0.010,0.974,-0.142,0.061,-0.366,1.282,66.667,712701.000,1.000
5.291,11.616,12.271,8.734,10.627,12.392,6.018,7.765,-0.012,0.976,-0.140,0.092,-0.366,1.312,66.667,712702.000,1.000
5.156,11.859,11.547,8.876,10.814,11.092,2.346,6.767,-0.013,0.976,-0.144,0.031,-0.336,1.099,66.667,712703.000,1.000
5.212,12.187,11.175,9.714,11.614,9.668,2.043,7.777,-0.012,0.976,-0.141,0.031,-0.427,1.129,66.667,712704.000,1.000
4.847,11.874,10.606,10.481,12.362,8.853,5.560,10.075,-0.011,0.978,-0.138,0.000,-0.519,1.129,66.667,712705.000,1.000
3.502,10.266,9.262,10.314,12.217,8.465,10.756,12.166,-0.012,0.977,-0.138,-0.061,-0.519,0.946,66.667,712706.000,1.000
1.074,7.431,7.093,8.944,10.951,8.008,14.845,13.075,-0.011,0.978,-0.138,-0.122,-0.488,1.068,66.667,712707.000,1.000
-1.915,4.257,4.657,6.849,9.143,7.436,16.444,12.812,-0.013,0.978,-0.138,-0.153,-0.580,1.099,66.667,712708.000,1.000
-4.563,1.912,2.744,4.808,7.527,6.963,15.412,11.691,-0.012,0.976,-0.138,-0.122,-0.793,1.099,66.667,712709.000,1.000
-6.145,1.123,1.898,3.349,6.410,6.662,12.164,9.835,-0.013,0.975,-0.138,-0.244,-0.732,1.068,66.667,712710.000,1.000
-6.562,1.779,2.099,2.505,5.648,6.451,7.709,7.403,-0.010,0.974,-0.139,-0.153,-0.763,0.977,66.667,712711.000,1.000
-6.327,3.008,2.726,1.910,4.791,6.026,3.189,4.683,-0.010,0.973,-0.141,-0.153,-0.732,1.160,66.667,712712.000,1.000
-6.156,3.725,2.929,1.120,3.373,5.103,-0.621,1.993,-0.010,0.971,-0.140,-0.122,-0.793,1.160,66.667,712713.000,1.000
-6.471,3.377,2.303,0.024,1.456,4.040,-3.046,-0.194,-0.009,0.970,-0.141,-0.031,-0.854,1.190,66.667,712714.000,1.000
-7.219,2.099,1.142,-1.089,-0.352,3.442,-3.646,-1.362,-0.008,0.972,-0.141,0.061,-0.702,1.190,66.667,712715.000,1.000
-8.162,0.222,-0.071,-1.996,-1.591,3.096,-2.782,-1.454,-0.005,0.976,-0.139,0.122,-0.793,1.160,66.667,712716.000,1.000
-9.147,-1.970,-1.142,-2.809,-2.274,2.248,-1.227,-0.821,-0.007,0.978,-0.141,0.153,-0.732,1.190,66.667,712717.000,1.000
-10.133,-4.069,-2.090,-3.718,-2.538,0.789,0.658,0.308,-0.008,0.979,-0.139,0.000,-0.763,1.160,66.667,712718.000,1.000
-11.138,-5.606,-2.925,-4.626,-2.463,-0.660,2.678,1.842,-0.010,0.980,-0.139,-0.092,-0.702,1.404,66.667,712719.000,1.000
-12.140,-6.285,-3.529,-5.126,-2.146,-1.453,4.284,3.447,-0.011,0.979,-0.140,-0.061,-0.732,1.221,66.667,712720.000,1.000
-13.008,-6.102,-3.724,-4.781,-1.707,-1.216,4.933,4.641,-0.012,0.979,-0.140,-0.122,-0.824,1.312,66.667,712721.000,1.000
-13.546,-5.330,-3.471,-3.455,-1.226,0.175,4.582,5.213,-0.011,0.979,-0.140,-0.214,-0.763,1.251,66.667,712722.000,1.000
-13.658,-4.454,-2.983,-1.507,-0.779,2.525,3.583,5.241,-0.009,0.978,-0.140,-0.336,-0.671,1.160,66.667,712723.000,1.000
-13.366,-3.968,-2.556,0.346,-0.491,5.307,2.264,4.740,-0.006,0.979,-0.140,-0.366,-0.610,1.099,66.667,712724.000,1.000
-12.575,-4.066,-2.243,1.526,-0.462,7.687,0.716,3.674,-0.006,0.979,-0.140,-0.427,-0.732,1.038,66.667,712725.000,1.000
-10.982,-4.476,-1.779,2.040,-0.600,8.832,-0.894,2.339,-0.005,0.976,-0.141,-0.549,-0.702,1.007,66.667,712726.000,1.000
-8.384,-4.661,-0.900,2.334,-0.600,8.654,-2.001,1.327,-0.005,0.973,-0.141,-0.519,-0.610,1.007,66.667,712727.000,1.000
-5.009,-4.256,0.281,2.705,-0.252,7.869,-2.015,0.984,-0.005,0.970,-0.142,-0.519,-0.488,1.099,66.667,712728.000,1.000
-1.437,-3.283,1.305,3.024,0.381,7.229,-0.814,1.178,-0.004,0.969,-0.138,-0.488,-0.336,1.160,66.667,712729.000,1.000
1.763,-1.891,1.841,3.059,1.233,7.418,1.359,1.701,-0.002,0.966,-0.141,-0.427,-0.153,1.160,66.667,712730.000,1.000
4.230,-0.126,1.988,2.817,2.348,9.120,3.984,2.507,-0.004,0.965,-0.143,-0.336,-0.092,1.221,66.667,712731.000,1.000
5.774,1.819,2.029,2.467,3.535,11.964,6.091,3.428,-0.005,0.967,-0.143,-0.275,0.031,1.190,66.667,712732.000,1.000
6.360,3.452,2.082,2.141,4.278,14.094,6.699,4.065,-0.004,0.970,-0.148,-0.122,0.214,1.312,66.667,712733.000,1.000
6.203,4.378,2.148,1.903,4.287,13.939,5.662,4.032,-0.003,0.970,-0.143,-0.153,0.366,1.404,66.667,712734.000,1.000
5.672,4.582,2.202,1.698,3.792,11.824,3.809,3.192,-0.003,0.973,-0.142,-0.061,0.397,1.465,66.667,712735.000,1.000
4.955,4.182,2.084,1.301,3.164,9.287,2.285,1.781,-0.004,0.973,-0.144,-0.092,0.519,1.556,66.667,712736.000,1.000
4.010,3.284,1.590,0.511,2.599,7.538,1.814,0.307,-0.006,0.976,-0.143,-0.092,0.519,1.587,66.667,712737.000,1.000
2.870,2.168,0.799,-0.520,2.313,6.991,2.622,-0.642,-0.007,0.978,-0.143,-0.061,0.549,1.526,66.667,712738.000,1.000
1.835,1.376,0.140,-1.269,2.713,7.594,4.573,-0.505,-0.010,0.980,-0.143,-0.092,0.580,1.587,66.667,712739.000,1.000
1.340,1.407,0.051,-1.210,4.076,8.964,6.947,1.028,-0.013,0.984,-0.141,-0.092,0.549,1.526,66.667,712740.000,1.000
1.546,2.265,0.550,-0.257,6.123,10.426,8.646,3.657,-0.015,0.986,-0.140,-0.244,0.488,1.404,66.667,712741.000,1.000
2.107,3.388,1.195,1.139,8.065,11.375,8.868,6.371,-0.016,0.987,-0.137,-0.427,0.214,1.221,66.667,712742.000,1.000
2.409,3.974,1.358,2.261,8.924,11.432,7.266,7.852,-0.017,0.986,-0.137,-0.610,0.061,1.221,66.667,712743.000,1.000
2.026,3.424,0.535,2.452,7.909,10.266,3.953,7.245,-0.017,0.988,-0.138,-0.824,-0.092,1.068,66.667,712744.000,1.000
0.982,1.657,-1.341,1.458,4.883,7.834,-0.141,4.744,-0.018,0.989,-0.135,-1.007,-0.092,1.007,66.667,712745.000,1.000
-0.357,-0.891,-3.820,-0.414,0.522,4.769,-3.447,1.318,-0.015,0.988,-0.138,-1.129,-0.244,0.885,66.667,712746.000,1.000
-1.561,-3.576,-6.245,-2.534,-4.150,1.900,-4.990,-2.134,-0.013,0.988,-0.143,-1.373,-0.488,0.946,66.667,712747.000,1.000
-2.381,-5.933,-8.135,-4.335,-8.317,-0.619,-5.337,-5.236,-0.010,0.986,-0.140,-1.434,-0.641,0.977,66.667,712748.000,1.000
-2.852,-7.798,-9.336,-5.502,-11.584,-3.329,-6.006,-7.847,-0.006,0.984,-0.137,-1.556,-0.671,0.946,66.667,712749.000,1.000
-3.194,-9.201,-9.981,-6.008,-13.901,-6.757,-8.026,-9.759,-0.008,0.983,-0.137,-1.770,-0.610,0.916,66.667,712750.000,1.000
-3.532,-10.115,-10.261,-6.055,-15.321,-10.726,-11.144,-10.780,-0.006,0.984,-0.137,-1.892,-0.610,1.038,66.667,712751.000,1.000
-3.664,-10.300,-10.144,-5.827,-15.705,-14.106,-14.097,-10.840,-0.006,0.982,-0.138,-1.892,-0.610,1.282,66.667,712752.000,1.000
-3.320,-9.560,-9.472,-5.333,-14.844,-15.531,-15.505,-10.065,-0.008,0.983,-0.136,-1.984,-0.610,1.251,66.667,712753.000,1.000
-2.554,-8.108,-8.251,-4.474,-12.852,-14.513,-14.621,-8.816,-0.006,0.980,-0.136,-2.014,-0.549,1.312,66.667,712754.000,1.000
-1.718,-6.420,-6.630,-3.104,-10.113,-11.505,-11.335,-7.351,-0.008,0.977,-0.140,-2.045,-0.580,1.404,66.667,712755.000,1.000
-1.191,-4.856,-4.831,-1.201,-7.033,-7.287,-6.208,-5.678,-0.010,0.975,-0.139,-1.984,-0.519,1.465,66.667,712756.000,1.000
-1.238,-3.533,-3.200,0.903,-4.044,-2.824,-1.040,-4.070,-0.010,0.973,-0.135,-1.984,-0.610,1.434,66.667,712757.000,1.000
-1.917,-2.369,-2.069,2.710,-1.529,0.888,1.846,-3.050,-0.011,0.973,-0.133,-1.953,-0.702,1.465,66.667,712758.000,1.000
-2.991,-1.174,-1.502,4.029,0.421,3.370,1.550,-2.697,-0.012,0.974,-0.135,-1.740,-0.580,1.373,66.667,712759.000,1.000
-3.986,0.143,-1.300,5.070,1.923,4.578,-0.925,-2.608,-0.011,0.973,-0.135,-1.740,-0.641,1.373,66.667,712760.000,1.000
-4.491,1.316,-1.245,6.050,2.972,4.264,-3.959,-2.571,-0.011,0.973,-0.134,-1.678,-0.641,1.282,66.667,712761.000,1.000
-4.370,1.804,-1.207,6.894,3.416,2.201,-6.365,-2.745,-0.011,0.972,-0.134,-1.617,-0.763,1.373,66.667,712762.000,1.000
-3.671,1.285,-1.047,7.412,3.262,-0.998,-7.629,-3.193,-0.009,0.972,-0.135,-1.434,-0.732,1.251,66.667,712763.000,1.000
-2.527,0.016,-0.618,7.591,2.799,-3.951,-7.867,-3.582,-0.008,0.971,-0.134,-1.465,-0.824,1.160,66.667,712764.000,1.000
-1.221,-1.372,0.033,7.553,2.418,-5.449,-7.541,-3.448,-0.007,0.971,-0.136,-1.343,-0.793,1.160,66.667,712765.000,1.000
-0.151,-2.333,0.575,7.314,2.330,-5.131,-7.023,-2.664,-0.008,0.970,-0.133,-1.129,-0.854,1.068,66.667,712766.000,1.000
0.486,-2.591,0.715,6.823,2.552,-3.354,-6.360,-1.537,-0.007,0.969,-0.132,-1.007,-0.763,1.099,66.667,712767.000,1.000
0.865,-2.036,0.570,6.186,3.087,-0.696,-5.369,-0.471,-0.009,0.969,-0.135,-0.763,-0.732,0.946,66.667,712768.000,1.000
1.247,-0.717,0.524,5.628,3.922,2.247,-4.146,0.249,-0.007,0.968,-0.134,-0.702,-0.763,1.099,66.667,712769.000,1.000
1.712,1.065,0.820,5.272,4.918,4.800,-3.186,0.528,-0.009,0.968,-0.135,-0.549,-0.671,1.007,66.667,712770.000,1.000
2.230,2.852,1.418,5.113,5.853,6.321,-2.643,0.534,-0.008,0.968,-0.133,-0.458,-0.549,0.977,66.667,712771.000,1.000
2.812,4.287,2.194,5.110,6.538,6.476,-2.106,0.582,-0.008,0.969,-0.132,-0.336,-0.458,0.916,66.667,712772.000,1.000
3.515,5.223,3.084,5.179,6.759,5.174,-1.642,0.760,-0.008,0.968,-0.133,-0.122,-0.427,0.946,66.667,712773.000,1.000
4.309,5.574,4.008,5.139,6.225,2.274,-2.320,0.786,-0.009,0.968,-0.137,-0.031,-0.488,0.946,66.667,712774.000,1.000
5.061,5.309,4.858,4.879,4.897,-2.072,-4.941,0.446,-0.007,0.970,-0.136,0.092,-0.366,0.977,66.667,712775.000,1.000
5.693,4.695,5.652,4.598,3.339,-6.727,-8.734,0.060,-0.006,0.969,-0.136,0.244,-0.275,0.977,66.667,712776.000,1.000
6.140,4.182,6.410,4.610,2.350,-10.010,-11.914,0.076,-0.006,0.970,-0.135,0.366,-0.214,0.946,66.667,712777.000,1.000
6.103,3.901,6.830,4.865,2.225,-10.983,-13.046,0.362,-0.006,0.970,-0.138,0.488,-0.122,0.946,66.667,712778.000,1.000
5.225,3.654,6.484,4.972,2.715,-9.820,-11.541,0.464,-0.007,0.971,-0.133,0.519,-0.122,0.946,66.667,712779.000,1.000
3.603,3.348,5.408,4.637,3.457,-7.244,-7.901,0.167,-0.007,0.973,-0.132,0.458,-0.061,0.946,66.667,712780.000,1.000
1.810,3.067,4.153,3.779,3.988,-4.284,-4.000,-0.711,-0.008,0.975,-0.134,0.580,-0.031,1.068,66.667,712781.000,1.000
0.465,2.925,3.374,2.481,3.832,-2.116,-1.895,-2.238,-0.008,0.980,-0.134,0.427,0.031,1.160,66.667,712782.000,1.000
-0.093,3.033,3.487,1.038,2.950,-1.449,-1.998,-3.813,-0.010,0.978,-0.135,0.458,0.061,1.221,66.667,712783.000,1.000
0.071,3.356,4.391,-0.231,1.728,-2.236,-3.285,-4.516,-0.010,0.978,-0.134,0.366,0.000,1.312,66.667,712784.000,1.000
0.621,3.686,5.524,-1.182,0.627,-3.958,-4.744,-3.947,-0.009,0.979,-0.134,0.305,0.092,1.282,66.667,712785.000,1.000
1.307,3.973,6.442,-1.690,0.114,-5.788,-5.664,-2.257,-0.010,0.980,-0.136,0.183,0.153,1.251,66.667,712786.000,1.000
2.118,4.410,7.152,-1.584,0.552,-6.785,-5.514,0.112,-0.010,0.983,-0.137,0.031,0.092,1.221,66.667,712787.000,1.000
3.009,4.969,7.761,-0.965,1.754,-6.492,-4.431,2.403,-0.012,0.986,-0.137,-0.153,0.000,1.251,66.667,712788.000,1.000
3.757,5.182,8.151,-0.297,2.948,-5.393,-3.277,3.792,-0.012,0.986,-0.135,-0.214,-0.031,1.282,66.667,712789.000,1.000
4.235,4.650,8.208,0.051,3.441,-4.516,-2.813,3.981,-0.013,0.984,-0.132,-0.336,-0.092,1.190,66.667,712790.000,1.000
4.628,3.558,8.059,0.200,3.222,-4.380,-2.951,3.471,-0.015,0.984,-0.132,-0.488,-0.122,1.221,66.667,712791.000,1.000
5.208,2.521,7.913,0.573,2.852,-4.523,-2.806,3.214,-0.014,0.983,-0.134,-0.610,-0.244,1.251,66.667,712792.000,1.000
5.993,2.061,7.785,1.447,2.953,-4.030,-1.172,4.070,-0.012,0.979,-0.135,-0.763,-0.244,1.282,66.667,712793.000,1.000
6.728,2.382,7.524,2.733,3.871,-2.220,2.866,6.424,-0.012,0.978,-0.137,-0.793,-0.244,1.251,66.667,712794.000,1.000
7.029,3.273,6.885,3.921,5.379,0.687,8.633,9.695,-0.008,0.977,-0.137,-0.854,-0.305,1.221,66.667,712795.000,1.000
6.456,4.015,5.490,4.162,6.477,3.242,13.311,12.240,-0.005,0.977,-0.137,-0.885,-0.183,1.190,66.667,712796.000,1.000
4.839,3.866,3.121,2.865,6.093,3.843,14.023,12.538,-0.006,0.978,-0.136,-0.763,-0.122,1.404,66.667,712797.000,1.000
2.691,2.850,0.237,0.399,4.189,2.239,10.412,10.600,-0.004,0.978,-0.136,-0.702,-0.061,1.434,66.667,712798.000,1.000
0.992,1.729,-2.146,-2.091,1.778,-0.377,4.578,7.620,-0.004,0.975,-0.138,-0.885,0.061,1.343,66.667,712799.000,1.000
0.364,1.152,-3.264,-3.640,-0.112,-2.490,-0.835,4.622,-0.004,0.975,-0.138,-0.854,0.092,1.556,66.667,712800.000,1.000
0.587,1.130,-3.171,-4.096,-1.183,-3.304,-4.021,2.052,-0.001,0.976,-0.140,-0.671,0.214,1.709,66.667,712801.000,1.000
0.968,1.288,-2.495,-3.940,-1.737,-2.946,-4.329,0.214,-0.001,0.976,-0.138,-0.641,0.275,1.831,66.667,712802.000,1.000
0.970,1.321,-1.887,-3.823,-2.274,-1.997,-2.320,-0.746,-0.002,0.978,-0.134,-0.610,0.366,1.831,66.667,712803.000,1.000
0.391,1.101,-1.768,-4.288,-3.279,-1.022,0.343,-1.230,-0.004,0.978,-0.133,-0.702,0.427,1.801,66.667,712804.000,1.000
-0.824,0.538,-2.384,-5.626,-5.013,-0.434,1.784,-2.005,-0.010,0.977,-0.132,-0.671,0.427,1.801,66.667,712805.000,1.000
-2.694,-0.483,-3.894,-7.820,-7.380,-0.515,0.966,-3.565,-0.011,0.976,-0.131,-0.702,0.458,1.556,66.667,712806.000,1.000
-5.094,-1.978,-6.257,-10.539,-10.007,-1.381,-2.124,-5.814,-0.015,0.976,-0.132,-0.641,0.458,1.404,66.667,712807.000,1.000
-7.575,-3.690,-8.976,-13.143,-12.340,-2.847,-6.569,-8.145,-0.016,0.974,-0.130,-0.702,0.336,1.282,66.667,712808.000,1.000
-9.404,-5.057,-11.103,-14.850,-13.669,-4.267,-10.555,-9.701,-0.013,0.973,-0.132,-0.671,0.244,1.160,66.667,712809.000,1.000
-10.010,-5.523,-11.766,-15.182,-13.403,-4.655,-12.071,-9.907,-0.014,0.973,-0.134,-0.458,0.061,0.885,66.667,712810.000,1.000
-9.439,-5.007,-10.814,-14.333,-11.630,-3.510,-10.354,-8.944,-0.012,0.973,-0.133,-0.427,-0.122,0.732,66.667,712811.000,1.000
-8.283,-4.011,-8.915,-13.052,-9.269,-1.559,-6.688,-7.653,-0.013,0.973,-0.134,-0.366,-0.122,0.610,66.667,712812.000,1.000
-7.224,-3.236,-7.131,-12.196,-7.571,-0.215,-3.478,-7.060,-0.010,0.976,-0.133,-0.305,-0.122,0.580,66.667,712813.000,1.000
-6.737,-3.244,-6.433,-12.349,-7.483,-0.448,-2.582,-7.824,-0.009,0.977,-0.135,-0.244,-0.122,0.549,66.667,712814.000,1.000
-7.060,-4.366,-7.326,-13.572,-9.255,-2.308,-4.312,-9.764,-0.009,0.977,-0.135,-0.305,-0.305,0.519,66.667,712815.000,1.000
-8.241,-6.631,-9.647,-15.377,-12.316,-5.130,-7.436,-11.957,-0.009,0.978,-0.132,-0.336,-0.305,0.610,66.667,712816.000,1.000
-10.125,-9.666,-12.656,-16.976,-15.525,-8.114,-10.103,-13.359,-0.010,0.978,-0.136,-0.336,-0.427,0.732,66.667,712817.000,1.000
-12.296,-12.789,-15.431,-17.694,-17.753,-10.920,-11.106,-13.336,-0.010,0.978,-0.133,-0.275,-0.427,0.946,66.667,712818.000,1.000
-14.078,-15.251,-17.269,-17.273,-18.454,-13.623,-10.502,-11.839,-0.007,0.978,-0.132,-0.275,-0.519,0.977,66.667,712819.000,1.000
-14.741,-16.507,-17.915,-15.925,-17.843,-16.213,-9.321,-9.478,-0.007,0.978,-0.134,-0.336,-0.336,1.099,66.667,712820.000,1.000
-13.855,-16.416,-17.553,-14.136,-16.598,-18.338,-8.673,-7.340,-0.007,0.978,-0.138,-0.366,-0.488,1.160,66.667,712821.000,1.000
-11.545,-15.175,-16.537,-12.310,-15.244,-19.327,-8.822,-6.258,-0.007,0.979,-0.136,-0.305,-0.336,1.404,66.667,712822.000,1.000
-8.395,-13.078,-15.008,-10.522,-13.748,-18.316,-8.976,-6.171,-0.009,0.980,-0.136,-0.244,-0.397,1.495,66.667,712823.000,1.000
-5.080,-10.387,-12.801,-8.564,-11.719,-14.740,-8.012,-6.297,-0.008,0.980,-0.133,-0.275,-0.488,1.495,66.667,712824.000,1.000
-2.151,-7.476,-9.844,-6.313,-9.039,-9.154,-5.553,-5.861,-0.009,0.981,-0.135,-0.305,-0.427,1.526,66.667,712825.000,1.000
-0.165,-5.082,-6.679,-4.155,-6.362,-3.553,-2.484,-4.774,-0.008,0.981,-0.136,-0.305,-0.458,1.587,66.667,712826.000,1.000
0.328,-4.079,-4.370,-2.901,-4.784,-0.328,-0.288,-3.647,-0.009,0.979,-0.135,-0.397,-0.458,1.495,66.667,712827.000,1.000
-0.864,-4.820,-3.803,-3.146,-4.932,-0.583,0.206,-3.171,-0.009,0.980,-0.134,-0.366,-0.458,1.587,66.667,712828.000,1.000
-3.308,-6.776,-5.046,-4.740,-6.469,-3.479,-0.752,-3.592,-0.010,0.979,-0.133,-0.488,-0.458,1.556,66.667,712829.000,1.000
-5.980,-8.768,-7.223,-6.802,-8.356,-7.036,-2.368,-4.600,-0.009,0.979,-0.133,-0.549,-0.366,1.587,66.667,712830.000,1.000
-7.724,-9.635,-8.986,-8.217,-9.531,-9.400,-3.897,-5.596,-0.008,0.979,-0.131,-0.458,-0.427,1.556,66.667,712831.000,1.000
-7.815,-8.837,-9.264,-8.241,-9.499,-9.601,-4.928,-6.158,-0.006,0.976,-0.133,-0.519,-0.488,1.587,66.667,712832.000,1.000
-6.262,-6.665,-7.787,-6.802,-8.469,-7.728,-5.331,-6.238,-0.007,0.976,-0.136,-0.549,-0.519,1.526,66.667,712833.000,1.000
-3.800,-4.046,-5.192,-4.460,-7.102,-4.850,-5.175,-5.988,-0.005,0.977,-0.137,-0.427,-0.488,1.434,66.667,712834.000,1.000
-1.494,-1.992,-2.609,-2.131,-6.090,-2.431,-4.847,-5.607,-0.005,0.975,-0.139,-0.397,-0.427,1.404,66.667,712835.000,1.000
-0.042,-0.972,-0.936,-0.600,-5.737,-1.397,-4.836,-5.330,-0.005,0.974,-0.138,-0.336,-0.427,1.404,66.667,712836.000,1.000
0.630,-0.792,-0.373,-0.104,-5.835,-1.740,-5.278,-5.306,-0.005,0.973,-0.135,-0.244,-0.397,1.404,66.667,712837.000,1.000
0.972,-1.106,-0.661,-0.433,-6.060,-3.131,-6.097,-5.552,-0.005,0.973,-0.135,-0.244,-0.244,1.312,66.667,712838.000,1.000
1.106,-1.899,-1.597,-1.353,-6.383,-5.532,-7.306,-6.032,-0.006,0.972,-0.132,-0.153,-0.214,1.251,66.667,712839.000,1.000
0.830,-3.214,-2.990,-2.611,-6.742,-8.701,-8.313,-6.314,-0.006,0.972,-0.134,-0.061,-0.122,1.190,66.667,712840.000,1.000
0.226,-4.592,-4.304,-3.645,-6.552,-11.441,-7.453,-5.314,-0.006,0.975,-0.133,-0.031,-0.244,1.221,66.667,712841.000,1.000
-0.228,-5.299,-4.905,-3.905,-5.255,-12.317,-3.689,-2.467,-0.006,0.974,-0.133,0.000,-0.153,1.160,66.667,712842.000,1.000
-0.212,-5.105,-4.717,-3.512,-3.266,-11.069,1.481,0.837,-0.004,0.972,-0.134,0.061,-0.122,1.160,66.667,712843.000,1.000
0.188,-4.392,-4.197,-3.151,-1.699,-8.647,5.205,2.242,-0.006,0.974,-0.135,0.183,-0.092,1.160,66.667,712844.000,1.000
0.770,-3.619,-3.751,-3.309,-1.309,-6.252,5.884,0.700,-0.006,0.975,-0.132,0.214,-0.092,1.099,66.667,712845.000,1.000
1.371,-3.029,-3.532,-3.913,-2.088,-4.864,3.824,-2.951,-0.006,0.975,-0.132,0.183,-0.122,1.068,66.667,712846.000,1.000
1.915,-2.593,-3.513,-4.448,-3.398,-4.928,0.481,-6.819,-0.006,0.975,-0.133,0.214,-0.092,1.068,66.667,712847.000,1.000
2.584,-1.938,-3.431,-4.243,-4.212,-5.784,-2.083,-8.810,-0.007,0.975,-0.133,0.122,-0.153,0.977,66.667,712848.000,1.000
3.658,-0.659,-2.983,-2.972,-3.768,-6.030,-2.109,-7.709,-0.011,0.975,-0.134,0.153,-0.183,1.038,66.667,712849.000,1.000
5.024,1.157,-2.241,-1.007,-2.207,-4.862,0.607,-4.020,-0.009,0.976,-0.135,0.244,-0.214,0.946,66.667,712850.000,1.000
6.076,2.926,-1.617,0.860,-0.334,-2.682,4.542,0.455,-0.007,0.978,-0.137,0.275,-0.336,0.916,66.667,712851.000,1.000
6.134,4.021,-1.450,1.964,1.081,-0.450,7.642,3.859,-0.007,0.977,-0.133,0.244,-0.305,1.038,66.667,712852.000,1.000
4.865,4.095,-1.808,2.023,1.671,1.152,8.774,5.244,-0.010,0.979,-0.134,0.092,-0.366,0.946,66.667,712853.000,1.000
2.481,3.228,-2.512,1.200,1.542,2.025,8.294,4.877,-0.010,0.980,-0.131,0.092,-0.427,0.977,66.667,712854.000,1.000
-0.374,1.863,-3.255,-0.009,1.127,2.408,7.236,3.744,-0.011,0.979,-0.132,0.122,-0.488,1.007,66.667,712855.000,1.000
-3.011,0.456,-3.810,-1.105,0.831,2.476,6.242,2.676,-0.012,0.979,-0.134,0.031,-0.549,0.946,66.667,712856.000,1.000
-4.967,-0.726,-4.102,-1.838,0.863,2.337,5.630,2.011,-0.011,0.979,-0.133,-0.031,-0.580,1.038,66.667,712857.000,1.000
-5.989,-1.518,-4.078,-2.154,1.327,2.200,5.782,1.763,-0.013,0.979,-0.131,-0.092,-0.671,1.099,66.667,712858.000,1.000
-5.930,-1.775,-3.600,-2.011,2.216,2.174,6.537,1.760,-0.012,0.979,-0.132,-0.122,-0.702,1.007,66.667,712859.000,1.000
-4.677,-1.311,-2.426,-1.259,3.441,2.201,6.971,1.865,-0.010,0.978,-0.135,-0.214,-0.763,0.885,66.667,712860.000,1.000
-2.303,-0.015,-0.407,0.190,4.869,2.404,6.561,2.175,-0.010,0.976,-0.135,-0.214,-0.885,0.946,66.667,712861.000,1.000
0.651,1.829,2.129,2.025,6.175,2.984,5.655,2.688,-0.011,0.974,-0.133,-0.183,-0.946,0.885,66.667,712862.000,1.000
3.094,3.363,4.231,3.498,6.751,3.519,4.558,3.027,-0.011,0.976,-0.130,-0.214,-0.977,0.885,66.667,712863.000,1.000
3.758,3.550,4.740,3.841,6.044,3.073,3.298,2.863,-0.010,0.977,-0.132,-0.214,-1.068,1.007,66.667,712864.000,1.000
1.982,1.931,3.085,2.757,4.124,1.401,2.344,2.373,-0.009,0.977,-0.131,-0.183,-1.068,0.977,66.667,712865.000,1.000
-1.619,-0.877,-0.114,0.685,1.874,-0.518,2.573,2.089,-0.010,0.975,-0.133,-0.214,-1.099,1.068,66.667,712866.000,1.000
-5.301,-3.483,-3.256,-1.329,0.485,-1.516,4.162,2.442,-0.009,0.976,-0.134,-0.305,-1.038,1.190,66.667,712867.000,1.000
-7.327,-4.739,-4.841,-2.255,0.569,-1.475,5.959,3.396,-0.007,0.976,-0.134,-0.244,-1.099,1.251,66.667,712868.000,1.000
-7.127,-4.496,-4.461,-1.727,1.780,-1.220,6.496,4.411,-0.007,0.977,-0.134,-0.214,-1.129,1.251,66.667,712869.000,1.000
-5.388,-3.409,-2.734,-0.123,3.292,-1.355,5.668,4.812,-0.005,0.977,-0.133,-0.275,-1.160,1.190,66.667,712870.000,1.000
-3.246,-2.215,-0.577,1.840,4.514,-1.522,5.017,4.406,-0.007,0.976,-0.135,-0.214,-1.160,1.251,66.667,712871.000,1.000
-1.516,-1.271,1.354,3.567,5.333,-0.939,5.948,3.639,-0.007,0.978,-0.132,-0.244,-1.007,1.495,66.667,712872.000,1.000
-0.486,-0.601,2.775,4.782,5.890,0.514,7.987,3.066,-0.006,0.977,-0.133,-0.244,-0.885,1.373,66.667,712873.000,1.000
-0.120,-0.178,3.651,5.494,6.318,2.008,9.340,2.820,-0.007,0.976,-0.132,-0.214,-0.946,1.434,66.667,712874.000,1.000
-0.250,-0.044,4.064,5.843,6.636,2.495,8.721,2.592,-0.007,0.975,-0.131,-0.275,-1.038,1.556,66.667,712875.000,1.000
-0.604,-0.197,4.168,5.946,6.716,1.511,6.140,1.888,-0.007,0.976,-0.135,-0.366,-0.946,1.587,66.667,712876.000,1.000
-0.805,-0.386,4.260,5.944,6.581,-0.328,2.761,0.674,-0.008,0.977,-0.133,-0.305,-0.854,1.526,66.667,712877.000,1.000
-0.503,-0.105,4.755,6.092,6.748,-1.348,0.713,-0.117,-0.007,0.978,-0.133,-0.336,-0.854,1.526,66.667,712878.000,1.000
0.407,1.005,5.877,6.558,7.851,0.027,1.889,0.614,-0.006,0.978,-0.134,-0.305,-0.854,1.465,66.667,712879.000,1.000
1.677,2.676,7.342,7.134,9.802,3.521,5.897,2.716,-0.006,0.978,-0.131,-0.275,-0.854,1.495,66.667,712880.000,1.000
2.758,4.082,8.475,7.364,11.728,6.914,10.081,4.923,-0.003,0.977,-0.128,-0.336,-0.824,1.556,66.667,712881.000,1.000
3.052,4.544,8.699,6.961,12.868,8.195,12.094,6.329,-0.003,0.977,-0.131,-0.305,-0.763,1.434,66.667,712882.000,1.000
2.311,4.114,7.933,6.047,13.200,7.345,11.633,7.064,-0.005,0.975,-0.136,-0.275,-0.763,1.404,66.667,712883.000,1.000
0.876,3.494,6.602,5.038,13.183,5.977,9.882,7.704,-0.004,0.976,-0.137,-0.336,-0.763,1.526,66.667,712884.000,1.000
-0.590,3.394,5.249,4.313,13.134,5.790,8.326,8.555,-0.004,0.978,-0.135,-0.305,-0.641,1.312,66.667,712885.000,1.000
-1.653,3.881,4.082,3.902,12.850,7.171,7.751,9.357,-0.005,0.977,-0.136,-0.397,-0.641,1.190,66.667,712886.000,1.000
-2.224,4.397,2.993,3.505,11.782,8.963,7.696,9.510,-0.006,0.977,-0.135,-0.366,-0.641,1.221,66.667,712887.000,1.000
-2.244,4.406,1.909,2.824,9.652,9.665,7.208,8.668,-0.006,0.976,-0.134,-0.336,-0.671,1.190,66.667,712888.000,1.000
-1.560,3.956,0.989,1.831,6.874,8.783,6.141,7.165,-0.005,0.978,-0.134,-0.275,-0.519,1.282,66.667,712889.000,1.000
-0.230,3.555,0.450,0.721,4.306,6.937,5.138,5.773,-0.004,0.977,-0.133,-0.336,-0.549,1.160,66.667,712890.000,1.000
1.144,3.517,0.147,-0.385,2.472,4.952,4.414,4.906,-0.003,0.977,-0.132,-0.244,-0.488,1.160,66.667,712891.000,1.000
1.659,3.627,-0.421,-1.519,1.211,3.256,3.374,4.252,-0.003,0.977,-0.131,-0.122,-0.397,1.221,66.667,712892.000,1.000
0.828,3.550,-1.473,-2.612,0.157,2.047,1.661,3.307,-0.004,0.978,-0.132,-0.153,-0.427,1.221,66.667,712893.000,1.000
-0.978,3.307,-2.592,-3.399,-0.784,1.543,-0.169,1.834,-0.005,0.978,-0.133,-0.153,-0.397,1.221,66.667,712894.000,1.000
-2.745,3.293,-3.099,-3.572,-1.419,1.969,-1.275,-0.097,-0.007,0.978,-0.132,-0.031,-0.427,1.221,66.667,712895.000,1.000
-3.460,3.905,-2.633,-2.973,-1.492,3.379,-1.261,-2.019,-0.007,0.978,-0.133,0.031,-0.397,1.282,66.667,712896.000,1.000
-2.806,5.062,-1.502,-1.824,-1.050,5.334,-0.338,-3.311,-0.007,0.978,-0.137,-0.031,-0.397,1.251,66.667,712897.000,1.000
-1.388,6.072,-0.543,-0.789,-0.631,6.896,0.780,-3.833,-0.009,0.979,-0.137,0.092,-0.336,1.312,66.667,712898.000,1.000
-0.193,6.188,-0.463,-0.497,-0.842,7.303,1.271,-3.917,-0.007,0.978,-0.134,0.153,-0.397,1.221,66.667,712899.000,1.000
0.132,5.195,-1.321,-1.048,-1.812,6.562,0.821,-3.736,-0.008,0.979,-0.132,0.153,-0.397,1.221,66.667,712900.000,1.000
-0.526,3.325,-2.766,-2.133,-3.292,5.106,-0.281,-3.159,-0.008,0.980,-0.131,0.122,-0.427,1.190,66.667,712901.000,1.000
-1.889,0.874,-4.487,-3.417,-5.066,3.010,-1.602,-2.221,-0.010,0.981,-0.130,0.214,-0.519,1.099,66.667,712902.000,1.000
-3.411,-1.820,-6.199,-4.603,-6.977,0.091,-2.840,-1.493,-0.010,0.980,-0.131,0.122,-0.549,1.129,66.667,712903.000,1.000
-4.439,-4.210,-7.474,-5.367,-8.706,-3.175,-3.926,-1.837,-0.009,0.980,-0.130,0.183,-0.549,1.038,66.667,712904.000,1.000
-4.502,-5.699,-7.898,-5.465,-9.816,-5.502,-5.061,-3.670,-0.009,0.978,-0.131,0.244,-0.549,1.282,66.667,712905.000,1.000
-3.518,-5.995,-7.337,-4.874,-10.008,-5.782,-6.268,-6.512,-0.010,0.976,-0.129,0.275,-0.793,1.282,66.667,712906.000,1.000
-1.782,-5.183,-5.944,-3.714,-9.248,-3.954,-7.034,-9.281,-0.010,0.975,-0.131,0.336,-0.793,1.373,66.667,712907.000,1.000
0.175,-3.619,-4.062,-2.179,-7.801,-1.164,-7.015,-10.962,-0.009,0.974,-0.128,0.366,-0.793,1.343,66.667,712908.000,1.000
1.775,-1.865,-2.181,-0.601,-6.236,0.608,-6.971,-11.204,-0.009,0.973,-0.131,0.519,-0.885,1.282,66.667,712909.000,1.000
2.615,-0.532,-0.784,0.590,-5.186,-0.368,-8.179,-10.424,-0.009,0.973,-0.130,0.519,-0.916,1.373,66.667,712910.000,1.000
2.556,-0.022,-0.176,1.054,-4.994,-4.209,-10.923,-9.448,-0.007,0.973,-0.130,0.732,-0.946,1.343,66.667,712911.000,1.000
1.697,-0.314,-0.397,0.746,-5.508,-9.066,-14.007,-8.925,-0.007,0.974,-0.127,0.824,-1.099,1.343,66.667,712912.000,1.000
0.399,-0.891,-1.171,-0.008,-6.092,-12.163,-15.431,-8.828,-0.009,0.976,-0.131,0.977,-1.038,1.526,66.667,712913.000,1.000
-0.615,-1.005,-1.941,-0.637,-5.976,-11.554,-13.688,-8.533,-0.008,0.975,-0.135,1.129,-1.007,1.495,66.667,712914.000,1.000
-0.474,-0.182,-2.116,-0.646,-4.827,-7.355,-9.025,-7.511,-0.008,0.976,-0.134,1.251,-1.160,1.526,66.667,712915.000,1.000
1.240,1.496,-1.372,0.112,-2.922,-1.373,-3.332,-5.804,-0.005,0.975,-0.131,1.282,-1.007,1.465,66.667,712916.000,1.000
4.138,3.596,0.230,1.420,-0.770,4.396,1.405,-3.847,-0.007,0.976,-0.132,1.282,-0.977,1.465,66.667,712917.000,1.000
7.350,5.693,2.386,2.897,1.269,8.721,4.346,-2.050,-0.006,0.979,-0.130,1.343,-1.068,1.587,66.667,712918.000,1.000
10.099,7.510,4.745,4.200,3.023,11.092,5.753,-0.567,-0.006,0.978,-0.131,1.404,-1.007,1.465,66.667,712919.000,1.000
11.971,8.883,6.982,5.146,4.478,11.641,6.493,0.774,-0.006,0.977,-0.130,1.434,-1.038,1.373,66.667,712920.000,1.000
12.855,9.721,8.825,5.741,5.795,11.233,7.608,2.406,-0.007,0.979,-0.129,1.373,-1.007,1.404,66.667,712921.000,1.000
12.745,9.902,10.019,6.024,7.041,10.850,9.445,4.520,-0.007,0.979,-0.130,1.373,-1.068,1.434,66.667,712922.000,1.000
11.618,9.209,10.259,5.862,7.809,10.716,10.985,6.381,-0.007,0.979,-0.132,1.312,-1.129,1.343,66.667,712923.000,1.000
9.607,7.610,9.360,5.065,7.503,10.386,10.711,6.616,-0.007,0.979,-0.134,1.282,-1.038,1.312,66.667,712924.000,1.000
7.223,5.571,7.584,3.761,6.054,9.377,8.099,4.609,-0.008,0.977,-0.131,1.251,-1.007,1.312,66.667,712925.000,1.000
5.215,3.860,5.655,2.464,4.091,7.460,3.936,1.146,-0.007,0.977,-0.132,1.282,-0.977,1.373,66.667,712926.000,1.000
4.155,3.045,4.383,1.734,2.518,4.939,-0.353,-2.321,-0.006,0.977,-0.135,1.251,-0.977,1.343,66.667,712927.000,1.000
4.095,3.155,4.201,1.843,2.028,2.747,-3.300,-4.543,-0.006,0.977,-0.133,1.312,-0.946,1.190,66.667,712928.000,1.000
4.467,3.630,4.848,2.621,2.739,1.745,-3.908,-4.908,-0.004,0.977,-0.132,1.221,-0.916,1.221,66.667,712929.000,1.000
4.348,3.652,5.457,3.465,4.078,1.988,-1.961,-3.655,-0.005,0.978,-0.132,1.160,-0.916,1.038,66.667,712930.000,1.000
3.078,2.742,5.149,3.651,5.117,2.960,1.968,-1.693,-0.006,0.977,-0.132,1.221,-0.946,1.038,66.667,712931.000,1.000
0.758,1.046,3.670,2.799,5.080,4.107,6.285,-0.146,-0.007,0.977,-0.133,1.099,-0.854,1.038,66.667,712932.000,1.000
-1.891,-0.973,1.442,1.087,3.616,4.973,8.713,0.042,-0.007,0.978,-0.133,1.099,-0.854,1.038,66.667,712933.000,1.000
-3.946,-2.845,-0.684,-0.817,1.061,5.307,7.941,-1.447,-0.008,0.976,-0.132,1.038,-0.824,1.038,66.667,712934.000,1.000
-4.589,-4.038,-1.663,-1.918,-1.451,5.288,4.728,-3.922,-0.006,0.974,-0.137,0.977,-0.793,1.007,66.667,712935.000,1.000
-3.470,-4.032,-0.757,-1.364,-2.561,5.454,1.081,-6.045,-0.006,0.975,-0.138,0.885,-0.793,0.946,66.667,712936.000,1.000
-1.002,-2.671,1.915,1.018,-1.542,6.273,-1.146,-6.659,-0.006,0.975,-0.135,1.007,-0.763,0.916,66.667,712937.000,1.000
1.694,-0.456,5.321,4.546,1.263,7.604,-1.106,-5.250,-0.006,0.977,-0.134,1.007,-0.824,0.977,66.667,712938.000,1.000
3.214,1.428,7.903,7.938,4.550,8.473,0.681,-1.978,-0.006,0.979,-0.136,0.946,-0.793,0.946,66.667,712939.000,1.000
2.511,1.648,8.298,9.880,6.674,7.661,2.646,2.264,-0.007,0.976,-0.138,1.007,-0.732,0.946,66.667,712940.000,1.000
-0.501,-0.414,6.074,9.648,6.506,4.722,3.141,5.850,-0.007,0.977,-0.137,1.007,-0.824,1.068,66.667,712941.000,1.000
-4.877,-4.231,1.918,7.394,4.025,0.531,1.650,7.181,-0.007,0.976,-0.137,1.038,-0.854,1.068,66.667,712942.000,1.000
-9.236,-8.542,-2.858,3.972,0.294,-3.179,-0.665,5.980,-0.008,0.972,-0.134,0.977,-0.854,1.038,66.667,712943.000,1.000
-12.458,-12.111,-6.976,0.510,-3.225,-5.103,-2.045,3.499,-0.008,0.972,-0.135,1.007,-0.916,1.068,66.667,712944.000,1.000
-13.906,-14.160,-9.451,-1.941,-5.344,-5.127,-1.662,1.411,-0.007,0.972,-0.133,1.068,-0.885,1.068,66.667,712945.000,1.000
-13.254,-14.348,-9.595,-2.625,-5.421,-3.992,0.252,0.741,-0.008,0.973,-0.136,1.160,-0.854,1.068,66.667,712946.000,1.000
-10.413,-12.685,-7.228,-1.329,-3.469,-2.646,3.091,1.633,-0.007,0.975,-0.135,1.251,-0.885,1.038,66.667,712947.000,1.000
-5.747,-9.553,-2.970,1.443,-0.220,-1.867,6.096,3.582,-0.008,0.976,-0.135,1.190,-0.793,1.160,66.667,712948.000,1.000
-0.264,-5.734,1.816,4.549,3.090,-2.024,8.211,5.644,-0.005,0.978,-0.137,1.282,-0.885,1.221,66.667,712949.000,1.000
4.644,-2.213,5.609,6.700,5.289,-2.885,8.375,6.777,-0.007,0.979,-0.136,1.221,-0.946,1.251,66.667,712950.000,1.000
7.863,0.274,7.500,7.137,5.900,-3.667,6.336,6.464,-0.009,0.979,-0.138,1.129,-0.854,1.251,66.667,712951.000,1.000
9.059,1.593,7.581,5.960,5.300,-3.552,3.021,5.002,-0.010,0.979,-0.138,0.977,-0.916,1.282,66.667,712952.000,1.000
8.634,2.085,6.607,3.852,4.294,-2.146,0.003,3.084,-0.010,0.979,-0.137,0.946,-0.946,1.160,66.667,712953.000,1.000
7.419,2.230,5.408,1.656,3.648,0.641,-1.170,1.339,-0.010,0.978,-0.135,0.854,-1.007,1.190,66.667,712954.000,1.000
6.319,2.458,4.538,0.119,3.874,4.791,0.465,0.316,-0.010,0.977,-0.137,0.793,-1.068,1.251,66.667,712955.000,1.000
5.885,2.994,4.142,-0.387,4.984,9.761,4.503,0.386,-0.009,0.978,-0.135,0.671,-1.007,1.068,66.667,712956.000,1.000
6.104,3.707,3.959,-0.074,6.307,14.102,8.777,1.339,-0.008,0.980,-0.138,0.702,-1.099,1.007,66.667,712957.000,1.000
6.645,4.254,3.605,0.483,6.886,16.238,10.722,2.372,-0.007,0.978,-0.137,0.671,-1.160,0.977,66.667,712958.000,1.000
7.202,4.500,2.965,0.845,6.330,15.958,9.720,2.843,-0.005,0.978,-0.138,0.641,-1.099,1.038,66.667,712959.000,1.000
7.602,4.697,2.307,0.948,5.112,14.642,7.517,2.863,-0.006,0.974,-0.140,0.580,-1.038,1.099,66.667,712960.000,1.000
7.729,5.113,1.975,0.915,3.926,13.636,5.929,2.900,-0.003,0.971,-0.140,0.580,-0.916,1.160,66.667,712961.000,1.000
7.491,5.652,2.053,0.795,2.993,12.911,4.957,3.055,-0.001,0.967,-0.140,0.610,-0.824,1.251,66.667,712962.000,1.000
6.722,5.889,2.262,0.497,2.045,11.543,3.567,2.890,-0.001,0.966,-0.141,0.641,-0.671,1.343,66.667,712963.000,1.000
5.167,5.345,2.126,-0.123,0.685,8.838,1.063,1.831,-0.001,0.964,-0.142,0.763,-0.519,1.343,66.667,712964.000,1.000
2.764,3.841,1.352,-1.067,-1.258,4.932,-2.647,-0.313,-0.003,0.968,-0.139,0.824,-0.366,1.404,66.667,712965.000,1.000
0.025,1.825,0.224,-2.005,-3.317,1.029,-6.688,-2.899,-0.003,0.974,-0.142,0.977,-0.305,1.404,66.667,712966.000,1.000
-2.017,0.336,-0.424,-2.296,-4.301,-0.892,-8.830,-4.408,-0.003,0.978,-0.144,1.007,-0.214,1.434,66.667,712967.000,1.000
-2.495,0.307,0.121,-1.453,-3.120,0.650,-6.854,-3.371,-0.003,0.978,-0.143,0.977,-0.153,1.495,66.667,712968.000,1.000
-1.454,1.701,1.677,0.290,-0.006,5.106,-1.108,0.101,-0.001,0.980,-0.141,0.977,-0.092,1.617,66.667,712969.000,1.000
0.097,3.403,3.157,1.973,3.317,9.772,5.043,3.956,-0.002,0.980,-0.141,1.007,-0.122,1.617,66.667,712970.000,1.000
0.858,4.046,3.372,2.570,4.873,11.631,7.962,5.849,-0.004,0.981,-0.141,0.824,-0.153,1.648,66.667,712971.000,1.000
0.109,3.033,1.954,1.778,3.918,9.521,6.504,5.068,-0.008,0.982,-0.141,0.641,-0.061,1.648,66.667,712972.000,1.000
-1.793,0.982,-0.282,0.296,1.405,4.811,2.335,2.971,-0.010,0.984,-0.139,0.549,-0.092,1.648,66.667,712973.000,1.000
-3.673,-0.676,-1.803,-0.618,-0.766,0.441,-1.415,1.912,-0.012,0.985,-0.139,0.458,0.031,1.434,66.667,712974.000,1.000
-4.415,-0.708,-1.411,-0.047,-1.048,-0.896,-2.132,3.507,-0.015,0.988,-0.138,0.214,-0.244,1.282,66.667,712975.000,1.000
-3.737,1.042,0.892,1.895,0.783,1.519,0.530,7.432,-0.018,0.988,-0.138,0.000,-0.488,1.099,66.667,712976.000,1.000
-2.233,3.592,3.907,4.165,3.604,5.895,4.710,11.794,-0.017,0.985,-0.136,-0.214,-0.641,0.885,66.667,712977.000,1.000
-0.848,5.567,6.071,5.565,5.765,9.180,8.068,14.635,-0.014,0.985,-0.138,-0.427,-0.854,0.854,66.667,712978.000,1.000
-0.333,6.070,6.419,5.481,6.074,9.216,9.065,15.083,-0.013,0.983,-0.138,-0.549,-0.977,0.671,66.667,712979.000,1.000
-0.945,5.027,4.991,4.080,4.311,5.996,7.273,13.492,-0.010,0.982,-0.141,-0.580,-0.946,0.702,66.667,712980.000,1.000
-2.445,2.948,2.550,1.994,1.115,1.243,3.472,10.742,-0.009,0.981,-0.140,-0.610,-1.038,0.732,66.667,712981.000,1.000
-4.253,0.521,0.073,-0.090,-2.477,-2.884,-0.838,7.370,-0.007,0.981,-0.140,-0.671,-1.099,0.671,66.667,712982.000,1.000
-5.638,-1.617,-1.573,-1.619,-5.425,-5.019,-4.433,3.590,-0.007,0.980,-0.140,-0.671,-1.129,0.854,66.667,712983.000,1.000
-5.942,-2.934,-1.833,-2.210,-6.934,-5.199,-6.843,-0.082,-0.005,0.981,-0.137,-0.732,-1.129,0.916,66.667,712984.000,1.000
-4.904,-3.069,-0.679,-1.775,-6.652,-4.376,-7.965,-2.808,-0.006,0.979,-0.134,-0.702,-1.099,0.977,66.667,712985.000,1.000
-2.905,-1.993,1.319,-0.559,-4.744,-3.260,-7.477,-3.865,-0.007,0.978,-0.138,-0.763,-1.129,1.038,66.667,712986.000,1.000
-0.871,-0.210,3.207,0.978,-1.842,-1.977,-5.200,-2.983,-0.007,0.980,-0.140,-0.885,-1.068,1.160,66.667,712987.000,1.000
0.196,1.312,4.067,2.292,1.057,-0.761,-2.114,-0.648,-0.008,0.979,-0.140,-0.946,-1.068,1.160,66.667,712988.000,1.000
-0.178,1.766,3.511,2.975,3.019,-0.144,-0.091,2.078,-0.007,0.979,-0.138,-0.977,-1.129,1.282,66.667,712989.000,1.000
-1.676,1.124,1.921,3.050,3.739,-0.314,-0.246,4.291,-0.009,0.976,-0.138,-0.946,-1.068,1.221,66.667,712990.000,1.000
-3.629,-0.139,-0.007,2.825,3.432,-1.056,-2.192,5.543,-0.006,0.975,-0.136,-0.854,-1.038,1.465,66.667,712991.000,1.000
-5.628,-1.720,-1.916,2.446,2.312,-2.064,-4.780,5.637,-0.006,0.976,-0.136,-0.885,-1.190,1.404,66.667,712992.000,1.000
-7.621,-3.533,-3.845,1.795,0.566,-2.754,-6.696,4.662,-0.007,0.975,-0.139,-0.824,-1.038,1.404,66.667,712993.000,1.000
-9.644,-5.450,-5.912,0.694,-1.485,-2.571,-6.966,2.996,-0.008,0.976,-0.134,-0.763,-1.007,1.312,66.667,712994.000,1.000
-11.657,-7.355,-8.177,-0.957,-3.604,-2.098,-6.044,0.997,-0.006,0.975,-0.131,-0.702,-0.885,1.221,66.667,712995.000,1.000
-13.475,-9.174,-10.591,-3.026,-5.741,-2.849,-5.759,-1.081,-0.006,0.974,-0.136,-0.793,-0.916,1.160,66.667,712996.000,1.000
-14.787,-10.684,-12.913,-5.108,-7.738,-5.486,-7.422,-2.880,-0.007,0.974,-0.137,-0.763,-0.854,1.190,66.667,712997.000,1.000
-15.272,-11.503,-14.742,-6.709,-9.150,-8.930,-10.416,-3.887,-0.007,0.972,-0.139,-0.702,-0.916,1.312,66.667,712998.000,1.000
-14.739,-11.284,-15.610,-7.449,-9.413,-11.143,-12.629,-3.466,-0.006,0.969,-0.137,-0.671,-0.885,1.343,66.667,712999.000,1.000
-13.292,-9.995,-15.243,-7.174,-8.230,-10.548,-12.014,-1.126,-0.005,0.969,-0.135,-0.610,-0.854,1.190,66.667,713000.000,1.000
-11.440,-8.126,-13.896,-6.118,-6.059,-7.305,-8.382,2.589,-0.005,0.968,-0.136,-0.488,-0.793,1.068,66.667,713001.000,1.000
-9.804,-6.447,-12.218,-4.847,-4.031,-3.364,-3.855,5.790,-0.007,0.968,-0.136,-0.275,-0.793,1.007,66.667,713002.000,1.000
-8.564,-5.366,-10.621,-3.788,-3.057,-0.889,-0.943,6.727,-0.006,0.968,-0.139,-0.122,-0.793,0.977,66.667,713003.000,1.000
-7.388,-4.733,-9.038,-2.957,-3.219,-0.858,-0.559,5.202,-0.007,0.967,-0.135,-0.092,-0.732,1.129,66.667,713004.000,1.000
-5.968,-4.274,-7.360,-2.259,-4.085,-2.988,-2.137,2.200,-0.006,0.965,-0.135,0.061,-0.610,1.068,66.667,713005.000,1.000
-4.317,-3.807,-5.707,-1.706,-5.079,-5.989,-4.377,-0.885,-0.006,0.966,-0.139,0.214,-0.641,1.038,66.667,713006.000,1.000
-2.557,-3.071,-4.167,-1.204,-5.473,-7.918,-5.636,-2.567,-0.006,0.969,-0.136,0.275,-0.610,0.946,66.667,713007.000,1.000
-0.808,-1.911,-2.688,-0.550,-4.776,-7.553,-5.078,-2.122,-0.006,0.969,-0.138,0.366,-0.580,1.068,66.667,713008.000,1.000
0.818,-0.542,-1.187,0.352,-3.231,-5.455,-3.600,-0.380,-0.007,0.970,-0.135,0.488,-0.580,0.977,66.667,713009.000,1.000
2.408,0.765,0.542,1.550,-1.461,-3.019,-2.602,1.142,-0.007,0.970,-0.138,0.580,-0.488,1.160,66.667,713010.000,1.000
4.193,2.004,2.748,3.084,0.159,-1.048,-2.378,1.688,-0.005,0.972,-0.137,0.610,-0.458,1.190,66.667,713011.000,1.000
6.181,3.241,5.354,4.773,1.475,0.224,-2.578,1.419,-0.006,0.973,-0.135,0.671,-0.305,1.221,66.667,713012.000,1.000
8.182,4.506,7.961,6.219,2.351,0.635,-3.282,0.709,-0.003,0.974,-0.135,0.702,-0.336,1.190,66.667,713013.000,1.000
10.153,5.916,10.204,7.138,2.761,0.254,-4.723,-0.142,-0.004,0.976,-0.139,0.671,-0.214,1.282,66.667,713014.000,1.000
12.106,7.472,11.835,7.460,2.821,-0.466,-6.526,-0.881,-0.007,0.977,-0.141,0.580,-0.214,1.312,66.667,713015.000,1.000
13.772,8.777,12.633,7.223,2.685,-1.034,-7.691,-1.249,-0.009,0.979,-0.139,0.519,-0.244,1.373,66.667,713016.000,1.000
14.724,9.304,12.629,6.607,2.577,-1.305,-7.230,-0.983,-0.007,0.980,-0.139,0.366,-0.305,1.556,66.667,713017.000,1.000
14.668,8.844,12.200,5.896,2.713,-1.546,-4.998,-0.063,-0.006,0.982,-0.136,0.244,-0.214,1.495,66.667,713018.000,1.000
13.476,7.544,11.650,5.205,2.994,-2.227,-2.163,1.003,-0.007,0.985,-0.135,0.183,-0.153,1.434,66.667,713019.000,1.000
11.258,5.749,10.944,4.462,3.085,-3.590,-0.497,1.567,-0.009,0.985,-0.135,0.000,-0.275,1.465,66.667,713020.000,1.000
8.622,4.046,10.097,3.789,2.963,-5.303,-0.830,1.697,-0.009,0.986,-0.136,-0.122,-0.336,1.556,66.667,713021.000,1.000
6.530,3.171,9.507,3.643,3.097,-6.632,-2.429,2.208,-0.007,0.986,-0.134,-0.427,-0.366,1.495,66.667,713022.000,1.000
5.570,3.465,9.512,4.331,3.858,-6.948,-3.892,3.623,-0.008,0.984,-0.135,-0.580,-0.336,1.404,66.667,713023.000,1.000
5.450,4.518,9.832,5.543,5.037,-6.038,-4.201,5.547,-0.010,0.987,-0.134,-0.793,-0.336,1.495,66.667,713024.000,1.000
5.378,5.480,9.821,6.572,6.088,-4.123,-2.980,7.141,-0.009,0.984,-0.131,-1.038,-0.336,1.556,66.667,713025.000,1.000
4.821,5.686,9.149,6.936,6.596,-1.810,-0.608,7.828,-0.009,0.982,-0.133,-1.160,-0.397,1.495,66.667,713026.000,1.000
3.813,4.994,8.015,6.668,6.418,0.145,1.677,7.531,-0.005,0.979,-0.137,-1.343,-0.488,1.343,66.667,713027.000,1.000
2.703,3.698,6.847,6.129,5.636,1.193,2.527,6.544,-0.004,0.979,-0.136,-1.434,-0.519,1.312,66.667,713028.000,1.000
1.818,2.264,5.981,5.640,4.458,1.070,1.516,5.231,-0.002,0.978,-0.137,-1.434,-0.488,1.404,66.667,713029.000,1.000
1.333,1.091,5.553,5.267,3.111,-0.271,-0.696,3.840,-0.002,0.980,-0.138,-1.434,-0.458,1.465,66.667,713030.000,1.000
1.314,0.457,5.556,4.885,1.902,-2.361,-2.715,2.634,-0.001,0.980,-0.137,-1.465,-0.397,1.465,66.667,713031.000,1.000
1.781,0.499,5.880,4.333,1.187,-4.191,-3.193,1.837,0.000,0.978,-0.137,-1.312,-0.305,1.526,66.667,713032.000,1.000
2.609,1.059,6.202,3.460,1.027,-5.155,-2.073,1.314,0.001,0.978,-0.138,-1.465,-0.214,1.617,66.667,713033.000,1.000
3.497,1.792,6.144,2.220,1.184,-5.505,-0.638,0.767,0.002,0.976,-0.138,-1.404,-0.092,1.648,66.667,713034.000,1.000
4.158,2.545,5.647,0.759,1.581,-5.503,0.123,0.212,0.004,0.975,-0.138,-1.343,-0.122,1.892,66.667,713035.000,1.000
4.383,3.300,4.879,-0.826,2.250,-5.067,0.432,-0.134,0.000,0.977,-0.136,-1.312,0.000,1.953,66.667,713036.000,1.000
3.934,3.745,3.775,-2.717,2.851,-4.458,0.836,-0.235,-0.001,0.975,-0.135,-1.282,0.183,1.953,66.667,713037.000,1.000
2.620,3.352,2.066,-5.075,2.836,-4.193,1.403,-0.161,-0.001,0.974,-0.133,-1.282,0.214,1.892,66.667,713038.000,1.000
0.598,1.976,-0.232,-7.566,2.046,-4.167,2.085,0.181,-0.006,0.973,-0.134,-1.251,0.122,1.740,66.667,713039.000,1.000
-1.566,0.064,-2.666,-9.433,0.758,-3.821,2.824,0.792,-0.011,0.974,-0.131,-1.251,0.000,1.617,66.667,713040.000,1.000
-3.273,-1.754,-4.694,-10.053,-0.736,-3.144,3.143,1.262,-0.011,0.974,-0.131,-1.251,0.000,1.404,66.667,713041.000,1.000
-4.153,-2.924,-5.868,-9.230,-2.113,-2.507,2.738,1.304,-0.012,0.973,-0.133,-1.190,-0.183,1.221,66.667,713042.000,1.000
-3.937,-2.871,-5.741,-7.100,-2.762,-1.607,2.452,1.348,-0.010,0.972,-0.133,-1.099,-0.305,1.068,66.667,713043.000,1.000
-2.347,-1.153,-3.959,-4.059,-2.038,0.520,3.783,2.017,-0.009,0.974,-0.132,-1.068,-0.427,0.854,66.667,713044.000,1.000
0.762,2.124,-0.554,-0.745,0.197,4.400,7.328,3.224,-0.007,0.975,-0.133,-1.099,-0.641,0.793,66.667,713045.000,1.000
5.135,6.170,3.872,2.105,3.277,9.136,11.551,4.119,-0.008,0.975,-0.132,-1.007,-0.671,0.702,66.667,713046.000,1.000
9.911,9.822,8.257,3.900,6.010,12.515,13.449,3.890,-0.005,0.977,-0.131,-1.007,-0.702,0.610,66.667,713047.000,1.000
13.759,12.074,11.485,4.430,7.510,12.609,11.324,2.636,-0.005,0.976,-0.132,-1.007,-0.885,0.641,66.667,713048.000,1.000
15.451,12.449,12.823,3.857,7.709,9.286,6.254,1.194,-0.006,0.976,-0.133,-0.946,-0.885,0.671,66.667,713049.000,1.000
14.464,11.008,12.083,2.453,6.967,4.019,0.556,0.089,-0.005,0.977,-0.132,-0.824,-0.885,0.793,66.667,713050.000,1.000
11.210,8.296,9.661,0.497,5.601,-1.195,-3.922,-0.877,-0.007,0.978,-0.132,-0.793,-0.946,0.977,66.667,713051.000,1.000
6.848,5.245,6.469,-1.646,3.838,-4.681,-6.175,-2.134,-0.007,0.978,-0.132,-0.732,-0.946,0.977,66.667,713052.000,1.000
2.814,2.836,3.607,-3.579,1.936,-5.496,-5.984,-3.907,-0.007,0.979,-0.131,-0.702,-1.068,1.099,66.667,713053.000,1.000
0.423,1.828,2.044,-4.926,0.403,-3.499,-3.744,-5.996,-0.008,0.980,-0.131,-0.610,-1.007,1.190,66.667,713054.000,1.000
0.531,2.643,2.407,-5.326,0.011,0.548,-0.240,-7.718,-0.007,0.979,-0.132,-0.519,-1.099,1.251,66.667,713055.000,1.000
3.131,5.165,4.651,-4.598,1.275,5.012,3.542,-8.301,-0.007,0.982,-0.131,-0.427,-1.190,1.343,66.667,713056.000,1.000
7.252,8.610,7.915,-2.948,3.956,8.179,6.812,-7.440,-0.006,0.982,-0.131,-0.458,-1.160,1.495,66.667,713057.000,1.000
11.436,11.791,10.928,-0.964,7.142,9.211,9.259,-5.504,-0.006,0.983,-0.131,-0.519,-1.221,1.556,66.667,713058.000,1.000
14.367,13.595,12.585,0.579,9.686,8.262,10.718,-3.289,-0.006,0.982,-0.133,-0.397,-1.343,1.526,66.667,713059.000,1.000
15.251,13.392,12.309,1.087,10.708,5.997,10.951,-1.353,-0.007,0.981,-0.130,-0.397,-1.404,1.526,66.667,713060.000,1.000
13.914,11.135,10.039,0.384,9.841,3.173,9.896,0.120,-0.004,0.980,-0.129,-0.366,-1.373,1.526,66.667,713061.000,1.000
10.734,7.198,6.052,-1.424,7.091,0.280,7.486,0.478,-0.005,0.981,-0.131,-0.336,-1.495,1.556,66.667,713062.000,1.000
6.587,2.297,0.979,-3.996,2.790,-2.527,3.496,-1.349,-0.006,0.979,-0.132,-0.397,-1.495,1.526,66.667,713063.000,1.000
2.672,-2.509,-4.085,-6.570,-2.113,-4.908,-1.652,-5.356,-0.004,0.979,-0.131,-0.397,-1.526,1.465,66.667,713064.000,1.000
-0.120,-6.240,-8.007,-8.264,-6.279,-6.186,-6.470,-10.056,-0.005,0.979,-0.129,-0.397,-1.434,1.434,66.667,713065.000,1.000
-1.783,-8.638,-10.336,-8.809,-8.898,-6.196,-9.377,-13.831,-0.004,0.980,-0.132,-0.397,-1.526,1.373,66.667,713066.000,1.000
-3.000,-10.195,-11.404,-8.714,-10.133,-5.783,-9.663,-15.914,-0.003,0.979,-0.131,-0.427,-1.434,1.343,66.667,713067.000,1.000
-4.451,-11.578,-11.848,-8.750,-10.753,-6.224,-7.747,-16.424,-0.001,0.977,-0.133,-0.305,-1.343,1.312,66.667,713068.000,1.000
-6.326,-13.067,-12.141,-9.363,-11.552,-8.414,-5.291,-16.179,0.000,0.976,-0.132,-0.275,-1.282,1.282,66.667,713069.000,1.000
-8.089,-14.235,-12.210,-10.249,-12.703,-12.104,-4.311,-16.025,-0.002,0.975,-0.131,-0.122,-1.221,1.160,66.667,713070.000,1.000
-8.576,-13.995,-11.289,-10.305,-13.363,-15.437,-5.269,-15.890,-0.003,0.976,-0.133,-0.153,-1.251,1.099,66.667,713071.000,1.000
-6.654,-11.318,-8.471,-8.300,-12.221,-15.909,-6.593,-14.827,-0.003,0.975,-0.130,-0.153,-1.190,1.007,66.667,713072.000,1.000
-2.245,-6.335,-3.766,-3.939,-8.794,-12.482,-6.444,-12.177,-0.003,0.972,-0.130,0.031,-1.160,0.946,66.667,713073.000,1.000
3.229,-0.710,1.442,1.688,-4.120,-6.621,-4.388,-8.445,-0.004,0.974,-0.130,0.092,-1.129,0.916,66.667,713074.000,1.000
7.624,3.331,5.216,6.730,-0.080,-1.170,-1.345,-4.964,-0.005,0.973,-0.130,0.031,-1.038,0.824,66.667,713075.000,1.000
9.346,4.392,6.281,9.649,1.834,1.585,1.221,-3.002,-0.004,0.973,-0.131,0.092,-1.099,0.763,66.667,713076.000,1.000
8.155,2.543,4.640,9.972,1.270,1.070,1.954,-3.076,-0.005,0.973,-0.130,0.244,-1.038,0.732,66.667,713077.000,1.000
5.153,-0.954,1.433,8.375,-0.950,-1.644,0.483,-4.607,-0.006,0.973,-0.134,0.305,-1.190,0.641,66.667,713078.000,1.000
2.092,-4.405,-1.727,6.170,-3.400,-4.818,-2.095,-6.139,-0.007,0.974,-0.134,0.244,-1.099,0.671,66.667,713079.000,1.000
0.428,-6.451,-3.546,4.601,-4.834,-7.158,-3.974,-6.193,-0.007,0.974,-0.133,0.397,-1.068,0.610,66.667,713080.000,1.000
0.615,-6.543,-3.575,4.272,-4.743,-8.203,-3.946,-4.297,-0.007,0.974,-0.130,0.427,-1.129,0.488,66.667,713081.000,1.000
2.045,-5.002,-2.274,4.929,-3.446,-7.986,-2.120,-1.402,-0.009,0.975,-0.129,0.458,-1.160,0.580,66.667,713082.000,1.000
3.612,-2.749,-0.628,5.777,-1.757,-6.742,0.438,0.874,-0.008,0.974,-0.129,0.366,-1.160,0.519,66.667,713083.000,1.000
4.308,-0.977,0.295,5.990,-0.595,-5.284,2.354,1.409,-0.008,0.977,-0.132,0.244,-1.282,0.641,66.667,713084.000,1.000
3.575,-0.779,-0.264,5.023,-0.677,-5.127,2.328,-0.074,-0.010,0.975,-0.132,0.275,-1.312,0.549,66.667,713085.000,1.000
1.564,-2.506,-2.283,2.899,-2.052,-7.219,0.064,-3.081,-0.011,0.975,-0.134,0.244,-1.343,0.549,66.667,713086.000,1.000
-0.869,-5.425,-4.831,0.319,-3.853,-10.701,-3.039,-6.345,-0.011,0.975,-0.134,0.336,-1.343,0.580,66.667,713087.000,1.000
-2.728,-8.262,-6.710,-1.768,-4.945,-13.702,-5.193,-8.452,-0.010,0.975,-0.134,0.336,-1.434,0.671,66.667,713088.000,1.000
-3.551,-10.114,-7.286,-2.814,-4.835,-15.053,-5.959,-8.850,-0.009,0.976,-0.131,0.366,-1.465,0.793,66.667,713089.000,1.000
-3.500,-10.760,-6.643,-2.855,-3.782,-14.642,-5.958,-8.054,-0.010,0.976,-0.132,0.397,-1.465,0.854,66.667,713090.000,1.000
-2.919,-10.337,-5.142,-2.203,-2.253,-12.715,-5.572,-6.900,-0.009,0.978,-0.132,0.366,-1.526,0.977,66.667,713091.000,1.000
-1.913,-8.939,-3.011,-1.055,-0.438,-9.518,-4.450,-5.706,-0.011,0.978,-0.129,0.427,-1.648,0.885,66.667,713092.000,1.000
-0.320,-6.573,-0.317,0.647,1.764,-5.430,-1.742,-4.108,-0.009,0.977,-0.131,0.366,-1.587,0.977,66.667,713093.000,1.000
1.914,-3.468,2.731,2.970,4.294,-1.155,3.024,-1.745,-0.009,0.979,-0.131,0.397,-1.678,1.007,66.667,713094.000,1.000
4.399,-0.289,5.590,5.659,6.581,2.368,8.740,0.961,-0.008,0.979,-0.130,0.244,-1.709,0.916,66.667,713095.000,1.000
6.456,2.171,7.605,8.183,7.849,4.475,12.878,3.017,-0.010,0.979,-0.134,0.275,-1.678,0.946,66.667,713096.000,1.000
7.554,3.505,8.396,10.041,7.760,5.150,13.363,3.716,-0.009,0.980,-0.133,0.183,-1.678,1.099,66.667,713097.000,1.000
7.518,3.884,8.014,10.923,6.597,4.787,10.073,2.935,-0.007,0.979,-0.135,0.061,-1.678,1.160,66.667,713098.000,1.000
6.479,3.889,6.892,10.800,5.031,3.918,4.776,0.957,-0.008,0.980,-0.137,0.092,-1.648,1.160,66.667,713099.000,1.000
4.737,4.155,5.700,9.964,3.812,3.292,0.153,-1.474,-0.009,0.979,-0.136,0.061,-1.709,1.129,66.667,713100.000,1.000
2.620,4.961,4.984,8.881,3.443,3.748,-1.527,-3.185,-0.007,0.979,-0.133,-0.092,-1.678,1.190,66.667,713101.000,1.000
0.474,6.119,4.909,7.989,3.987,5.582,0.330,-3.057,-0.005,0.979,-0.133,-0.061,-1.556,1.129,66.667,713102.000,1.000
-1.246,7.267,5.316,7.607,5.178,8.100,4.352,-0.639,-0.005,0.980,-0.133,-0.214,-1.495,1.282,66.667,713103.000,1.000
-2.063,8.183,5.874,7.804,6.618,10.081,8.281,3.333,-0.006,0.979,-0.135,-0.305,-1.373,1.373,66.667,713104.000,1.000
-1.848,8.647,6.069,8.174,7.712,10.411,10.305,6.906,-0.004,0.979,-0.136,-0.305,-1.282,1.312,66.667,713105.000,1.000
-1.090,8.190,5.217,7.892,7.609,8.238,9.585,7.889,-0.003,0.979,-0.136,-0.366,-1.221,1.251,66.667,713106.000,1.000
-0.584,6.397,2.904,6.303,5.694,3.419,6.339,5.398,-0.002,0.977,-0.133,-0.397,-1.099,1.312,66.667,713107.000,1.000
-0.879,3.419,-0.579,3.448,2.170,-2.875,1.822,0.516,-0.004,0.979,-0.132,-0.397,-1.007,1.251,66.667,713108.000,1.000
-1.988,-0.059,-4.367,0.028,-2.068,-8.603,-2.384,-4.544,-0.003,0.978,-0.133,-0.427,-0.946,1.312,66.667,713109.000,1.000
-3.439,-3.184,-7.473,-2.970,-5.939,-11.998,-5.390,-7.861,-0.003,0.978,-0.133,-0.549,-0.885,1.404,66.667,713110.000,1.000
-4.526,-5.203,-9.124,-4.648,-8.445,-12.249,-7.066,-8.575,-0.003,0.977,-0.132,-0.580,-0.793,1.404,66.667,713111.000,1.000
-4.682,-5.675,-8.961,-4.554,-8.896,-9.606,-7.418,-6.831,-0.003,0.978,-0.135,-0.519,-0.732,1.373,66.667,713112.000,1.000
-3.810,-4.763,-7.228,-2.956,-7.378,-5.316,-6.548,-3.576,-0.004,0.977,-0.133,-0.549,-0.702,1.373,66.667,713113.000,1.000
-2.324,-3.262,-4.738,-0.737,-4.907,-1.149,-4.938,-0.280,-0.002,0.976,-0.130,-0.519,-0.641,1.465,66.667,713114.000,1.000
-0.847,-2.098,-2.481,1.121,-2.760,1.657,-2.968,1.912,-0.003,0.977,-0.132,-0.427,-0.488,1.404,66.667,713115.000,1.000
0.131,-1.712,-1.139,2.033,-1.566,3.160,-0.260,2.980,-0.005,0.977,-0.131,-0.397,-0.458,1.434,66.667,713116.000,1.000
0.379,-1.939,-0.909,1.889,-1.185,4.321,3.561,3.628,-0.004,0.977,-0.134,-0.488,-0.397,1.404,66.667,713117.000,1.000
-0.248,-2.501,-1.743,0.762,-1.381,5.607,7.426,4.120,-0.005,0.977,-0.132,-0.397,-0.397,1.282,66.667,713118.000,1.000
-1.883,-3.358,-3.501,-1.240,-2.202,6.241,9.181,3.993,-0.004,0.975,-0.133,-0.336,-0.305,1.343,66.667,713119.000,1.000
-4.337,-4.411,-5.725,-3.790,-3.593,5.274,7.683,2.908,-0.005,0.977,-0.134,-0.397,-0.244,1.312,66.667,713120.000,1.000
-6.896,-5.205,-7.603,-6.244,-5.118,2.864,3.782,1.152,-0.007,0.977,-0.133,-0.366,-0.244,1.251,66.667,713121.000,1.000
-8.706,-5.251,-8.456,-7.936,-6.265,0.058,-0.631,-0.714,-0.006,0.977,-0.132,-0.397,-0.305,1.190,66.667,713122.000,1.000
-9.269,-4.411,-8.116,-8.450,-6.667,-1.944,-3.554,-2.018,-0.005,0.978,-0.130,-0.366,-0.336,1.251,66.667,713123.000,1.000
-8.558,-2.857,-6.810,-7.712,-6.111,-2.152,-3.476,-2.061,-0.008,0.977,-0.131,-0.336,-0.336,1.312,66.667,713124.000,1.000
-6.971,-1.003,-5.057,-6.135,-4.882,-0.566,-0.650,-0.869,-0.008,0.976,-0.130,-0.275,-0.275,1.373,66.667,713125.000,1.000
-5.255,0.524,-3.609,-4.546,-3.900,1.285,2.543,0.499,-0.009,0.978,-0.131,-0.244,-0.366,1.312,66.667,713126.000,1.000
-4.157,1.224,-3.078,-3.636,-3.938,1.635,3.706,1.066,-0.007,0.977,-0.131,-0.214,-0.336,1.343,66.667,713127.000,1.000
-4.083,1.039,-3.649,-3.616,-4.931,0.288,2.509,0.821,-0.007,0.977,-0.129,-0.336,-0.275,1.343,66.667,713128.000,1.000
-5.060,0.234,-5.186,-4.408,-6.289,-1.555,0.263,0.250,-0.008,0.976,-0.129,-0.366,-0.336,1.282,66.667,713129.000,1.000
-6.758,-0.832,-7.357,-5.781,-7.441,-2.674,-1.467,-0.192,-0.007,0.976,-0.129,-0.305,-0.366,1.251,66.667,713130.000,1.000
-8.518,-1.840,-9.638,-7.277,-8.027,-2.628,-1.589,-0.132,-0.007,0.976,-0.131,-0.275,-0.397,1.282,66.667,713131.000,1.000
-9.615,-2.681,-11.453,-8.354,-8.026,-1.865,-0.097,0.483,-0.006,0.975,-0.131,-0.275,-0.427,1.251,66.667,713132.000,1.000
-9.710,-3.475,-12.465,-8.721,-7.783,-1.246,1.718,1.231,-0.006,0.976,-0.131,-0.092,-0.549,1.251,66.667,713133.000,1.000
-9.114,-4.356,-12.794,-8.517,-7.733,-1.100,2.292,1.669,-0.007,0.976,-0.134,-0.061,-0.580,1.221,66.667,713134.000,1.000
-8.567,-5.312,-12.951,-8.166,-8.103,-0.875,1.088,1.814,-0.007,0.975,-0.130,-0.031,-0.580,1.343,66.667,713135.000,1.000
-8.633,-6.181,-13.405,-8.060,-8.834,0.122,-1.214,1.956,-0.006,0.975,-0.131,0.061,-0.519,1.282,66.667,713136.000,1.000
-9.155,-6.601,-14.047,-8.214,-9.545,2.063,-3.388,2.275,-0.006,0.976,-0.130,0.153,-0.488,1.282,66.667,713137.000,1.000
-9.302,-6.061,-14.104,-8.178,-9.554,4.614,-4.313,2.895,-0.009,0.978,-0.130,0.244,-0.671,1.251,66.667,713138.000,1.000
-8.150,-4.196,-12.660,-7.335,-8.163,7.271,-3.454,4.104,-0.007,0.978,-0.132,0.397,-0.641,1.312,66.667,713139.000,1.000
-5.280,-0.992,-9.278,-5.356,-5.023,9.805,-1.034,6.234,-0.008,0.976,-0.131,0.488,-0.763,1.282,66.667,713140.000,1.000
-1.176,3.031,-4.418,-2.532,-0.490,12.213,2.168,9.200,-0.006,0.978,-0.132,0.580,-0.793,1.282,66.667,713141.000,1.000
2.845,6.681,0.552,0.212,4.156,14.002,4.966,12.094,-0.006,0.979,-0.134,0.427,-0.732,1.373,66.667,713142.000,1.000
5.458,8.694,4.092,1.890,7.249,14.319,6.211,13.623,-0.006,0.979,-0.132,0.610,-0.854,1.343,66.667,713143.000,1.000
6.275,8.844,5.577,2.327,7.968,13.238,5.707,13.298,-0.006,0.979,-0.131,0.610,-0.854,1.190,66.667,713144.000,1.000
5.894,8.144,5.575,2.270,6.896,12.190,4.525,11.947,-0.005,0.980,-0.130,0.641,-0.854,1.251,66.667,713145.000,1.000
5.121,7.762,5.071,2.523,5.193,12.511,3.827,10.688,-0.004,0.981,-0.134,0.671,-0.824,1.373,66.667,713146.000,1.000
4.308,8.008,4.623,3.136,3.478,13.917,3.477,9.594,-0.006,0.979,-0.133,0.671,-0.824,1.343,66.667,713147.000,1.000
3.311,8.451,4.210,3.519,1.706,14.932,2.455,7.902,-0.005,0.977,-0.133,0.732,-0.885,1.373,66.667,713148.000,1.000
1.814,8.578,3.550,3.065,-0.229,14.466,0.393,5.337,-0.005,0.977,-0.134,0.610,-0.824,1.251,66.667,713149.000,1.000
-0.447,7.939,2.242,1.419,-2.341,12.338,-2.170,2.492,-0.004,0.978,-0.129,0.702,-0.824,1.282,66.667,713150.000,1.000
-3.567,6.034,-0.222,-1.560,-4.801,8.767,-4.751,0.049,-0.005,0.978,-0.133,0.702,-0.763,1.343,66.667,713151.000,1.000
-7.187,2.714,-3.988,-5.582,-7.690,4.382,-7.275,-1.684,-0.002,0.979,-0.135,0.763,-0.793,1.282,66.667,713152.000,1.000
-10.445,-1.434,-8.394,-9.753,-10.585,0.447,-9.502,-2.650,-0.003,0.980,-0.132,0.702,-0.824,1.251,66.667,713153.000,1.000
-12.534,-5.539,-12.354,-12.972,-12.761,-1.848,-10.709,-2.922,-0.004,0.980,-0.136,0.763,-0.732,1.343,66.667,713154.000,1.000
-13.266,-9.035,-15.092,-14.521,-13.670,-2.272,-10.053,-2.569,-0.003,0.980,-0.134,0.732,-0.610,1.282,66.667,713155.000,1.000
-13.042,-11.648,-16.436,-14.355,-13.195,-1.472,-7.448,-1.710,-0.004,0.978,-0.133,0.519,-0.610,1.312,66.667,713156.000,1.000
-12.479,-13.144,-16.676,-13.047,-11.733,-0.284,-4.154,-0.812,-0.006,0.979,-0.130,0.519,-0.671,1.282,66.667,713157.000,1.000
-12.146,-13.391,-16.304,-11.502,-10.000,0.756,-1.899,-0.560,-0.006,0.977,-0.133,0.488,-0.702,1.221,66.667,713158.000,1.000
-12.309,-12.488,-15.690,-10.468,-8.545,1.513,-1.481,-1.330,-0.006,0.975,-0.131,0.549,-0.702,1.190,66.667,713159.000,1.000
-12.673,-10.675,-14.839,-10.076,-7.410,2.042,-2.683,-2.940,-0.005,0.976,-0.132,0.580,-0.641,1.129,66.667,713160.000,1.000
-12.501,-8.145,-13.472,-9.788,-6.167,2.524,-4.722,-4.653,-0.005,0.975,-0.133,0.641,-0.610,1.099,66.667,713161.000,1.000
-11.163,-5.044,-11.332,-8.832,-4.186,3.356,-6.204,-5.349,-0.008,0.975,-0.135,0.580,-0.854,1.099,66.667,713162.000,1.000
-8.709,-1.766,-8.528,-6.847,-1.186,4.723,-5.748,-4.225,-0.006,0.975,-0.134,0.519,-0.763,1.099,66.667,713163.000,1.000
-5.902,0.899,-5.619,-4.228,2.269,6.004,-3.426,-1.602,-0.007,0.975,-0.131,0.610,-0.763,0.977,66.667,713164.000,1.000
-3.607,2.206,-3.230,-1.809,5.003,6.186,-0.956,1.200,-0.007,0.977,-0.134,0.549,-0.732,1.007,66.667,713165.000,1.000
-2.209,2.009,-1.621,-0.218,6.067,4.837,-0.075,2.938,-0.007,0.977,-0.135,0.549,-0.793,1.038,66.667,713166.000,1.000
-1.541,0.778,-0.650,0.473,5.329,2.374,-1.121,3.367,-0.005,0.974,-0.133,0.458,-0.793,0.977,66.667,713167.000,1.000
-1.067,-0.759,0.007,0.633,3.398,-0.502,-3.253,3.140,-0.008,0.975,-0.133,0.519,-0.854,0.946,66.667,713168.000,1.000
-0.177,-1.941,0.606,0.692,1.093,-3.230,-5.475,2.859,-0.007,0.975,-0.131,0.549,-0.854,0.977,66.667,713169.000,1.000
1.284,-2.449,1.087,0.811,-1.014,-5.246,-7.051,2.470,-0.006,0.975,-0.132,0.427,-0.916,0.916,66.667,713170.000,1.000
2.703,-2.459,1.049,0.795,-2.748,-6.007,-7.406,1.592,-0.008,0.977,-0.134,0.519,-0.885,0.916,66.667,713171.000,1.000
3.159,-2.426,0.158,0.364,-4.165,-5.453,-6.393,0.091,-0.008,0.977,-0.131,0.549,-0.946,0.946,66.667,713172.000,1.000
2.266,-2.622,-1.356,-0.445,-5.239,-4.093,-4.532,-1.621,-0.009,0.978,-0.136,0.519,-1.099,0.977,66.667,713173.000,1.000
0.498,-2.960,-2.736,-1.240,-5.780,-2.550,-2.520,-2.722,-0.009,0.980,-0.132,0.488,-1.160,0.916,66.667,713174.000,1.000
-1.219,-3.291,-3.320,-1.676,-5.754,-1.331,-0.792,-2.592,-0.008,0.981,-0.132,0.458,-1.221,1.007,66.667,713175.000,1.000
-2.141,-3.701,-3.080,-1.836,-5.618,-1.034,0.167,-1.456,-0.008,0.979,-0.130,0.427,-1.282,1.129,66.667,713176.000,1.000
-2.134,-4.508,-2.611,-2.159,-6.103,-2.256,-0.309,-0.275,-0.010,0.981,-0.131,0.305,-1.373,1.099,66.667,713177.000,1.000
-1.714,-6.000,-2.694,-3.047,-7.568,-4.927,-2.332,0.102,-0.009,0.979,-0.131,0.336,-1.373,1.099,66.667,713178.000,1.000
-1.575,-8.082,-3.725,-4.512,-9.593,-8.048,-5.036,-0.386,-0.009,0.979,-0.135,0.275,-1.434,1.129,66.667,713179.000,1.000
-1.950,-10.121,-5.350,-6.100,-11.229,-10.374,-7.224,-1.205,-0.006,0.979,-0.132,0.214,-1.404,1.221,66.667,713180.000,1.000
-2.447,-11.271,-6.644,-7.142,-11.629,-11.175,-8.152,-1.799,-0.006,0.978,-0.130,0.153,-1.465,1.282,66.667,713181.000,1.000
-2.471,-11.023,-6.706,-7.184,-10.480,-10.397,-7.728,-1.906,-0.005,0.978,-0.131,0.122,-1.373,1.190,66.667,713182.000,1.000
-1.748,-9.568,-5.287,-6.334,-8.100,-8.596,-6.367,-1.593,-0.005,0.978,-0.133,0.061,-1.282,1.251,66.667,713183.000,1.000
-0.458,-7.671,-2.921,-5.145,-5.160,-6.700,-4.541,-1.012,-0.003,0.978,-0.133,0.061,-1.373,1.160,66.667,713184.000,1.000
1.060,-6.030,-0.383,-4.044,-2.133,-5.322,-2.266,-0.031,-0.004,0.977,-0.135,0.000,-1.404,1.221,66.667,713185.000,1.000
2.567,-4.755,1.895,-3.037,0.868,-4.305,0.588,1.522,-0.003,0.977,-0.134,0.061,-1.373,1.221,66.667,713186.000,1.000
3.896,-3.497,3.840,-1.941,3.714,-3.096,3.654,3.259,-0.003,0.977,-0.133,0.000,-1.251,1.373,66.667,713187.000,1.000
4.906,-1.903,5.457,-0.710,6.095,-1.345,6.247,4.419,-0.002,0.981,-0.133,-0.061,-1.282,1.373,66.667,713188.000,1.000
5.473,0.069,6.663,0.493,7.670,0.781,7.783,4.449,-0.003,0.982,-0.132,0.061,-1.221,1.373,66.667,713189.000,1.000
5.452,2.043,7.294,1.355,8.157,2.551,7.623,3.171,-0.004,0.981,-0.132,0.000,-1.221,1.373,66.667,713190.000,1.000
4.776,3.421,7.274,1.606,7.456,2.972,5.254,0.889,-0.003,0.980,-0.131,-0.153,-1.160,1.373,66.667,713191.000,1.000
3.738,3.849,6.804,1.281,5.901,1.575,1.130,-1.501,-0.006,0.979,-0.131,-0.244,-1.160,1.312,66.667,713192.000,1.000
2.917,3.486,6.272,0.695,4.190,-0.984,-3.176,-3.016,-0.008,0.977,-0.133,-0.275,-1.099,1.312,66.667,713193.000,1.000
2.718,2.805,5.966,0.168,2.910,-3.310,-6.042,-3.283,-0.007,0.977,-0.136,-0.244,-1.099,1.160,66.667,713194.000,1.000
3.103,2.254,5.925,-0.128,2.234,-4.339,-6.759,-2.605,-0.007,0.977,-0.135,-0.183,-1.190,1.038,66.667,713195.000,1.000
3.657,1.976,5.891,-0.204,1.983,-4.016,-5.598,-1.624,-0.005,0.978,-0.132,-0.092,-1.221,0.977,66.667,713196.000,1.000
3.791,1.693,5.356,-0.309,1.771,-3.182,-3.523,-1.074,-0.004,0.975,-0.132,-0.153,-1.312,0.793,66.667,713197.000,1.000
2.974,0.857,3.814,-0.833,1.159,-2.937,-1.749,-1.504,-0.005,0.971,-0.132,-0.122,-1.282,0.854,66.667,713198.000,1.000
1.008,-0.953,1.136,-2.027,-0.109,-3.976,-1.064,-3.000,-0.004,0.967,-0.135,-0.061,-1.160,0.885,66.667,713199.000,1.000
-1.753,-3.688,-2.238,-3.776,-1.897,-6.257,-1.446,-5.174,-0.002,0.965,-0.133,0.000,-1.129,0.824,66.667,713200.000,1.000
-4.490,-6.754,-5.476,-5.645,-3.745,-9.107,-2.456,-7.419,-0.002,0.963,-0.133,0.153,-1.038,1.007,66.667,713201.000,1.000
-6.310,-9.256,-7.750,-7.072,-5.121,-11.570,-3.642,-9.110,-0.001,0.965,-0.137,0.397,-0.977,1.007,66.667,713202.000,1.000
-6.682,-10.404,-8.580,-7.614,-5.635,-12.698,-4.458,-9.767,0.000,0.967,-0.136,0.610,-0.946,0.946,66.667,713203.000,1.000
-5.668,-9.918,-8.003,-7.188,-5.209,-12.021,-4.497,-9.371,0.000,0.970,-0.134,0.732,-0.977,0.946,66.667,713204.000,1.000
-3.908,-8.271,-6.611,-6.212,-4.233,-10.030,-4.007,-8.476,-0.002,0.974,-0.133,0.732,-0.854,0.916,66.667,713205.000,1.000
-2.328,-6.381,-5.260,-5.363,-3.303,-7.681,-3.432,-7.703,-0.003,0.976,-0.133,0.641,-0.854,1.038,66.667,713206.000,1.000
-1.618,-4.892,-4.503,-5.074,-2.652,-5.161,-2.507,-7.205,-0.004,0.980,-0.134,0.671,-0.702,1.160,66.667,713207.000,1.000
-1.916,-3.885,-4.389,-5.376,-2.188,-2.059,-0.697,-6.934,-0.004,0.981,-0.136,0.641,-0.732,1.221,66.667,713208.000,1.000
-2.985,-3.321,-4.771,-6.156,-2.079,1.046,1.428,-7.201,-0.004,0.981,-0.135,0.488,-0.763,1.221,66.667,713209.000,1.000
-4.496,-3.342,-5.501,-7.302,-2.730,2.381,2.301,-8.427,-0.006,0.984,-0.136,0.488,-0.793,1.343,66.667,713210.000,1.000
-6.100,-4.025,-6.289,-8.531,-4.079,0.754,1.033,-10.349,-0.009,0.984,-0.137,0.488,-0.793,1.312,66.667,713211.000,1.000
-7.524,-5.166,-6.753,-9.377,-5.378,-3.215,-1.760,-11.918,-0.011,0.987,-0.135,0.336,-0.916,1.190,66.667,713212.000,1.000
-8.792,-6.461,-6.785,-9.544,-5.842,-7.702,-4.734,-12.136,-0.014,0.989,-0.133,0.183,-1.160,1.099,66.667,713213.000,1.000
-10.088,-7.593,-6.655,-9.158,-5.257,-10.855,-6.789,-10.830,-0.016,0.991,-0.132,-0.092,-1.282,1.038,66.667,713214.000,1.000
-11.390,-8.149,-6.646,-8.579,-3.912,-11.422,-7.285,-8.622,-0.014,0.992,-0.133,-0.336,-1.404,0.854,66.667,713215.000,1.000
-12.456,-7.795,-6.800,-8.103,-2.277,-9.094,-5.949,-6.339,-0.012,0.994,-0.131,-0.580,-1.617,0.763,66.667,713216.000,1.000
-13.080,-6.598,-7.018,-7.841,-0.823,-4.811,-2.960,-4.415,-0.010,0.991,-0.134,-0.763,-1.770,0.885,66.667,713217.000,1.000
-13.199,-5.054,-7.216,-7.692,0.148,-0.378,1.173,-2.682,-0.008,0.990,-0.134,-0.885,-1.892,0.824,66.667,713218.000,1.000
-12.865,-3.777,-7.324,-7.400,0.595,2.722,5.684,-0.925,-0.006,0.990,-0.134,-1.099,-2.045,0.824,66.667,713219.000,1.000
-12.261,-3.231,-7.345,-6.820,0.520,3.972,9.000,0.250,-0.005,0.985,-0.131,-1.129,-2.106,0.916,66.667,713220.000,1.000
-11.717,-3.626,-7.457,-6.150,-0.208,3.417,9.141,-0.270,-0.003,0.984,-0.132,-1.221,-2.045,0.916,66.667,713221.000,1.000
-11.527,-4.720,-7.811,-5.682,-1.528,1.539,5.614,-2.729,0.000,0.982,-0.134,-1.282,-2.014,0.977,66.667,713222.000,1.000
-11.670,-5.778,-8.221,-5.386,-2.944,-0.599,0.080,-6.008,-0.003,0.980,-0.133,-1.221,-1.984,1.099,66.667,713223.000,1.000
-11.811,-6.049,-8.256,-4.872,-3.791,-1.872,-5.050,-8.456,-0.002,0.978,-0.131,-1.312,-2.014,1.312,66.667,713224.000,1.000
-11.516,-5.222,-7.539,-3.702,-3.525,-1.567,-7.716,-8.747,-0.003,0.978,-0.130,-1.190,-1.984,1.373,66.667,713225.000,1.000
-10.422,-3.417,-5.898,-1.672,-1.854,0.685,-6.603,-6.347,-0.005,0.976,-0.132,-1.129,-1.923,1.343,66.667,713226.000,1.000
-8.416,-1.102,-3.451,1.005,0.942,4.536,-2.245,-1.961,-0.005,0.972,-0.132,-1.007,-1.892,1.373,66.667,713227.000,1.000
-5.754,1.055,-0.593,3.786,3.969,8.535,2.649,2.658,-0.005,0.972,-0.131,-0.854,-1.984,1.343,66.667,713228.000,1.000
-2.808,2.814,2.405,6.286,6.529,11.053,5.406,6.020,-0.006,0.973,-0.132,-0.702,-1.984,1.312,66.667,713229.000,1.000
0.260,4.702,5.656,8.600,8.740,11.537,5.604,7.885,-0.005,0.972,-0.132,-0.641,-1.892,1.221,66.667,713230.000,1.000
3.357,7.294,9.218,10.929,11.015,10.540,4.687,8.748,-0.005,0.973,-0.130,-0.458,-1.801,1.190,66.667,713231.000,1.000
6.230,10.391,12.658,13.119,13.315,9.010,4.187,8.937,-0.004,0.972,-0.129,-0.366,-1.862,1.129,66.667,713232.000,1.000
8.619,13.159,15.327,14.761,15.154,7.637,4.614,8.443,-0.004,0.971,-0.129,-0.214,-1.740,0.946,66.667,713233.000,1.000
10.501,14.863,16.927,15.639,16.125,6.585,5.411,7.300,-0.005,0.971,-0.130,-0.092,-1.709,0.824,66.667,713234.000,1.000
12.077,15.340,17.671,15.930,16.259,5.785,5.692,5.924,-0.004,0.971,-0.128,0.000,-1.709,0.946,66.667,713235.000,1.000
13.530,14.883,17.944,16.002,15.886,5.200,5.096,4.965,-0.005,0.969,-0.129,0.183,-1.556,0.793,66.667,713236.000,1.000
14.896,13.982,18.015,16.146,15.311,4.720,3.934,4.796,-0.005,0.970,-0.130,0.244,-1.587,0.763,66.667,713237.000,1.000
16.106,13.201,18.032,16.464,14.703,4.179,2.775,5.207,-0.002,0.968,-0.129,0.336,-1.617,0.732,66.667,713238.000,1.000
16.909,12.894,17.902,16.796,14.121,3.677,2.251,5.634,-0.002,0.967,-0.130,0.488,-1.648,0.549,66.667,713239.000,1.000
16.825,12.857,17.176,16.737,13.504,3.540,2.886,5.672,-0.003,0.969,-0.132,0.671,-1.587,0.458,66.667,713240.000,1.000
15.433,12.452,15.340,15.865,12.623,3.748,4.413,5.129,-0.004,0.969,-0.132,0.641,-1.556,0.458,66.667,713241.000,1.000
12.783,11.129,12.266,13.978,11.116,3.704,5.405,3.553,-0.004,0.966,-0.132,0.854,-1.495,0.458,66.667,713242.000,1.000
9.447,8.846,8.393,11.185,8.758,2.775,4.300,0.290,-0.005,0.965,-0.133,1.038,-1.434,0.336,66.667,713243.000,1.000
6.225,6.128,4.563,7.918,5.776,0.916,0.840,-4.626,-0.006,0.966,-0.136,1.160,-1.465,0.366,66.667,713244.000,1.000
3.828,3.785,1.712,4.875,2.879,-1.269,-3.634,-9.948,-0.008,0.967,-0.134,1.251,-1.434,0.305,66.667,713245.000,1.000
2.687,2.529,0.537,2.802,0.952,-2.901,-7.002,-13.793,-0.008,0.968,-0.132,1.312,-1.404,0.244,66.667,713246.000,1.000
2.898,2.756,1.266,2.166,0.663,-3.280,-7.607,-14.745,-0.009,0.972,-0.129,1.343,-1.465,0.244,66.667,713247.000,1.000
4.242,4.456,3.579,2.913,2.116,-2.201,-5.248,-12.638,-0.009,0.973,-0.132,1.373,-1.465,0.183,66.667,713248.000,1.000
6.322,7.198,6.791,4.587,4.839,0.082,-1.104,-8.416,-0.009,0.975,-0.134,1.373,-1.434,0.214,66.667,713249.000,1.000
8.725,10.339,10.248,6.734,8.172,3.317,3.530,-3.284,-0.010,0.975,-0.133,1.312,-1.373,0.305,66.667,713250.000,1.000
10.850,13.149,13.367,8.977,11.483,7.264,8.152,1.719,-0.010,0.979,-0.134,1.343,-1.465,0.336,66.667,713251.000,1.000
11.776,14.795,15.384,10.761,13.980,10.968,12.378,5.531,-0.010,0.982,-0.134,1.190,-1.495,0.458,66.667,713252.000,1.000
10.788,14.670,15.603,11.464,14.858,12.837,15.108,7.266,-0.007,0.983,-0.134,1.099,-1.556,0.610,66.667,713253.000,1.000
8.176,12.960,14.078,10.896,13.913,12.060,15.159,6.776,-0.007,0.983,-0.134,0.977,-1.587,0.732,66.667,713254.000,1.000
5.282,10.724,11.826,9.498,11.840,9.486,12.483,4.710,-0.012,0.984,-0.137,0.854,-1.465,0.824,66.667,713255.000,1.000
3.627,9.272,10.214,8.024,9.838,6.849,8.339,2.208,-0.012,0.986,-0.135,0.702,-1.556,0.885,66.667,713256.000,1.000
3.949,9.425,10.152,7.112,8.957,5.421,4.420,0.566,-0.011,0.987,-0.134,0.519,-1.587,0.977,66.667,713257.000,1.000
