EEG 1,EEG 2,EEG 3,EEG 4,EEG 5,EEG 6,EEG 7,EEG 8,Accelerometer X,Accelerometer Y,Accelerometer Z,Gyroscope X,Gyroscope Y,Gyroscope Z,Battery Level,Counter,Validation Indicator
-6.315,-5.086,-5.095,-3.396,-7.604,-5.866,-7.187,-1.945,-0.015,0.993,-0.118,1.068,-0.122,1.068,66.667,792489.000,1.000
-5.089,-4.885,-4.519,-2.748,-6.645,-6.354,-5.589,-0.005,-0.016,0.992,-0.118,0.916,-0.305,0.916,66.667,792490.000,1.000
-3.634,-4.533,-3.383,-1.366,-4.264,-6.631,-1.766,2.456,-0.016,0.990,-0.118,0.702,-0.549,0.854,66.667,792491.000,1.000
-2.791,-4.121,-2.366,0.000,-1.108,-6.292,3.291,4.679,-0.013,0.990,-0.121,0.641,-0.610,0.763,66.667,792492.000,1.000
-3.145,-3.910,-2.203,0.490,1.648,-5.405,7.456,5.727,-0.011,0.989,-0.121,0.427,-0.610,0.824,66.667,792493.000,1.000
-4.607,-4.190,-3.227,-0.350,2.861,-4.679,8.323,4.786,-0.011,0.986,-0.122,0.336,-0.641,0.854,66.667,792494.000,1.000
-6.438,-5.006,-5.148,-2.237,2.094,-4.955,4.820,1.735,-0.010,0.987,-0.123,0.275,-0.793,0.885,66.667,792495.000,1.000
-7.576,-5.995,-7.128,-4.225,0.020,-6.321,-1.572,-2.332,-0.009,0.987,-0.123,0.214,-0.854,1.038,66.667,792496.000,1.000
-7.214,-6.546,-8.229,-5.308,-2.041,-7.801,-7.543,-5.579,-0.006,0.988,-0.120,0.031,-0.885,1.099,66.667,792497.000,1.000
-5.261,-6.090,-7.870,-5.033,-3.029,-7.986,-10.103,-6.531,-0.004,0.987,-0.116,0.061,-0.854,1.251,66.667,792498.000,1.000
-2.366,-4.339,-6.016,-3.618,-2.666,-5.966,-8.205,-4.797,-0.004,0.987,-0.118,-0.092,-0.885,1.312,66.667,792499.000,1.000
0.454,-1.584,-3.216,-1.750,-1.472,-2.035,-3.140,-1.308,-0.006,0.986,-0.119,-0.061,-0.763,1.556,66.667,792500.000,1.000
2.337,1.244,-0.400,-0.219,-0.430,2.257,2.221,2.091,-0.006,0.984,-0.120,-0.092,-0.732,1.587,66.667,792501.000,1.000
2.897,3.049,1.575,0.483,-0.356,5.003,5.205,3.826,-0.009,0.983,-0.117,-0.214,-0.702,1.648,66.667,792502.000,1.000
2.346,3.358,2.447,0.426,-1.275,5.365,5.137,3.657,-0.009,0.977,-0.116,-0.183,-0.885,1.648,66.667,792503.000,1.000
1.565,2.864,2.814,0.306,-2.256,4.338,3.677,2.774,-0.008,0.977,-0.118,-0.092,-0.763,1.648,66.667,792504.000,1.000
1.675,2.957,3.679,0.978,-2.073,3.792,3.290,2.871,-0.009,0.975,-0.118,-0.092,-0.824,1.617,66.667,792505.000,1.000
3.081,4.403,5.429,2.635,-0.240,4.802,5.356,4.952,-0.007,0.975,-0.116,-0.031,-0.824,1.709,66.667,792506.000,1.000
5.022,6.630,7.387,4.512,2.615,7.053,9.602,8.765,-0.007,0.975,-0.115,0.031,-0.732,1.617,66.667,792507.000,1.000
6.125,8.172,8.304,5.390,5.098,9.196,14.374,12.800,-0.005,0.975,-0.115,0.092,-0.732,1.617,66.667,792508.000,1.000
5.296,7.635,7.121,4.309,5.664,9.516,17.313,14.894,-0.006,0.972,-0.115,0.244,-0.671,1.648,66.667,792509.000,1.000
2.523,4.818,3.772,1.275,3.652,7.356,16.906,13.722,-0.006,0.973,-0.116,0.153,-0.671,1.617,66.667,792510.000,1.000
-0.795,1.100,-0.412,-2.399,0.049,3.978,13.509,9.912,-0.007,0.971,-0.116,0.305,-0.580,1.648,66.667,792511.000,1.000
-2.674,-1.671,-3.515,-4.802,-3.233,1.212,8.401,5.425,-0.005,0.970,-0.116,0.427,-0.549,1.678,66.667,792512.000,1.000
-1.942,-2.584,-4.332,-4.683,-4.708,-0.188,2.749,2.281,-0.006,0.970,-0.118,0.488,-0.519,1.526,66.667,792513.000,1.000
1.159,-1.811,-2.845,-2.057,-3.825,-0.272,-1.991,1.860,-0.006,0.969,-0.117,0.580,-0.488,1.404,66.667,792514.000,1.000
5.263,-0.114,-0.009,1.925,-1.034,0.753,-4.154,4.252,-0.007,0.969,-0.117,0.763,-0.549,1.434,66.667,792515.000,1.000
8.465,1.327,2.594,5.455,2.165,2.047,-3.308,7.759,-0.008,0.967,-0.116,0.763,-0.488,1.312,66.667,792516.000,1.000
9.265,1.432,3.584,6.984,4.006,2.189,-0.775,9.918,-0.009,0.970,-0.119,0.885,-0.397,1.282,66.667,792517.000,1.000
7.611,0.198,2.833,6.300,3.895,0.685,1.655,9.562,-0.007,0.969,-0.118,0.977,-0.305,1.312,66.667,792518.000,1.000
4.845,-1.317,1.421,4.559,2.660,-1.543,2.825,7.475,-0.009,0.969,-0.121,1.099,-0.305,1.282,66.667,792519.000,1.000
2.501,-2.220,0.436,3.103,1.294,-3.597,2.087,4.995,-0.008,0.971,-0.122,1.190,-0.275,1.282,66.667,792520.000,1.000
1.350,-2.520,0.168,2.501,0.062,-5.456,-0.707,2.719,-0.005,0.973,-0.121,1.282,-0.244,1.251,66.667,792521.000,1.000
1.482,-2.584,0.452,2.706,-1.073,-7.191,-4.605,0.813,-0.007,0.973,-0.120,1.373,-0.244,1.312,66.667,792522.000,1.000
2.820,-2.351,1.351,3.681,-1.658,-8.285,-7.672,-0.172,-0.009,0.974,-0.124,1.465,-0.153,1.465,66.667,792523.000,1.000
5.189,-1.413,3.152,5.462,-0.938,-8.129,-8.254,0.396,-0.007,0.977,-0.125,1.526,-0.061,1.465,66.667,792524.000,1.000
7.924,0.197,5.660,7.668,1.156,-7.014,-6.274,2.261,-0.008,0.979,-0.126,1.556,-0.153,1.434,66.667,792525.000,1.000
9.871,1.701,7.915,9.370,3.643,-6.202,-3.077,4.285,-0.007,0.980,-0.122,1.556,-0.092,1.495,66.667,792526.000,1.000
10.145,2.308,8.909,9.722,5.323,-6.566,0.074,5.483,-0.006,0.983,-0.121,1.434,-0.061,1.526,66.667,792527.000,1.000
8.849,2.030,8.483,8.675,5.737,-7.571,2.858,5.618,-0.006,0.984,-0.123,1.282,-0.092,1.648,66.667,792528.000,1.000
6.908,1.538,7.324,6.935,5.181,-8.049,5.243,5.029,-0.007,0.985,-0.121,1.160,-0.031,1.801,66.667,792529.000,1.000
5.292,1.467,6.306,5.374,4.175,-7.492,6.589,4.270,-0.008,0.986,-0.121,1.129,-0.061,1.862,66.667,792530.000,1.000
4.508,2.077,6.008,4.556,3.204,-6.115,6.016,3.674,-0.010,0.988,-0.121,0.824,-0.153,1.984,66.667,792531.000,1.000
4.517,3.313,6.576,4.589,2.700,-4.105,3.615,2.992,-0.010,0.990,-0.122,0.702,-0.214,2.075,66.667,792532.000,1.000
4.931,4.883,7.730,5.183,2.949,-1.429,0.591,1.651,-0.012,0.990,-0.121,0.549,-0.214,2.014,66.667,792533.000,1.000
5.256,6.281,8.902,5.869,3.926,1.687,-1.709,-0.461,-0.013,0.990,-0.118,0.427,-0.305,1.984,66.667,792534.000,1.000
5.072,6.975,9.519,6.295,5.274,4.556,-2.478,-2.563,-0.012,0.987,-0.117,0.183,-0.336,2.106,66.667,792535.000,1.000
4.194,6.771,9.347,6.417,6.547,6.594,-1.419,-3.347,-0.011,0.984,-0.118,0.031,-0.366,2.075,66.667,792536.000,1.000
2.808,6.019,8.576,6.398,7.399,7.787,1.235,-1.943,-0.008,0.982,-0.119,-0.092,-0.427,2.014,66.667,792537.000,1.000
1.503,5.363,7.605,6.389,7.555,8.300,4.307,1.230,-0.005,0.982,-0.122,-0.214,-0.519,2.045,66.667,792538.000,1.000
1.087,5.334,6.882,6.524,6.916,8.138,6.214,4.754,-0.005,0.984,-0.120,-0.183,-0.549,2.106,66.667,792539.000,1.000
2.182,6.143,6.843,7.050,5.853,7.454,6.422,7.416,-0.004,0.985,-0.124,-0.305,-0.580,2.167,66.667,792540.000,1.000
4.786,7.593,7.693,8.172,5.081,6.612,5.637,8.881,-0.004,0.984,-0.123,-0.427,-0.427,2.136,66.667,792541.000,1.000
8.093,9.075,9.135,9.732,5.043,5.796,4.645,9.424,0.000,0.983,-0.125,-0.549,-0.244,2.136,66.667,792542.000,1.000
10.914,9.897,10.492,11.182,5.573,4.957,3.706,9.443,0.002,0.983,-0.125,-0.580,-0.244,2.258,66.667,792543.000,1.000
12.371,9.739,11.158,11.865,6.140,4.079,2.929,9.131,0.004,0.982,-0.124,-0.641,-0.183,2.350,66.667,792544.000,1.000
12.346,8.868,10.981,11.417,6.341,3.291,2.560,8.454,0.005,0.981,-0.124,-0.610,0.092,2.411,66.667,792545.000,1.000
11.548,8.125,10.454,10.156,6.351,2.883,2.914,7.573,0.002,0.983,-0.123,-0.610,0.122,2.380,66.667,792546.000,1.000
11.195,8.641,10.567,9.095,6.928,3.355,4.392,7.203,0.000,0.984,-0.122,-0.641,0.275,2.319,66.667,792547.000,1.000
12.213,11.081,12.090,9.249,8.773,5.145,7.249,8.178,-0.004,0.985,-0.120,-0.763,0.244,2.106,66.667,792548.000,1.000
14.339,14.814,14.686,10.640,11.656,8.036,10.971,10.338,-0.007,0.986,-0.121,-0.885,0.214,1.984,66.667,792549.000,1.000
16.318,18.186,17.029,12.188,14.478,11.105,14.310,12.343,-0.007,0.983,-0.119,-1.007,0.183,1.892,66.667,792550.000,1.000
17.206,19.879,18.029,12.790,16.321,13.461,16.235,12.912,-0.005,0.980,-0.119,-1.038,0.214,1.678,66.667,792551.000,1.000
17.074,19.823,17.651,12.206,17.034,14.725,16.200,11.735,-0.005,0.977,-0.121,-1.068,0.214,1.495,66.667,792552.000,1.000
16.442,18.804,16.529,10.884,16.867,14.805,13.779,9.290,-0.006,0.975,-0.121,-1.068,0.153,1.312,66.667,792553.000,1.000
15.517,17.568,15.199,9.343,16.036,13.757,9.137,6.508,-0.005,0.974,-0.121,-0.916,0.244,1.190,66.667,792554.000,1.000
14.282,16.499,13.880,7.927,14.767,12.060,3.692,4.501,-0.003,0.976,-0.120,-0.885,0.153,1.007,66.667,792555.000,1.000
12.979,15.873,12.731,6.953,13.490,10.765,-0.407,4.137,-0.001,0.978,-0.118,-0.824,0.244,0.916,66.667,792556.000,1.000
11.975,15.880,11.851,6.649,12.628,10.883,-1.528,5.588,-0.002,0.978,-0.115,-0.763,0.275,0.946,66.667,792557.000,1.000
11.250,16.323,11.032,6.845,12.182,12.472,0.439,8.146,-0.003,0.978,-0.112,-0.793,0.275,0.977,66.667,792558.000,1.000
10.462,16.710,9.914,7.029,11.820,14.606,4.140,10.656,-0.002,0.978,-0.118,-0.824,0.244,0.977,66.667,792559.000,1.000
9.470,16.801,8.522,6.875,11.490,16.334,7.769,12.355,-0.004,0.977,-0.118,-0.885,0.275,0.946,66.667,792560.000,1.000
8.538,16.822,7.442,6.564,11.590,17.284,10.030,13.209,-0.004,0.977,-0.122,-0.824,0.336,1.068,66.667,792561.000,1.000
8.168,17.186,7.432,6.604,12.537,17.462,10.575,13.627,-0.003,0.979,-0.119,-0.702,0.214,0.946,66.667,792562.000,1.000
8.797,18.124,8.930,7.486,14.428,17.069,9.995,14.208,-0.004,0.980,-0.118,-0.702,0.122,0.977,66.667,792563.000,1.000
10.427,19.497,11.739,9.333,16.983,16.511,9.293,15.367,-0.004,0.981,-0.120,-0.732,0.122,1.099,66.667,792564.000,1.000
12.592,20.874,15.120,11.761,19.624,16.160,9.103,16.797,-0.005,0.979,-0.119,-0.732,0.031,1.221,66.667,792565.000,1.000
14.752,21.822,18.235,14.105,21.701,16.079,9.436,17.610,-0.005,0.979,-0.117,-0.732,0.061,1.282,66.667,792566.000,1.000
16.523,22.056,20.431,15.741,22.706,15.991,9.856,17.035,-0.006,0.981,-0.119,-0.702,0.061,1.312,66.667,792567.000,1.000
17.748,21.620,21.474,16.450,22.593,15.642,9.869,15.115,-0.008,0.981,-0.119,-0.763,-0.031,1.312,66.667,792568.000,1.000
18.602,21.047,21.763,16.678,22.062,15.319,9.788,13.083,-0.010,0.981,-0.118,-0.702,-0.122,1.373,66.667,792569.000,1.000
19.382,20.976,21.986,17.152,22.033,15.678,10.546,12.574,-0.007,0.981,-0.117,-0.671,-0.214,1.404,66.667,792570.000,1.000
20.098,21.416,22.422,18.070,22.614,16.848,12.002,13.895,-0.006,0.980,-0.116,-0.732,-0.275,1.434,66.667,792571.000,1.000
20.384,21.586,22.744,18.873,22.947,17.993,12.607,15.503,-0.006,0.980,-0.118,-0.732,-0.305,1.434,66.667,792572.000,1.000
19.871,20.573,22.475,18.840,22.130,17.954,11.082,15.419,-0.006,0.980,-0.117,-0.732,-0.397,1.404,66.667,792573.000,1.000
18.593,18.183,21.495,17.768,20.001,16.287,7.593,12.829,-0.006,0.980,-0.117,-0.702,-0.549,1.526,66.667,792574.000,1.000
17.114,15.259,20.234,16.175,17.271,13.734,3.484,8.646,-0.006,0.979,-0.119,-0.671,-0.580,1.678,66.667,792575.000,1.000
16.199,13.158,19.386,14.891,15.096,11.656,0.481,4.977,-0.005,0.978,-0.116,-0.702,-0.641,1.740,66.667,792576.000,1.000
16.129,12.738,19.251,14.308,14.315,10.935,-0.190,3.712,-0.003,0.979,-0.119,-0.580,-0.763,1.770,66.667,792577.000,1.000
16.407,13.743,19.442,14.086,14.908,11.363,1.458,5.120,-0.002,0.977,-0.117,-0.549,-0.702,1.770,66.667,792578.000,1.000
16.259,15.169,19.329,13.628,16.160,12.077,4.197,7.728,-0.002,0.977,-0.122,-0.488,-0.610,1.709,66.667,792579.000,1.000
15.408,16.188,18.724,12.769,17.300,12.531,6.519,9.723,0.000,0.978,-0.121,-0.427,-0.610,1.740,66.667,792580.000,1.000
14.200,16.568,17.947,11.836,17.902,12.805,7.611,10.339,0.000,0.979,-0.117,-0.336,-0.549,1.678,66.667,792581.000,1.000
12.990,16.236,17.155,11.011,17.667,13.040,7.519,9.834,0.000,0.979,-0.119,-0.244,-0.671,1.617,66.667,792582.000,1.000
11.733,15.001,15.982,9.956,16.248,13.014,6.639,8.652,0.000,0.980,-0.119,-0.275,-0.641,1.709,66.667,792583.000,1.000
10.243,12.826,14.001,8.210,13.504,12.258,5.295,6.991,0.001,0.980,-0.118,-0.214,-0.671,1.617,66.667,792584.000,1.000
8.508,10.045,11.281,5.749,9.812,10.420,3.752,5.012,0.000,0.979,-0.116,-0.275,-0.580,1.587,66.667,792585.000,1.000
6.746,7.281,8.466,3.143,6.122,7.807,2.488,3.277,-0.001,0.980,-0.118,-0.275,-0.610,1.495,66.667,792586.000,1.000
5.304,5.221,6.382,1.258,3.562,5.494,2.266,2.644,0.000,0.979,-0.117,-0.153,-0.641,1.526,66.667,792587.000,1.000
4.447,4.233,5.454,0.632,2.691,4.412,3.376,3.558,-0.001,0.979,-0.115,-0.214,-0.488,1.465,66.667,792588.000,1.000
4.064,4.000,5.338,1.025,3.023,4.321,4.823,5.594,-0.001,0.979,-0.116,-0.153,-0.549,1.312,66.667,792589.000,1.000
3.661,3.762,5.197,1.653,3.510,4.206,5.064,7.829,-0.001,0.980,-0.116,-0.244,-0.549,1.251,66.667,792590.000,1.000
2.728,3.019,4.360,1.814,3.419,3.469,3.512,9.449,0.000,0.979,-0.116,-0.183,-0.610,1.251,66.667,792591.000,1.000
0.967,1.770,2.586,1.120,2.480,2.133,0.730,9.796,0.000,0.979,-0.117,-0.153,-0.702,1.221,66.667,792592.000,1.000
-1.588,0.287,0.006,-0.520,0.637,0.397,-2.413,8.350,-0.002,0.981,-0.114,-0.214,-0.702,1.221,66.667,792593.000,1.000
-4.383,-0.974,-2.826,-2.764,-1.826,-1.241,-5.057,5.166,-0.001,0.981,-0.119,-0.214,-0.763,1.129,66.667,792594.000,1.000
-6.395,-1.427,-5.017,-4.836,-4.104,-1.821,-6.282,1.184,-0.003,0.979,-0.119,-0.244,-0.702,1.007,66.667,792595.000,1.000
-6.743,-0.738,-5.859,-5.976,-5.233,-0.607,-5.504,-2.133,-0.003,0.977,-0.118,-0.305,-0.732,0.854,66.667,792596.000,1.000
-5.397,0.773,-5.387,-5.972,-4.764,2.087,-2.828,-3.518,-0.004,0.977,-0.116,-0.183,-0.824,0.946,66.667,792597.000,1.000
-3.173,2.312,-4.289,-5.222,-2.996,5.100,1.018,-2.509,-0.007,0.978,-0.116,-0.275,-0.824,0.916,66.667,792598.000,1.000
-1.031,3.194,-3.321,-4.382,-0.790,7.092,4.712,0.020,-0.008,0.977,-0.115,-0.214,-0.946,0.824,66.667,792599.000,1.000
0.518,3.197,-2.885,-3.945,0.862,7.076,6.737,2.075,-0.007,0.978,-0.113,-0.336,-1.038,0.854,66.667,792600.000,1.000
1.544,2.592,-2.904,-3.925,1.416,4.992,6.538,2.073,-0.006,0.976,-0.115,-0.244,-1.160,0.732,66.667,792601.000,1.000
2.452,1.880,-3.007,-3.952,0.913,1.635,4.782,-0.121,-0.006,0.976,-0.116,-0.244,-1.251,0.641,66.667,792602.000,1.000
3.600,1.444,-2.846,-3.720,-0.371,-2.024,2.187,-3.641,-0.007,0.977,-0.116,-0.183,-1.312,0.641,66.667,792603.000,1.000
5.016,1.409,-2.315,-3.243,-2.060,-5.047,-0.792,-7.275,-0.006,0.976,-0.116,-0.183,-1.465,0.732,66.667,792604.000,1.000
6.250,1.621,-1.659,-2.856,-3.717,-6.562,-3.357,-9.900,-0.005,0.978,-0.116,-0.092,-1.373,0.702,66.667,792605.000,1.000
6.550,1.697,-1.388,-3.068,-5.107,-6.310,-4.736,-11.087,-0.005,0.978,-0.117,-0.061,-1.648,0.702,66.667,792606.000,1.000
5.428,1.323,-1.884,-4.197,-6.290,-5.010,-5.052,-11.269,-0.004,0.978,-0.115,-0.031,-1.617,0.763,66.667,792607.000,1.000
3.119,0.533,-3.042,-6.000,-7.263,-3.771,-4.899,-11.023,-0.003,0.979,-0.115,-0.061,-1.587,0.793,66.667,792608.000,1.000
0.296,-0.401,-4.434,-7.794,-7.737,-3.165,-4.174,-10.332,-0.002,0.979,-0.116,-0.031,-1.526,0.854,66.667,792609.000,1.000
-2.527,-1.258,-5.729,-8.958,-7.473,-3.134,-2.506,-8.854,-0.002,0.979,-0.115,-0.092,-1.556,0.885,66.667,792610.000,1.000
-5.151,-1.989,-6.852,-9.269,-6.703,-3.537,-0.757,-6.817,-0.004,0.978,-0.110,0.031,-1.617,0.885,66.667,792611.000,1.000
-7.556,-2.668,-7.880,-8.940,-6.053,-4.226,-0.552,-5.165,-0.004,0.980,-0.112,-0.031,-1.587,1.007,66.667,792612.000,1.000
-9.708,-3.343,-8.803,-8.411,-5.956,-4.637,-2.191,-4.684,-0.001,0.980,-0.114,0.061,-1.556,1.129,66.667,792613.000,1.000
-11.400,-3.920,-9.416,-8.084,-6.342,-4.039,-4.174,-5.315,-0.002,0.979,-0.112,0.061,-1.556,1.221,66.667,792614.000,1.000
-12.391,-4.337,-9.548,-8.227,-6.905,-2.445,-4.865,-6.377,-0.001,0.980,-0.112,0.031,-1.556,1.282,66.667,792615.000,1.000
-12.708,-4.743,-9.324,-8.929,-7.416,-0.814,-3.790,-7.091,-0.002,0.981,-0.114,-0.031,-1.556,1.343,66.667,792616.000,1.000
-12.787,-5.466,-9.172,-10.050,-7.814,-0.249,-1.482,-6.982,0.000,0.983,-0.116,0.031,-1.495,1.404,66.667,792617.000,1.000
-13.302,-6.898,-9.636,-11.310,-8.273,-1.351,1.008,-6.175,0.000,0.981,-0.115,-0.031,-1.434,1.495,66.667,792618.000,1.000
-14.803,-9.358,-11.125,-12.523,-9.201,-4.193,2.366,-5.461,-0.001,0.981,-0.116,0.031,-1.373,1.526,66.667,792619.000,1.000
-17.375,-12.867,-13.666,-13.672,-10.937,-8.423,1.687,-5.691,-0.001,0.980,-0.114,0.031,-1.251,1.495,66.667,792620.000,1.000
-20.465,-16.865,-16.723,-14.714,-13.318,-13.118,-0.588,-6.937,0.000,0.979,-0.117,-0.092,-1.221,1.343,66.667,792621.000,1.000
-22.925,-20.173,-19.289,-15.428,-15.616,-16.765,-3.046,-8.611,-0.001,0.979,-0.116,-0.122,-1.221,1.251,66.667,792622.000,1.000
-23.389,-21.406,-20.243,-15.421,-16.834,-17.766,-4.749,-10.070,-0.001,0.980,-0.116,-0.122,-1.129,1.312,66.667,792623.000,1.000
-21.067,-19.719,-18.883,-14.289,-16.119,-15.256,-5.525,-10.679,-0.001,0.982,-0.115,-0.092,-1.099,1.343,66.667,792624.000,1.000
-16.455,-15.464,-15.438,-11.980,-13.315,-9.826,-5.311,-9.955,-0.001,0.981,-0.115,-0.092,-0.946,1.251,66.667,792625.000,1.000
-11.177,-10.157,-11.052,-9.025,-9.286,-3.544,-4.173,-8.073,-0.001,0.981,-0.117,0.000,-0.916,1.312,66.667,792626.000,1.000
-6.976,-5.568,-7.068,-6.252,-5.418,1.158,-2.615,-5.864,0.000,0.982,-0.115,-0.061,-0.885,1.312,66.667,792627.000,1.000
-4.661,-2.588,-4.151,-4.171,-2.597,3.185,-1.178,-3.993,-0.001,0.984,-0.115,-0.244,-0.824,1.312,66.667,792628.000,1.000
-3.862,-0.881,-2.056,-2.653,-0.676,3.439,0.318,-2.279,-0.001,0.983,-0.115,-0.244,-0.732,1.099,66.667,792629.000,1.000
-3.688,0.338,-0.237,-1.262,0.953,3.491,2.366,-0.161,-0.001,0.980,-0.113,-0.214,-0.610,1.068,66.667,792630.000,1.000
-3.586,1.285,1.374,0.047,2.357,3.809,4.308,2.088,0.001,0.981,-0.118,-0.275,-0.427,1.099,66.667,792631.000,1.000
-3.594,1.510,2.274,0.761,2.926,3.770,4.416,3.204,0.001,0.982,-0.118,-0.336,-0.427,1.038,66.667,792632.000,1.000
-3.985,0.537,1.967,0.367,2.161,2.788,1.801,2.273,0.000,0.982,-0.117,-0.305,-0.366,1.099,66.667,792633.000,1.000
-4.871,-1.657,0.437,-1.105,0.210,0.792,-2.587,-0.277,0.000,0.981,-0.117,-0.275,-0.244,1.038,66.667,792634.000,1.000
-5.947,-4.502,-1.738,-2.998,-2.194,-1.713,-6.779,-2.980,0.000,0.981,-0.117,-0.305,-0.153,1.099,66.667,792635.000,1.000
-6.541,-6.959,-3.558,-4.353,-4.016,-3.582,-8.964,-4.296,-0.002,0.981,-0.118,-0.275,-0.214,1.099,66.667,792636.000,1.000
-6.145,-8.137,-4.252,-4.566,-4.513,-3.728,-8.293,-3.614,-0.002,0.981,-0.116,-0.214,-0.122,1.038,66.667,792637.000,1.000
-4.869,-7.938,-3.868,-3.836,-3.861,-2.247,-5.337,-1.675,-0.001,0.978,-0.117,-0.122,-0.092,1.068,66.667,792638.000,1.000
-3.228,-7.074,-3.170,-2.966,-3.112,-0.479,-1.865,-0.061,-0.003,0.977,-0.115,-0.183,-0.092,1.007,66.667,792639.000,1.000
-1.714,-6.556,-3.032,-2.845,-3.505,0.051,-0.122,-0.293,-0.002,0.977,-0.117,-0.061,-0.061,1.038,66.667,792640.000,1.000
-0.661,-7.126,-3.926,-3.990,-5.724,-1.344,-1.787,-3.057,-0.003,0.979,-0.117,0.031,-0.214,1.190,66.667,792641.000,1.000
-0.230,-8.863,-5.710,-6.228,-9.476,-4.230,-6.729,-7.720,-0.005,0.979,-0.117,0.061,-0.122,1.099,66.667,792642.000,1.000
-0.378,-11.184,-7.773,-8.723,-13.628,-7.606,-12.926,-12.552,-0.006,0.977,-0.119,0.000,-0.153,1.129,66.667,792643.000,1.000
-0.983,-13.349,-9.552,-10.605,-16.948,-10.811,-18.072,-15.969,-0.004,0.978,-0.119,0.031,-0.214,1.068,66.667,792644.000,1.000
-1.986,-14.859,-10.896,-11.632,-18.789,-13.582,-21.043,-17.723,-0.004,0.979,-0.118,0.183,-0.183,1.068,66.667,792645.000,1.000
-3.321,-15.434,-11.900,-12.126,-19.050,-15.384,-21.672,-18.457,-0.005,0.978,-0.117,0.153,-0.366,1.068,66.667,792646.000,1.000
-4.877,-14.993,-12.654,-12.482,-17.934,-15.511,-20.019,-18.442,-0.005,0.978,-0.116,0.183,-0.366,1.007,66.667,792647.000,1.000
-6.524,-13.760,-13.181,-12.868,-15.919,-14.008,-16.641,-17.468,-0.004,0.977,-0.116,0.244,-0.519,1.068,66.667,792648.000,1.000
-8.175,-12.264,-13.514,-13.318,-13.783,-11.898,-12.918,-15.662,-0.007,0.978,-0.118,0.183,-0.427,1.007,66.667,792649.000,1.000
-9.884,-11.212,-13.888,-13.984,-12.522,-10.486,-10.562,-13.809,-0.005,0.978,-0.116,0.275,-0.488,0.946,66.667,792650.000,1.000
-11.727,-11.109,-14.657,-15.014,-12.868,-10.478,-10.735,-12.763,-0.004,0.976,-0.115,0.214,-0.519,1.068,66.667,792651.000,1.000
-13.517,-11.850,-15.890,-16.177,-14.634,-11.445,-13.096,-12.681,-0.006,0.978,-0.121,0.244,-0.610,1.099,66.667,792652.000,1.000
-14.910,-12.921,-17.322,-16.983,-16.822,-12.271,-15.954,-13.148,-0.006,0.981,-0.118,0.244,-0.641,1.160,66.667,792653.000,1.000
-15.818,-13.986,-18.739,-17.229,-18.537,-12.427,-17.848,-13.876,-0.005,0.979,-0.116,0.305,-0.671,1.160,66.667,792654.000,1.000
-16.429,-14.957,-20.065,-17.090,-19.481,-12.455,-18.422,-14.715,-0.005,0.979,-0.116,0.336,-0.732,1.038,66.667,792655.000,1.000
-16.776,-15.670,-21.088,-16.713,-19.666,-13.054,-17.797,-15.283,-0.004,0.980,-0.115,0.336,-0.763,1.007,66.667,792656.000,1.000
-16.627,-15.890,-21.490,-16.050,-19.197,-14.234,-16.050,-15.083,-0.004,0.981,-0.117,0.275,-0.763,0.916,66.667,792657.000,1.000
-15.834,-15.620,-21.168,-15.040,-18.335,-15.508,-13.637,-13.885,-0.004,0.981,-0.115,0.183,-0.916,1.068,66.667,792658.000,1.000
-14.648,-15.158,-20.347,-13.759,-17.448,-16.441,-11.634,-11.921,-0.006,0.982,-0.113,0.244,-0.824,1.007,66.667,792659.000,1.000
-13.548,-14.781,-19.350,-12.354,-16.713,-16.695,-10.928,-9.711,-0.005,0.982,-0.116,0.183,-0.824,0.916,66.667,792660.000,1.000
-12.739,-14.413,-18.343,-10.898,-15.941,-15.895,-11.328,-7.622,-0.004,0.980,-0.117,0.214,-0.885,1.007,66.667,792661.000,1.000
-11.996,-13.703,-17.309,-9.384,-14.793,-13.852,-11.692,-5.684,-0.004,0.980,-0.117,0.214,-0.946,0.824,66.667,792662.000,1.000
-10.985,-12.335,-16.111,-7.794,-13.054,-10.782,-10.833,-3.772,-0.004,0.979,-0.115,0.214,-0.946,0.946,66.667,792663.000,1.000
-9.625,-10.232,-14.614,-6.199,-10.727,-7.177,-8.246,-1.917,-0.003,0.980,-0.114,0.122,-0.977,0.854,66.667,792664.000,1.000
-8.106,-7.618,-12.830,-4.767,-8.053,-3.643,-4.333,-0.406,-0.004,0.980,-0.115,0.122,-1.007,0.824,66.667,792665.000,1.000
-6.679,-4.943,-10.944,-3.668,-5.503,-0.845,-0.359,0.405,-0.004,0.980,-0.117,0.122,-1.007,0.824,66.667,792666.000,1.000
-5.536,-2.675,-9.200,-2.985,-3.635,0.687,2.201,0.330,-0.003,0.980,-0.119,0.092,-0.946,0.793,66.667,792667.000,1.000
-4.740,-0.998,-7.723,-2.627,-2.715,1.070,2.943,-0.319,-0.004,0.981,-0.120,-0.092,-0.946,0.793,66.667,792668.000,1.000
-4.173,0.268,-6.458,-2.331,-2.461,1.198,2.980,-0.633,-0.004,0.981,-0.119,-0.122,-0.977,0.702,66.667,792669.000,1.000
-3.673,1.351,-5.342,-1.916,-2.376,1.891,3.537,0.109,-0.005,0.981,-0.118,-0.183,-1.038,0.702,66.667,792670.000,1.000
-3.266,2.166,-4.506,-1.554,-2.308,2.951,4.424,1.421,-0.004,0.982,-0.117,-0.183,-1.099,0.854,66.667,792671.000,1.000
-3.145,2.374,-4.218,-1.655,-2.548,3.379,4.307,1.803,-0.006,0.982,-0.120,-0.244,-1.160,0.885,66.667,792672.000,1.000
-3.396,1.753,-4.607,-2.444,-3.437,2.395,2.076,0.130,-0.006,0.979,-0.116,-0.305,-1.160,0.763,66.667,792673.000,1.000
-3.898,0.403,-5.527,-3.706,-4.961,0.111,-2.136,-3.301,-0.005,0.979,-0.116,-0.427,-1.221,0.793,66.667,792674.000,1.000
-4.507,-1.352,-6.642,-4.886,-6.650,-2.628,-6.835,-6.971,-0.004,0.979,-0.119,-0.397,-1.190,0.824,66.667,792675.000,1.000
-5.278,-3.218,-7.660,-5.436,-7.845,-4.988,-9.919,-9.198,-0.004,0.978,-0.120,-0.458,-1.190,0.824,66.667,792676.000,1.000
-6.451,-5.092,-8.560,-5.208,-8.212,-6.672,-9.939,-9.169,-0.003,0.976,-0.120,-0.366,-1.068,0.824,66.667,792677.000,1.000
-8.141,-6.960,-9.524,-4.550,-7.979,-7.852,-7.284,-7.314,0.000,0.977,-0.119,-0.397,-1.160,0.854,66.667,792678.000,1.000
-10.071,-8.683,-10.654,-4.036,-7.686,-8.838,-4.105,-4.925,-0.001,0.977,-0.118,-0.397,-1.129,1.007,66.667,792679.000,1.000
-11.664,-9.910,-11.801,-4.071,-7.645,-9.630,-2.374,-3.202,-0.003,0.981,-0.119,-0.366,-1.160,1.038,66.667,792680.000,1.000
-12.441,-10.286,-12.650,-4.651,-7.678,-9.746,-2.211,-2.479,-0.001,0.982,-0.117,-0.488,-1.099,1.038,66.667,792681.000,1.000
-12.426,-9.852,-13.073,-5.553,-7.509,-8.890,-2.575,-2.568,-0.003,0.983,-0.118,-0.488,-1.099,1.007,66.667,792682.000,1.000
-12.121,-9.118,-13.296,-6.656,-7.197,-7.534,-2.898,-3.492,-0.004,0.981,-0.117,-0.427,-1.068,1.007,66.667,792683.000,1.000
-12.039,-8.600,-13.593,-7.885,-6.977,-6.435,-3.344,-5.343,-0.007,0.977,-0.118,-0.610,-1.038,0.885,66.667,792684.000,1.000
-12.264,-8.384,-13.894,-8.960,-6.839,-5.849,-4.051,-7.733,-0.006,0.979,-0.118,-0.580,-1.190,0.885,66.667,792685.000,1.000
-12.339,-8.088,-13.717,-9.360,-6.417,-5.366,-4.753,-9.741,-0.008,0.979,-0.118,-0.580,-1.129,0.763,66.667,792686.000,1.000
-11.539,-7.187,-12.477,-8.623,-5.303,-4.384,-4.879,-10.390,-0.007,0.980,-0.118,-0.488,-1.068,0.732,66.667,792687.000,1.000
-9.439,-5.517,-9.989,-6.718,-3.500,-2.827,-3.924,-9.180,-0.005,0.979,-0.115,-0.458,-1.221,0.580,66.667,792688.000,1.000
-6.243,-3.534,-6.707,-4.165,-1.607,-1.492,-2.136,-6.437,-0.002,0.977,-0.116,-0.580,-1.160,0.641,66.667,792689.000,1.000
-2.580,-1.979,-3.435,-1.749,-0.457,-1.431,-0.703,-3.375,-0.002,0.974,-0.118,-0.519,-1.068,0.732,66.667,792690.000,1.000
0.907,-1.279,-0.792,-0.090,-0.382,-2.834,-0.627,-1.529,-0.002,0.971,-0.121,-0.488,-1.068,0.946,66.667,792691.000,1.000
3.742,-1.302,0.997,0.604,-0.921,-4.793,-1.783,-1.688,0.001,0.969,-0.120,-0.427,-1.038,0.977,66.667,792692.000,1.000
5.600,-1.612,1.982,0.509,-1.290,-6.109,-3.297,-3.399,0.000,0.967,-0.121,-0.275,-0.916,1.007,66.667,792693.000,1.000
6.318,-1.806,2.354,0.049,-0.990,-6.100,-4.139,-5.464,-0.001,0.969,-0.121,-0.122,-0.854,0.946,66.667,792694.000,1.000
6.032,-1.604,2.499,-0.210,0.037,-4.736,-3.358,-6.641,0.000,0.973,-0.122,0.000,-0.793,0.854,66.667,792695.000,1.000
5.196,-0.923,2.913,0.213,1.513,-2.517,-0.558,-6.133,0.000,0.976,-0.120,0.153,-0.641,0.946,66.667,792696.000,1.000
4.310,0.011,3.847,1.370,2.881,-0.403,3.473,-3.961,0.001,0.979,-0.119,0.153,-0.519,1.007,66.667,792697.000,1.000
3.733,0.878,5.157,2.866,3.603,0.701,6.996,-0.942,0.000,0.981,-0.120,0.183,-0.427,1.068,66.667,792698.000,1.000
3.647,1.615,6.459,4.155,3.547,0.720,8.597,1.775,-0.001,0.983,-0.121,0.153,-0.519,1.129,66.667,792699.000,1.000
3.938,2.257,7.235,4.724,2.855,0.304,7.974,3.215,-0.002,0.987,-0.120,0.061,-0.427,1.221,66.667,792700.000,1.000
4.121,2.541,6.955,4.158,1.561,-0.156,5.530,2.919,-0.003,0.987,-0.120,-0.092,-0.458,1.251,66.667,792701.000,1.000
3.534,1.959,5.380,2.328,-0.437,-0.980,1.858,1.028,-0.005,0.989,-0.118,-0.153,-0.519,1.312,66.667,792702.000,1.000
1.790,0.305,2.857,-0.388,-3.009,-2.555,-2.264,-1.872,-0.004,0.990,-0.117,-0.244,-0.488,1.190,66.667,792703.000,1.000
-0.820,-1.881,0.324,-3.090,-5.545,-4.533,-5.683,-4.861,-0.007,0.988,-0.117,-0.519,-0.549,1.038,66.667,792704.000,1.000
-3.353,-3.523,-1.144,-4.752,-7.250,-5.967,-7.273,-6.892,-0.011,0.988,-0.116,-0.671,-0.671,0.946,66.667,792705.000,1.000
-4.778,-3.737,-0.967,-4.840,-7.712,-6.169,-6.703,-7.340,-0.013,0.987,-0.115,-0.732,-0.702,0.885,66.667,792706.000,1.000
-4.619,-2.407,0.632,-3.580,-7.046,-5.113,-4.300,-6.331,-0.013,0.988,-0.113,-0.854,-0.916,0.824,66.667,792707.000,1.000
-3.012,-0.083,2.979,-1.598,-5.529,-3.051,-0.665,-4.505,-0.012,0.988,-0.115,-0.916,-1.007,0.610,66.667,792708.000,1.000
-0.396,2.408,5.416,0.439,-3.559,-0.464,2.777,-2.867,-0.013,0.987,-0.116,-1.129,-1.190,0.488,66.667,792709.000,1.000
2.449,4.100,7.291,1.851,-1.880,1.537,3.841,-2.533,-0.010,0.986,-0.117,-1.282,-1.373,0.519,66.667,792710.000,1.000
4.413,4.199,7.965,2.143,-1.208,1.746,1.523,-3.699,-0.008,0.983,-0.117,-1.282,-1.404,0.549,66.667,792711.000,1.000
4.768,2.705,7.217,1.414,-1.607,0.070,-2.610,-5.137,-0.006,0.984,-0.116,-1.190,-1.526,0.519,66.667,792712.000,1.000
3.899,0.484,5.495,0.322,-2.597,-2.363,-5.738,-5.447,-0.004,0.984,-0.113,-1.160,-1.404,0.519,66.667,792713.000,1.000
2.994,-1.413,3.632,-0.425,-3.722,-4.237,-6.053,-4.511,-0.004,0.985,-0.112,-1.190,-1.495,0.519,66.667,792714.000,1.000
3.060,-2.434,2.330,-0.453,-4.785,-4.919,-3.646,-3.312,-0.005,0.984,-0.109,-1.129,-1.556,0.610,66.667,792715.000,1.000
4.366,-2.678,1.830,0.199,-5.791,-4.681,-0.171,-2.898,-0.006,0.983,-0.109,-1.190,-1.556,0.824,66.667,792716.000,1.000
6.517,-2.634,1.908,1.184,-6.846,-4.412,2.023,-3.799,-0.006,0.983,-0.110,-1.282,-1.556,0.854,66.667,792717.000,1.000
8.844,-2.754,2.229,2.158,-7.842,-4.921,1.578,-5.661,-0.007,0.981,-0.111,-1.343,-1.526,0.854,66.667,792718.000,1.000
10.736,-3.143,2.625,3.026,-8.265,-6.262,-0.474,-7.140,-0.005,0.978,-0.115,-1.160,-1.556,0.916,66.667,792719.000,1.000
11.799,-3.580,3.026,3.827,-7.626,-7.680,-1.830,-6.844,-0.006,0.979,-0.114,-1.160,-1.617,0.854,66.667,792720.000,1.000
11.898,-3.723,3.315,4.545,-6.022,-8.232,-1.488,-4.621,-0.007,0.977,-0.111,-1.007,-1.678,1.038,66.667,792721.000,1.000
11.084,-3.391,3.297,5.061,-4.180,-7.627,-0.492,-1.799,-0.006,0.978,-0.110,-0.916,-1.740,1.099,66.667,792722.000,1.000
9.492,-2.804,2.750,5.160,-3.058,-6.493,-0.586,-0.350,-0.007,0.978,-0.111,-0.854,-1.709,1.038,66.667,792723.000,1.000
7.368,-2.491,1.565,4.623,-3.283,-5.770,-2.546,-1.615,-0.006,0.979,-0.110,-0.732,-1.770,1.007,66.667,792724.000,1.000
5.270,-2.729,0.109,3.625,-4.568,-5.790,-5.389,-5.091,-0.007,0.977,-0.111,-0.671,-1.709,0.946,66.667,792725.000,1.000
4.143,-3.064,-0.614,2.994,-5.596,-5.854,-6.918,-8.391,-0.006,0.977,-0.110,-0.702,-1.740,0.977,66.667,792726.000,1.000
4.769,-2.635,0.423,3.683,-4.912,-4.776,-5.435,-8.933,-0.007,0.977,-0.106,-0.671,-1.740,0.977,66.667,792727.000,1.000
7.029,-1.008,3.353,5.913,-2.112,-2.033,-1.142,-5.904,-0.006,0.974,-0.110,-0.580,-1.740,0.885,66.667,792728.000,1.000
9.839,1.443,7.209,8.983,1.922,1.722,4.242,-0.588,-0.005,0.973,-0.114,-0.336,-1.709,0.946,66.667,792729.000,1.000
11.859,3.895,10.583,11.786,5.785,5.301,8.827,4.763,-0.004,0.972,-0.113,-0.183,-1.617,1.007,66.667,792730.000,1.000
12.306,5.677,12.505,13.442,8.474,7.833,11.568,8.306,-0.002,0.972,-0.110,0.000,-1.556,0.977,66.667,792731.000,1.000
11.227,6.528,12.853,13.617,9.744,8.876,12.513,9.429,0.000,0.972,-0.112,0.214,-1.434,0.977,66.667,792732.000,1.000
9.170,6.516,12.109,12.447,9.818,8.278,11.918,8.554,-0.001,0.973,-0.115,0.336,-1.312,1.007,66.667,792733.000,1.000
6.685,5.851,10.813,10.270,8.923,6.364,9.584,6.328,-0.002,0.973,-0.113,0.488,-1.251,0.946,66.667,792734.000,1.000
4.140,4.727,9.204,7.439,7.168,3.908,5.589,3.251,-0.001,0.972,-0.114,0.610,-1.160,0.885,66.667,792735.000,1.000
1.803,3.185,7.224,4.283,4.680,1.567,0.862,-0.195,-0.002,0.973,-0.113,0.793,-1.129,0.885,66.667,792736.000,1.000
-0.091,1.212,4.834,1.183,1.816,-0.386,-3.164,-3.372,-0.002,0.975,-0.115,0.916,-0.977,1.007,66.667,792737.000,1.000
-1.280,-0.914,2.436,-1.278,-0.649,-1.717,-4.954,-5.445,-0.003,0.974,-0.114,0.977,-0.854,0.946,66.667,792738.000,1.000
-1.566,-2.531,0.827,-2.454,-1.811,-2.151,-3.511,-5.756,-0.003,0.975,-0.112,1.190,-0.854,0.977,66.667,792739.000,1.000
-1.074,-3.084,0.572,-2.101,-1.405,-1.805,0.503,-4.437,-0.004,0.976,-0.113,1.282,-0.702,1.099,66.667,792740.000,1.000
-0.273,-2.566,1.552,-0.602,-0.060,-1.223,4.732,-2.407,-0.004,0.977,-0.111,1.343,-0.671,1.099,66.667,792741.000,1.000
0.330,-1.374,3.138,1.357,1.318,-0.812,6.902,-0.625,-0.004,0.977,-0.115,1.312,-0.580,1.099,66.667,792742.000,1.000
0.487,0.059,4.613,3.167,2.232,-0.389,6.447,0.400,-0.002,0.977,-0.113,1.343,-0.549,1.160,66.667,792743.000,1.000
0.115,1.318,5.355,4.368,2.670,0.528,4.637,0.701,-0.002,0.978,-0.114,1.343,-0.427,1.190,66.667,792744.000,1.000
-1.040,1.788,4.764,4.542,2.712,1.858,3.302,0.620,-0.003,0.981,-0.114,1.312,-0.336,1.282,66.667,792745.000,1.000
-3.435,0.780,2.382,3.371,2.272,2.724,3.201,0.235,-0.001,0.983,-0.115,1.251,-0.214,1.190,66.667,792746.000,1.000
-7.166,-1.789,-1.587,0.968,1.357,2.416,3.834,-0.621,-0.004,0.984,-0.115,1.129,-0.244,1.251,66.667,792747.000,1.000
-11.453,-5.068,-6.053,-1.934,0.320,1.087,4.283,-1.727,-0.003,0.986,-0.116,1.068,-0.214,1.282,66.667,792748.000,1.000
-14.952,-7.844,-9.615,-4.313,-0.396,-0.730,3.712,-2.450,-0.005,0.987,-0.117,0.977,-0.214,1.282,66.667,792749.000,1.000
-16.452,-9.160,-11.232,-5.272,-0.441,-2.489,1.884,-2.218,-0.008,0.987,-0.117,0.824,-0.214,1.404,66.667,792750.000,1.000
-15.343,-8.548,-10.493,-4.336,0.480,-3.470,-0.269,-0.840,-0.007,0.987,-0.115,0.763,-0.244,1.343,66.667,792751.000,1.000
-11.842,-6.170,-7.717,-1.730,2.380,-2.977,-1.286,1.349,-0.009,0.987,-0.112,0.549,-0.305,1.312,66.667,792752.000,1.000
-6.924,-2.768,-3.802,1.691,4.856,-0.842,-0.512,3.686,-0.008,0.985,-0.112,0.519,-0.366,1.190,66.667,792753.000,1.000
-1.993,0.684,0.171,4.911,7.340,2.492,1.657,5.605,-0.009,0.985,-0.115,0.244,-0.336,1.129,66.667,792754.000,1.000
1.649,3.305,3.251,7.175,9.260,6.017,4.191,6.766,-0.009,0.984,-0.114,0.122,-0.458,1.251,66.667,792755.000,1.000
3.334,4.499,4.807,8.156,10.043,8.212,5.629,6.919,-0.004,0.985,-0.114,0.153,-0.549,1.221,66.667,792756.000,1.000
3.156,4.058,4.623,7.849,9.270,7.916,4.886,5.985,-0.005,0.986,-0.110,0.092,-0.519,1.221,66.667,792757.000,1.000
1.722,2.258,2.964,6.453,7.062,5.448,2.407,4.362,-0.004,0.989,-0.116,-0.031,-0.397,1.221,66.667,792758.000,1.000
-0.132,-0.130,0.536,4.395,4.159,2.403,0.029,2.890,-0.007,0.988,-0.120,-0.092,-0.427,1.312,66.667,792759.000,1.000
-1.554,-2.079,-1.708,2.294,1.482,0.342,-0.772,2.170,-0.005,0.988,-0.116,-0.183,-0.366,1.404,66.667,792760.000,1.000
-1.866,-2.679,-2.816,0.779,-0.300,-0.118,-0.202,2.018,-0.003,0.983,-0.116,-0.336,-0.336,1.434,66.667,792761.000,1.000
-0.775,-1.480,-2.134,0.309,-0.808,0.744,0.572,1.932,-0.002,0.980,-0.118,-0.427,-0.336,1.617,66.667,792762.000,1.000
1.484,1.307,0.347,1.069,0.108,2.219,0.857,1.948,0.000,0.980,-0.118,-0.336,-0.366,1.801,66.667,792763.000,1.000
4.170,4.806,3.816,2.817,2.175,3.514,0.753,2.556,-0.002,0.980,-0.120,-0.305,-0.336,1.862,66.667,792764.000,1.000
6.335,7.851,7.006,4.874,4.643,4.136,0.672,3.876,-0.005,0.979,-0.115,-0.275,-0.214,1.801,66.667,792765.000,1.000
7.224,9.575,8.902,6.449,6.690,4.202,0.971,5.329,-0.010,0.982,-0.111,-0.244,-0.397,1.740,66.667,792766.000,1.000
6.454,9.648,9.061,6.992,7.726,4.077,1.590,5.985,-0.012,0.981,-0.116,-0.305,-0.397,1.617,66.667,792767.000,1.000
4.033,8.175,7.571,6.352,7.499,3.828,2.114,5.245,-0.014,0.979,-0.115,-0.427,-0.488,1.312,66.667,792768.000,1.000
0.454,5.634,5.004,4.823,6.215,3.394,2.466,3.383,-0.014,0.978,-0.115,-0.366,-0.610,1.190,66.667,792769.000,1.000
-3.353,2.810,2.252,2.962,4.437,2.954,2.836,1.328,-0.011,0.976,-0.116,-0.275,-0.793,1.221,66.667,792770.000,1.000
-6.372,0.532,0.196,1.324,2.867,2.885,3.087,0.058,-0.010,0.975,-0.119,-0.092,-0.885,1.038,66.667,792771.000,1.000
-8.006,-0.618,-0.596,0.318,2.146,3.543,3.155,0.265,-0.008,0.975,-0.116,-0.122,-1.068,0.977,66.667,792772.000,1.000
-8.279,-0.488,-0.040,0.092,2.553,4.943,3.308,1.985,-0.007,0.975,-0.114,0.031,-1.038,0.854,66.667,792773.000,1.000
-7.594,0.672,1.488,0.465,3.769,6.564,3.426,4.390,-0.003,0.977,-0.115,0.092,-1.099,0.854,66.667,792774.000,1.000
-6.296,2.530,3.524,1.141,5.238,7.862,3.052,6.490,-0.003,0.979,-0.115,0.153,-1.038,0.885,66.667,792775.000,1.000
-4.504,4.877,5.827,1.962,6.672,8.915,2.369,7.899,-0.003,0.979,-0.115,0.214,-1.068,0.824,66.667,792776.000,1.000
-2.381,7.371,8.154,2.747,7.892,10.033,1.975,8.456,-0.002,0.980,-0.114,0.183,-1.038,0.824,66.667,792777.000,1.000
-0.284,9.473,10.089,3.222,8.669,11.192,2.021,7.919,-0.002,0.980,-0.115,0.183,-1.038,0.916,66.667,792778.000,1.000
1.481,10.928,11.391,3.342,9.110,12.420,2.726,6.678,-0.002,0.981,-0.116,0.122,-1.099,0.977,66.667,792779.000,1.000
2.763,11.923,12.140,3.321,9.704,14.023,4.816,5.907,-0.003,0.980,-0.116,0.183,-0.977,1.007,66.667,792780.000,1.000
3.428,12.692,12.434,3.287,10.755,16.014,8.493,6.624,-0.004,0.978,-0.117,0.275,-1.007,1.190,66.667,792781.000,1.000
3.458,13.330,12.318,3.239,12.148,17.843,12.811,9.085,-0.003,0.979,-0.114,0.275,-0.946,1.373,66.667,792782.000,1.000
3.240,13.926,12.020,3.291,13.604,18.798,16.235,12.745,-0.004,0.981,-0.117,0.275,-0.977,1.373,66.667,792783.000,1.000
3.405,14.498,11.860,3.610,14.818,18.434,17.445,16.290,-0.004,0.980,-0.119,0.244,-0.885,1.465,66.667,792784.000,1.000
4.347,14.883,12.004,4.267,15.553,16.826,16.235,18.297,-0.004,0.980,-0.118,0.305,-0.885,1.373,66.667,792785.000,1.000
6.083,14.939,12.535,5.339,15.852,14.557,13.919,18.304,-0.004,0.981,-0.117,0.336,-0.824,1.434,66.667,792786.000,1.000
8.386,14.745,13.535,6.869,15.886,12.324,12.207,16.886,-0.003,0.981,-0.116,0.275,-0.793,1.526,66.667,792787.000,1.000
10.886,14.495,14.917,8.651,15.637,10.604,11.675,14.874,-0.003,0.982,-0.116,0.305,-0.702,1.648,66.667,792788.000,1.000
13.178,14.254,16.342,10.263,14.976,9.639,11.783,12.985,-0.005,0.980,-0.120,0.214,-0.732,1.678,66.667,792789.000,1.000
15.020,13.851,17.427,11.363,13.921,9.315,11.694,11.753,-0.004,0.981,-0.117,0.275,-0.793,1.617,66.667,792790.000,1.000
16.492,13.080,18.052,11.899,12.704,9.097,10.808,11.357,-0.004,0.979,-0.116,0.275,-0.763,1.587,66.667,792791.000,1.000
17.844,11.947,18.326,12.046,11.643,8.455,9.363,11.718,-0.004,0.980,-0.117,0.275,-0.702,1.465,66.667,792792.000,1.000
19.111,10.529,18.190,11.927,10.821,7.130,8.052,12.576,-0.001,0.979,-0.117,0.153,-0.763,1.556,66.667,792793.000,1.000
19.933,8.632,17.182,11.342,9.787,4.846,6.613,13.141,-0.001,0.982,-0.117,0.244,-0.793,1.526,66.667,792794.000,1.000
19.829,5.892,14.795,9.889,7.836,1.440,3.945,12.299,0.001,0.979,-0.116,0.183,-0.610,1.526,66.667,792795.000,1.000
18.651,2.293,11.062,7.404,4.726,-2.471,-0.136,9.665,0.000,0.980,-0.118,0.275,-0.488,1.587,66.667,792796.000,1.000
16.751,-1.572,6.695,4.231,0.996,-5.542,-4.316,6.094,0.000,0.980,-0.116,0.305,-0.549,1.434,66.667,792797.000,1.000
14.775,-4.844,2.726,1.083,-2.390,-6.752,-6.978,2.986,0.000,0.980,-0.118,0.305,-0.458,1.373,66.667,792798.000,1.000
13.296,-6.948,0.013,-1.314,-4.610,-6.188,-7.117,1.440,-0.002,0.979,-0.119,0.336,-0.366,1.343,66.667,792799.000,1.000
12.567,-7.802,-1.087,-2.531,-5.372,-4.764,-4.614,1.804,-0.002,0.979,-0.121,0.336,-0.397,1.404,66.667,792800.000,1.000
12.403,-7.803,-0.926,-2.698,-5.180,-3.603,-0.923,3.156,0.000,0.980,-0.119,0.366,-0.366,1.343,66.667,792801.000,1.000
12.200,-7.676,-0.461,-2.521,-5.154,-3.574,1.279,3.580,-0.001,0.980,-0.118,0.458,-0.275,1.190,66.667,792802.000,1.000
11.337,-7.952,-0.563,-2.682,-6.027,-4.771,0.493,1.989,-0.001,0.979,-0.117,0.397,-0.336,1.129,66.667,792803.000,1.000
9.607,-8.519,-1.338,-3.219,-7.362,-6.358,-1.985,-0.536,-0.004,0.978,-0.119,0.458,-0.397,0.977,66.667,792804.000,1.000
7.333,-8.733,-2.194,-3.581,-7.926,-7.105,-3.414,-1.674,-0.003,0.980,-0.117,0.427,-0.397,0.977,66.667,792805.000,1.000
5.240,-7.881,-2.381,-3.155,-6.701,-6.060,-2.140,-0.026,-0.003,0.979,-0.117,0.519,-0.427,0.977,66.667,792806.000,1.000
4.025,-5.665,-1.540,-1.745,-3.608,-2.995,1.304,3.670,-0.004,0.981,-0.120,0.519,-0.488,1.038,66.667,792807.000,1.000
3.828,-2.477,0.050,0.326,0.473,1.415,4.898,7.314,-0.007,0.980,-0.116,0.488,-0.488,0.946,66.667,792808.000,1.000
4.131,0.795,1.696,2.443,4.264,5.839,6.635,9.065,-0.006,0.980,-0.119,0.488,-0.610,0.824,66.667,792809.000,1.000
4.175,3.340,2.760,4.027,6.831,8.983,5.839,8.360,-0.006,0.981,-0.117,0.397,-0.702,0.916,66.667,792810.000,1.000
3.428,4.844,2.990,4.780,8.013,10.235,3.552,6.031,-0.006,0.979,-0.113,0.427,-0.702,0.916,66.667,792811.000,1.000
1.654,5.339,2.389,4.655,8.128,9.665,1.513,3.604,-0.007,0.981,-0.113,0.427,-0.793,0.732,66.667,792812.000,1.000
-1.204,4.815,0.985,3.630,7.365,7.538,0.403,2.100,-0.007,0.983,-0.118,0.244,-0.854,0.732,66.667,792813.000,1.000
-4.986,3.258,-1.095,1.711,5.716,4.270,-0.522,1.416,-0.008,0.982,-0.119,0.183,-0.916,0.763,66.667,792814.000,1.000
-9.178,0.987,-3.424,-0.788,3.463,0.744,-2.009,0.919,-0.007,0.982,-0.114,0.061,-0.977,0.824,66.667,792815.000,1.000
-13.039,-1.438,-5.466,-3.236,1.253,-2.176,-3.897,0.289,-0.007,0.981,-0.116,-0.031,-1.160,0.763,66.667,792816.000,1.000
-16.067,-3.691,-7.016,-5.120,-0.422,-4.347,-5.451,-0.345,-0.007,0.980,-0.116,0.000,-1.160,0.793,66.667,792817.000,1.000
-18.156,-5.724,-8.131,-6.226,-1.383,-5.917,-5.770,-0.604,-0.008,0.981,-0.117,-0.061,-1.373,0.824,66.667,792818.000,1.000
-19.378,-7.511,-8.795,-6.527,-1.641,-6.793,-4.372,-0.215,-0.010,0.981,-0.119,-0.061,-1.343,0.793,66.667,792819.000,1.000
-19.884,-9.083,-9.013,-6.226,-1.509,-7.025,-2.043,0.529,-0.009,0.982,-0.115,-0.122,-1.312,0.793,66.667,792820.000,1.000
-19.879,-10.645,-8.988,-5.774,-1.520,-7.071,-0.488,0.948,-0.008,0.983,-0.115,-0.153,-1.434,0.916,66.667,792821.000,1.000
-19.431,-12.331,-8.912,-5.534,-1.977,-7.405,-0.884,0.646,-0.008,0.979,-0.115,-0.153,-1.526,0.946,66.667,792822.000,1.000
-18.259,-13.825,-8.656,-5.426,-2.578,-8.024,-3.061,-0.150,-0.008,0.980,-0.116,-0.305,-1.556,0.977,66.667,792823.000,1.000
-15.884,-14.330,-7.768,-4.940,-2.509,-8.360,-5.562,-0.663,-0.008,0.979,-0.118,-0.305,-1.709,0.977,66.667,792824.000,1.000
-12.058,-12.972,-5.764,-3.497,-0.931,-7.640,-6.309,0.126,-0.008,0.981,-0.116,-0.336,-1.801,1.099,66.667,792825.000,1.000
-7.124,-9.418,-2.555,-0.882,2.362,-5.310,-3.884,2.773,-0.007,0.980,-0.116,-0.336,-1.862,1.007,66.667,792826.000,1.000
-2.003,-4.319,1.237,2.491,6.548,-1.436,1.325,6.708,-0.008,0.982,-0.118,-0.366,-1.892,1.038,66.667,792827.000,1.000
2.237,0.906,4.511,5.796,10.167,3.161,7.347,10.532,-0.007,0.983,-0.117,-0.458,-1.923,1.129,66.667,792828.000,1.000
4.823,4.873,6.285,8.213,11.991,7.235,11.912,12.840,-0.005,0.981,-0.115,-0.549,-1.801,1.190,66.667,792829.000,1.000
5.411,6.865,6.109,9.196,11.582,9.600,13.406,12.797,-0.006,0.980,-0.118,-0.610,-1.770,1.190,66.667,792830.000,1.000
4.158,7.014,4.251,8.747,9.534,9.768,11.691,10.793,-0.004,0.980,-0.116,-0.580,-1.709,1.221,66.667,792831.000,1.000
1.745,6.097,1.617,7.487,7.178,8.372,8.303,8.404,-0.002,0.981,-0.117,-0.641,-1.648,1.251,66.667,792832.000,1.000
-0.907,4.952,-0.789,6.111,5.547,6.557,4.825,6.686,-0.002,0.983,-0.115,-0.732,-1.709,1.312,66.667,792833.000,1.000
-3.120,3.932,-2.486,4.801,4.618,4.889,1.543,5.014,0.000,0.983,-0.118,-0.732,-1.556,1.373,66.667,792834.000,1.000
-4.632,2.974,-3.561,3.396,3.819,3.281,-1.538,2.416,0.000,0.984,-0.118,-0.732,-1.526,1.526,66.667,792835.000,1.000
-5.380,2.030,-4.248,1.927,2.945,1.705,-3.575,-0.789,0.000,0.982,-0.118,-0.824,-1.526,1.495,66.667,792836.000,1.000
-5.369,1.214,-4.677,0.697,2.231,0.455,-3.725,-3.381,0.000,0.983,-0.117,-0.916,-1.312,1.556,66.667,792837.000,1.000
-4.690,0.708,-4.827,0.037,1.976,-0.116,-2.224,-4.484,0.000,0.981,-0.120,-0.946,-1.282,1.556,66.667,792838.000,1.000
-3.507,0.654,-4.589,0.090,2.305,0.135,-0.106,-4.040,0.000,0.979,-0.117,-1.007,-1.190,1.404,66.667,792839.000,1.000
-2.094,0.985,-3.967,0.662,3.045,1.065,1.524,-2.673,-0.002,0.980,-0.114,-1.038,-1.038,1.373,66.667,792840.000,1.000
-0.829,1.391,-3.174,1.326,3.855,2.507,2.222,-1.189,-0.002,0.979,-0.113,-0.977,-1.038,1.343,66.667,792841.000,1.000
-0.049,1.598,-2.449,1.709,4.496,4.466,2.645,0.028,-0.001,0.980,-0.113,-0.946,-0.946,1.404,66.667,792842.000,1.000
0.162,1.615,-1.821,1.695,4.941,6.866,3.785,1.118,0.000,0.979,-0.117,-0.977,-0.793,1.434,66.667,792843.000,1.000
0.040,1.654,-1.146,1.392,5.237,9.234,5.794,2.285,-0.001,0.977,-0.114,-0.946,-0.702,1.465,66.667,792844.000,1.000
-0.003,1.870,-0.334,0.951,5.300,10.845,7.669,3.166,-0.001,0.977,-0.116,-1.160,-0.549,1.404,66.667,792845.000,1.000
0.366,2.239,0.601,0.458,4.984,11.246,8.134,2.931,-0.001,0.978,-0.115,-1.099,-0.397,1.343,66.667,792846.000,1.000
1.219,2.730,1.683,0.008,4.432,10.559,7.042,1.414,-0.001,0.978,-0.113,-0.946,-0.244,1.221,66.667,792847.000,1.000
2.440,3.483,3.037,-0.193,4.218,9.312,5.519,-0.251,-0.001,0.979,-0.116,-0.946,-0.244,1.343,66.667,792848.000,1.000
3.843,4.703,4.679,0.046,4.868,8.182,4.731,-0.610,-0.004,0.979,-0.112,-0.854,-0.183,1.251,66.667,792849.000,1.000
5.143,6.431,6.341,0.675,6.336,7.757,4.973,0.833,-0.003,0.979,-0.115,-0.824,-0.183,1.160,66.667,792850.000,1.000
6.008,8.493,7.583,1.385,8.032,8.188,5.821,3.491,-0.003,0.981,-0.114,-0.763,-0.214,1.160,66.667,792851.000,1.000
6.248,10.622,8.036,1.755,9.153,9.041,6.619,6.172,-0.004,0.980,-0.115,-0.763,-0.214,1.160,66.667,792852.000,1.000
5.997,12.601,7.617,1.522,9.068,9.663,6.869,7.631,-0.004,0.979,-0.113,-0.702,-0.183,1.160,66.667,792853.000,1.000
5.744,14.375,6.713,0.873,7.693,9.778,6.603,7.340,-0.002,0.980,-0.111,-0.610,-0.061,1.221,66.667,792854.000,1.000
6.100,16.055,6.076,0.433,5.509,9.588,6.193,5.775,-0.003,0.978,-0.116,-0.519,0.000,1.221,66.667,792855.000,1.000
7.345,17.653,6.290,0.783,3.048,9.156,5.483,3.737,-0.004,0.980,-0.114,-0.488,-0.031,1.190,66.667,792856.000,1.000
9.097,18.806,7.224,1.955,0.492,8.059,3.770,1.720,-0.003,0.982,-0.111,-0.458,0.000,1.129,66.667,792857.000,1.000
10.597,19.023,8.157,3.517,-2.009,6.081,1.005,0.131,-0.005,0.980,-0.114,-0.549,-0.061,1.129,66.667,792858.000,1.000
11.286,18.153,8.368,4.972,-4.054,3.853,-1.849,-0.544,-0.004,0.981,-0.114,-0.427,-0.122,1.221,66.667,792859.000,1.000
11.013,16.415,7.507,5.955,-5.297,2.292,-3.892,-0.235,-0.006,0.981,-0.114,-0.397,-0.153,1.190,66.667,792860.000,1.000
9.931,14.186,5.710,6.293,-5.750,1.753,-4.978,0.450,-0.005,0.981,-0.116,-0.305,-0.153,1.251,66.667,792861.000,1.000
8.363,11.885,3.502,6.028,-5.712,1.923,-5.350,0.660,-0.008,0.980,-0.115,-0.244,-0.214,1.282,66.667,792862.000,1.000
6.674,9.916,1.540,5.352,-5.453,2.309,-5.033,0.015,-0.006,0.980,-0.112,-0.214,-0.183,1.343,66.667,792863.000,1.000
5.138,8.552,0.262,4.478,-5.029,2.575,-3.734,-1.114,-0.006,0.983,-0.111,-0.153,-0.275,1.343,66.667,792864.000,1.000
3.828,7.672,-0.392,3.430,-4.530,2.397,-1.731,-2.354,-0.008,0.982,-0.112,-0.153,-0.397,1.312,66.667,792865.000,1.000
2.666,6.706,-0.933,2.000,-4.361,1.328,-0.443,-4.027,-0.008,0.981,-0.111,-0.183,-0.458,1.312,66.667,792866.000,1.000
1.671,5.112,-1.853,0.078,-4.906,-0.798,-1.108,-6.488,-0.007,0.980,-0.112,-0.153,-0.580,1.343,66.667,792867.000,1.000
1.030,2.828,-3.253,-2.111,-6.130,-3.596,-3.529,-9.300,-0.008,0.981,-0.112,-0.183,-0.641,1.373,66.667,792868.000,1.000
0.755,0.122,-5.013,-4.294,-7.769,-6.509,-6.599,-11.649,-0.008,0.980,-0.114,-0.061,-0.641,1.404,66.667,792869.000,1.000
0.517,-2.661,-6.946,-6.322,-9.526,-9.049,-9.118,-12.922,-0.006,0.979,-0.112,0.031,-0.641,1.404,66.667,792870.000,1.000
-0.040,-5.076,-8.687,-8.007,-10.946,-10.687,-10.090,-12.753,-0.005,0.980,-0.113,0.122,-0.671,1.434,66.667,792871.000,1.000
-1.068,-6.673,-9.821,-9.174,-11.562,-11.072,-9.225,-11.243,-0.007,0.980,-0.112,0.122,-0.732,1.434,66.667,792872.000,1.000
-2.463,-7.222,-10.149,-9.789,-11.118,-10.221,-7.103,-9.053,-0.006,0.979,-0.112,0.122,-0.793,1.343,66.667,792873.000,1.000
-3.844,-6.737,-9.674,-9.838,-9.609,-8.340,-4.262,-6.846,-0.006,0.979,-0.110,0.122,-0.946,1.343,66.667,792874.000,1.000
-4.699,-5.415,-8.503,-9.242,-7.337,-5.784,-0.694,-4.966,-0.005,0.979,-0.109,0.153,-0.977,1.434,66.667,792875.000,1.000
-4.651,-3.571,-6.787,-7.938,-4.838,-3.141,3.339,-3.637,-0.005,0.978,-0.112,0.153,-0.946,1.343,66.667,792876.000,1.000
-3.623,-1.480,-4.666,-5.938,-2.536,-0.917,6.639,-3.017,-0.006,0.980,-0.113,0.122,-0.946,1.434,66.667,792877.000,1.000
-1.934,0.601,-2.335,-3.435,-0.620,0.668,7.705,-3.145,-0.006,0.980,-0.114,0.153,-0.946,1.404,66.667,792878.000,1.000
-0.323,2.247,-0.218,-0.937,0.730,1.429,5.962,-3.915,-0.004,0.979,-0.115,0.153,-1.038,1.343,66.667,792879.000,1.000
0.440,3.071,1.191,0.926,1.346,1.252,2.201,-4.980,-0.003,0.979,-0.112,0.214,-1.007,1.343,66.667,792880.000,1.000
0.184,3.194,1.755,1.856,1.346,0.434,-1.995,-5.823,-0.003,0.978,-0.112,0.153,-0.977,1.312,66.667,792881.000,1.000
-0.659,3.106,1.714,1.969,1.059,-0.436,-4.980,-6.070,-0.003,0.979,-0.114,0.214,-1.007,1.282,66.667,792882.000,1.000
-1.610,3.156,1.373,1.541,0.784,-0.791,-5.538,-5.612,-0.006,0.981,-0.115,0.092,-1.038,1.221,66.667,792883.000,1.000
-2.528,3.330,0.875,0.810,0.661,-0.177,-3.408,-4.554,-0.005,0.982,-0.112,0.183,-0.977,1.221,66.667,792884.000,1.000
-3.607,3.243,0.046,-0.214,0.448,1.359,0.019,-3.350,-0.003,0.982,-0.114,0.183,-1.007,1.160,66.667,792885.000,1.000
-5.158,2.265,-1.576,-1.818,-0.481,2.872,2.072,-2.776,-0.003,0.981,-0.115,0.092,-1.007,1.099,66.667,792886.000,1.000
-7.401,-0.040,-4.367,-4.265,-2.566,3.057,0.919,-3.391,-0.002,0.981,-0.113,0.092,-1.038,1.068,66.667,792887.000,1.000
-10.251,-3.482,-8.137,-7.358,-5.494,1.350,-3.013,-5.058,0.000,0.981,-0.113,0.122,-1.007,0.977,66.667,792888.000,1.000
-13.190,-7.243,-12.074,-10.441,-8.397,-1.714,-7.897,-7.146,-0.001,0.981,-0.114,0.061,-1.007,0.977,66.667,792889.000,1.000
-15.456,-10.316,-15.184,-12.787,-10.463,-5.048,-11.895,-8.998,-0.001,0.980,-0.112,0.031,-0.977,0.977,66.667,792890.000,1.000
-16.451,-11.924,-16.767,-13.876,-11.183,-7.468,-13.429,-9.893,-0.003,0.978,-0.110,0.061,-0.946,1.038,66.667,792891.000,1.000
-16.043,-11.746,-16.637,-13.485,-10.349,-8.021,-11.332,-8.949,-0.002,0.978,-0.112,-0.031,-0.916,0.977,66.667,792892.000,1.000
-14.528,-10.038,-15.110,-11.788,-8.237,-6.702,-5.930,-5.793,-0.004,0.979,-0.115,0.061,-0.946,1.007,66.667,792893.000,1.000
-12.492,-7.589,-12.903,-9.444,-5.731,-4.653,0.484,-1.384,-0.004,0.979,-0.114,0.122,-1.038,0.885,66.667,792894.000,1.000
-10.575,-5.302,-10.829,-7.323,-3.820,-3.054,5.268,2.507,-0.008,0.981,-0.116,0.153,-0.977,0.854,66.667,792895.000,1.000
-9.077,-3.615,-9.288,-5.954,-2.831,-2.051,7.452,4.754,-0.006,0.981,-0.111,0.214,-1.099,0.854,66.667,792896.000,1.000
-7.861,-2.475,-8.174,-5.447,-2.573,-1.248,7.474,5.032,-0.006,0.981,-0.113,0.153,-1.068,1.038,66.667,792897.000,1.000
-6.714,-1.744,-7.259,-5.785,-2.958,-0.664,5.656,3.020,-0.006,0.980,-0.115,0.244,-1.160,1.038,66.667,792898.000,1.000
-5.600,-1.264,-6.384,-6.782,-3.835,-0.489,2.427,-1.058,-0.005,0.979,-0.113,0.031,-1.190,0.977,66.667,792899.000,1.000
-4.613,-0.756,-5.457,-7.945,-4.616,-0.592,-0.986,-5.641,-0.006,0.978,-0.117,0.061,-1.221,0.977,66.667,792900.000,1.000
-3.861,-0.032,-4.525,-8.743,-4.661,-0.850,-3.434,-8.716,-0.007,0.977,-0.115,0.122,-1.190,1.007,66.667,792901.000,1.000
-3.372,0.831,-3.777,-8.871,-3.773,-1.238,-4.500,-9.132,-0.006,0.978,-0.114,0.122,-1.190,0.916,66.667,792902.000,1.000
-3.097,1.542,-3.442,-8.350,-2.249,-1.528,-4.348,-7.066,-0.006,0.979,-0.116,0.153,-1.221,0.977,66.667,792903.000,1.000
-3.128,1.610,-3.854,-7.637,-0.851,-1.655,-3.841,-3.858,-0.004,0.980,-0.117,0.214,-1.282,1.160,66.667,792904.000,1.000
-3.752,0.473,-5.389,-7.453,-0.549,-2.059,-4.100,-1.196,-0.005,0.983,-0.115,0.305,-1.343,1.099,66.667,792905.000,1.000
-5.171,-2.080,-8.120,-8.286,-1.882,-3.101,-5.335,-0.051,-0.006,0.984,-0.114,0.214,-1.312,1.251,66.667,792906.000,1.000
-7.270,-5.667,-11.633,-10.117,-4.668,-4.576,-6.789,-0.495,-0.006,0.982,-0.115,0.214,-1.373,1.282,66.667,792907.000,1.000
-9.578,-9.527,-15.187,-12.507,-8.256,-6.056,-7.851,-2.194,-0.006,0.981,-0.115,0.122,-1.343,1.343,66.667,792908.000,1.000
-11.389,-12.859,-18.002,-14.785,-11.816,-7.228,-8.417,-4.548,-0.006,0.980,-0.112,0.061,-1.312,1.251,66.667,792909.000,1.000
-12.107,-15.105,-19.558,-16.286,-14.607,-7.943,-8.413,-6.679,-0.005,0.979,-0.115,0.031,-1.282,1.221,66.667,792910.000,1.000
-11.706,-16.222,-19.923,-16.743,-16.352,-8.476,-7.776,-7.852,-0.006,0.982,-0.117,0.122,-1.312,1.251,66.667,792911.000,1.000
-10.808,-16.688,-19.778,-16.465,-17.344,-9.460,-6.554,-7.829,-0.005,0.985,-0.117,0.244,-1.312,1.190,66.667,792912.000,1.000
-10.191,-17.023,-19.896,-16.020,-18.032,-11.235,-4.924,-6.830,-0.005,0.986,-0.118,0.275,-1.343,1.129,66.667,792913.000,1.000
-10.238,-17.373,-20.557,-15.842,-18.701,-13.588,-3.647,-5.647,-0.003,0.983,-0.115,0.092,-1.251,1.068,66.667,792914.000,1.000
-10.784,-17.523,-21.425,-16.076,-19.428,-15.931,-4.038,-5.512,-0.001,0.980,-0.114,-0.031,-1.221,1.129,66.667,792915.000,1.000
-11.241,-17.108,-21.769,-16.456,-19.905,-17.428,-6.632,-7.001,0.001,0.976,-0.114,-0.061,-1.099,1.282,66.667,792916.000,1.000
-10.988,-15.897,-20.884,-16.358,-19.489,-17.441,-10.310,-9.309,0.000,0.972,-0.113,-0.061,-1.129,1.312,66.667,792917.000,1.000
-9.792,-14.063,-18.562,-15.238,-17.764,-16.162,-13.339,-11.108,0.002,0.971,-0.116,0.092,-0.977,1.434,66.667,792918.000,1.000
-7.875,-12.094,-15.173,-13.002,-14.928,-14.409,-14.609,-11.552,0.002,0.971,-0.117,0.275,-0.885,1.526,66.667,792919.000,1.000
-5.620,-10.384,-11.286,-9.909,-11.488,-12.779,-13.649,-10.246,0.004,0.974,-0.117,0.427,-0.763,1.556,66.667,792920.000,1.000
-3.369,-9.008,-7.334,-6.405,-7.924,-11.316,-10.527,-7.245,0.002,0.977,-0.116,0.519,-0.610,1.556,66.667,792921.000,1.000
-1.363,-7.780,-3.584,-3.016,-4.691,-9.772,-6.199,-3.325,0.000,0.980,-0.116,0.549,-0.519,1.617,66.667,792922.000,1.000
0.405,-6.345,-0.087,-0.040,-2.083,-7.810,-2.167,0.459,0.002,0.982,-0.115,0.549,-0.397,1.617,66.667,792923.000,1.000
2.115,-4.461,3.231,2.597,-0.044,-5.288,0.718,3.591,0.002,0.983,-0.116,0.427,-0.275,1.740,66.667,792924.000,1.000
3.761,-2.391,6.254,5.046,1.586,-2.722,2.508,6.091,0.002,0.985,-0.120,0.275,-0.305,1.831,66.667,792925.000,1.000
5.025,-0.789,8.586,7.242,2.787,-1.110,3.315,7.914,0.000,0.985,-0.120,0.244,-0.244,1.648,66.667,792926.000,1.000
5.531,-0.104,9.880,8.956,3.494,-0.990,3.221,8.838,-0.002,0.986,-0.116,0.244,-0.183,1.648,66.667,792927.000,1.000
5.189,-0.274,10.144,10.045,3.806,-2.000,2.710,8.831,-0.004,0.988,-0.117,0.122,-0.183,1.434,66.667,792928.000,1.000
4.227,-0.994,9.655,10.540,3.796,-3.529,2.190,8.128,-0.006,0.988,-0.115,0.061,-0.214,1.343,66.667,792929.000,1.000
2.945,-2.034,8.715,10.581,3.322,-5.298,1.381,7.020,-0.010,0.989,-0.114,-0.122,-0.366,1.282,66.667,792930.000,1.000
1.539,-3.224,7.619,10.374,2.300,-7.070,-0.150,5.807,-0.012,0.990,-0.115,-0.336,-0.397,1.007,66.667,792931.000,1.000
0.082,-4.410,6.640,10.094,0.965,-8.453,-2.277,4.776,-0.011,0.988,-0.115,-0.488,-0.610,0.763,66.667,792932.000,1.000
-1.306,-5.519,5.932,9.784,-0.285,-9.435,-4.445,4.160,-0.012,0.987,-0.115,-0.641,-0.671,0.549,66.667,792933.000,1.000
-2.313,-6.462,5.526,9.429,-1.049,-10.352,-5.621,4.299,-0.009,0.983,-0.116,-0.702,-0.885,0.458,66.667,792934.000,1.000
-2.511,-6.966,5.427,9.063,-0.984,-11.031,-4.501,5.368,-0.010,0.983,-0.117,-0.824,-1.007,0.397,66.667,792935.000,1.000
-1.640,-6.793,5.598,8.644,-0.207,-10.985,-1.303,6.443,-0.007,0.982,-0.117,-0.793,-1.038,0.336,66.667,792936.000,1.000
0.218,-6.080,5.859,7.967,0.442,-10.530,1.243,5.660,-0.004,0.983,-0.115,-0.793,-1.099,0.488,66.667,792937.000,1.000
2.809,-5.121,6.078,6.962,0.153,-10.554,0.369,2.112,-0.005,0.982,-0.115,-0.854,-1.099,0.427,66.667,792938.000,1.000
5.814,-3.991,6.326,5.877,-1.006,-11.355,-3.796,-2.998,-0.004,0.981,-0.113,-0.793,-1.129,0.488,66.667,792939.000,1.000
8.654,-2.722,6.618,4.965,-2.359,-12.568,-8.760,-7.484,-0.005,0.983,-0.115,-0.763,-1.099,0.610,66.667,792940.000,1.000
10.529,-1.657,6.658,4.189,-3.433,-13.793,-12.165,-9.865,-0.006,0.984,-0.114,-0.763,-1.190,0.732,66.667,792941.000,1.000
10.810,-1.401,5.920,3.247,-4.330,-14.796,-13.174,-10.050,-0.007,0.985,-0.111,-0.702,-1.282,0.702,66.667,792942.000,1.000
9.358,-2.447,3.992,1.818,-5.453,-15.435,-12.367,-9.024,-0.009,0.983,-0.109,-0.702,-1.404,0.946,66.667,792943.000,1.000
6.586,-4.723,0.964,-0.095,-6.882,-15.555,-10.777,-7.873,-0.010,0.982,-0.108,-0.671,-1.343,1.068,66.667,792944.000,1.000
3.346,-7.465,-2.444,-2.033,-8.077,-14.912,-8.956,-6.912,-0.013,0.980,-0.108,-0.519,-1.343,1.160,66.667,792945.000,1.000
0.683,-9.597,-5.212,-3.370,-8.291,-13.328,-6.944,-5.847,-0.011,0.979,-0.108,-0.580,-1.434,1.251,66.667,792946.000,1.000
-0.517,-10.277,-6.571,-3.766,-7.284,-10.891,-4.893,-4.707,-0.011,0.979,-0.108,-0.549,-1.526,1.251,66.667,792947.000,1.000
0.201,-9.190,-6.292,-3.255,-5.463,-7.869,-3.317,-4.039,-0.011,0.979,-0.110,-0.427,-1.678,1.343,66.667,792948.000,1.000
2.714,-6.611,-4.610,-1.988,-3.388,-4.621,-2.606,-4.092,-0.010,0.979,-0.108,-0.397,-1.801,1.251,66.667,792949.000,1.000
6.316,-3.333,-2.083,-0.109,-1.371,-1.755,-2.591,-4.301,-0.009,0.978,-0.108,-0.275,-1.831,1.312,66.667,792950.000,1.000
9.954,-0.351,0.571,2.176,0.556,0.102,-2.602,-3.748,-0.005,0.978,-0.108,-0.153,-1.984,1.343,66.667,792951.000,1.000
12.543,1.520,2.616,4.495,2.333,0.783,-1.937,-2.057,-0.006,0.978,-0.109,-0.092,-1.801,1.312,66.667,792952.000,1.000
13.204,1.737,3.440,6.255,3.490,0.487,-0.606,0.065,-0.004,0.977,-0.109,0.092,-1.831,1.373,66.667,792953.000,1.000
11.530,0.106,2.756,6.826,3.223,-0.535,0.534,1.288,-0.002,0.975,-0.110,0.153,-1.740,1.373,66.667,792954.000,1.000
7.890,-2.938,0.812,5.951,1.064,-1.923,0.527,0.703,-0.002,0.972,-0.113,0.275,-1.617,1.434,66.667,792955.000,1.000
3.384,-6.365,-1.675,3.984,-2.526,-3.156,-0.978,-1.559,0.000,0.972,-0.114,0.427,-1.495,1.434,66.667,792956.000,1.000
-0.627,-9.028,-3.841,1.736,-6.277,-3.768,-3.497,-4.490,0.001,0.974,-0.114,0.549,-1.343,1.373,66.667,792957.000,1.000
-3.008,-10.090,-4.923,0.141,-8.740,-3.574,-6.030,-6.789,0.001,0.973,-0.112,0.671,-1.312,1.312,66.667,792958.000,1.000
-3.317,-9.316,-4.565,-0.222,-9.084,-2.777,-7.762,-7.590,0.001,0.974,-0.113,0.824,-1.190,1.343,66.667,792959.000,1.000
-2.093,-7.295,-3.133,0.482,-7.573,-1.956,-8.497,-6.937,0.001,0.972,-0.112,0.946,-1.099,1.312,66.667,792960.000,1.000
-0.478,-5.161,-1.512,1.534,-5.211,-1.670,-8.353,-5.401,0.002,0.973,-0.113,1.038,-0.885,1.282,66.667,792961.000,1.000
0.534,-3.815,-0.407,2.296,-2.869,-1.814,-7.078,-3.280,0.000,0.973,-0.115,1.190,-0.732,1.160,66.667,792962.000,1.000
0.598,-3.336,0.151,2.650,-0.758,-1.698,-4.253,-0.542,0.001,0.974,-0.114,1.221,-0.702,1.190,66.667,792963.000,1.000
0.016,-3.155,0.608,2.872,1.248,-1.055,-0.389,2.394,0.001,0.976,-0.115,1.190,-0.580,1.068,66.667,792964.000,1.000
-0.607,-2.650,1.302,3.234,3.086,-0.433,2.904,4.448,0.001,0.975,-0.114,1.282,-0.519,1.129,66.667,792965.000,1.000
-0.748,-1.522,2.237,3.817,4.538,-0.344,4.392,4.920,0.000,0.978,-0.114,1.434,-0.458,1.099,66.667,792966.000,1.000
-0.213,0.116,3.296,4.594,5.466,-0.793,4.111,4.233,-0.001,0.977,-0.115,1.465,-0.366,1.099,66.667,792967.000,1.000
0.852,1.829,4.463,5.500,5.815,-1.670,2.522,3.299,-0.002,0.979,-0.114,1.404,-0.305,1.068,66.667,792968.000,1.000
2.141,3.209,5.823,6.457,5.650,-2.698,0.129,2.674,-0.003,0.979,-0.114,1.373,-0.244,0.977,66.667,792969.000,1.000
3.458,4.226,7.494,7.464,5.322,-3.144,-2.039,2.561,-0.003,0.981,-0.115,1.404,-0.122,0.977,66.667,792970.000,1.000
4.858,5.150,9.527,8.585,5.309,-2.430,-2.998,2.898,-0.003,0.981,-0.116,1.404,-0.122,1.007,66.667,792971.000,1.000
6.428,6.156,11.680,9.688,5.716,-0.857,-2.851,3.144,-0.003,0.984,-0.115,1.251,-0.061,0.946,66.667,792972.000,1.000
8.006,7.154,13.413,10.369,6.236,0.869,-2.282,2.680,-0.006,0.986,-0.115,1.190,-0.122,0.946,66.667,792973.000,1.000
9.205,7.896,14.192,10.264,6.529,2.395,-1.405,1.496,-0.006,0.987,-0.114,0.977,-0.153,1.068,66.667,792974.000,1.000
9.729,8.166,13.840,9.346,6.431,3.647,-0.025,0.084,-0.008,0.990,-0.111,0.885,-0.244,1.129,66.667,792975.000,1.000
9.694,7.998,12.714,7.987,6.042,4.511,1.609,-0.992,-0.010,0.990,-0.112,0.732,-0.214,0.977,66.667,792976.000,1.000
9.437,7.616,11.397,6.689,5.627,4.787,2.999,-1.271,-0.011,0.989,-0.112,0.580,-0.336,1.099,66.667,792977.000,1.000
9.083,7.040,10.145,5.664,5.281,4.178,3.732,-0.631,-0.011,0.987,-0.111,0.275,-0.427,1.160,66.667,792978.000,1.000
8.595,6.018,8.837,4.793,4.794,2.479,3.463,0.572,-0.010,0.986,-0.111,0.061,-0.671,1.038,66.667,792979.000,1.000
8.070,4.409,7.395,3.946,3.898,-0.071,1.935,1.638,-0.008,0.984,-0.115,-0.061,-0.793,1.099,66.667,792980.000,1.000
7.691,2.417,5.998,3.134,2.542,-2.827,-0.800,1.828,-0.006,0.983,-0.116,-0.122,-0.824,1.099,66.667,792981.000,1.000
7.493,0.517,4.965,2.449,1.046,-4.911,-3.776,1.016,-0.005,0.980,-0.115,-0.092,-0.916,1.129,66.667,792982.000,1.000
7.368,-0.736,4.567,1.993,0.085,-5.275,-5.132,0.007,-0.003,0.980,-0.116,-0.122,-0.854,1.251,66.667,792983.000,1.000
7.218,-1.007,4.826,1.760,0.203,-3.406,-3.738,-0.318,-0.001,0.982,-0.114,-0.153,-1.007,1.373,66.667,792984.000,1.000
7.099,-0.373,5.505,1.659,1.325,-0.160,-0.657,0.025,-0.001,0.984,-0.114,-0.214,-1.038,1.312,66.667,792985.000,1.000
7.227,0.828,6.347,1.667,2.904,2.754,1.785,0.251,-0.003,0.980,-0.115,-0.275,-0.946,1.404,66.667,792986.000,1.000
7.731,2.192,7.172,1.831,4.401,4.083,2.124,-0.408,0.000,0.980,-0.116,-0.275,-0.977,1.617,66.667,792987.000,1.000
8.534,3.482,7.916,2.250,5.745,3.991,0.810,-1.898,0.000,0.978,-0.117,-0.305,-0.977,1.678,66.667,792988.000,1.000
9.539,4.850,8.737,3.099,7.479,4.158,-0.202,-3.173,0.000,0.977,-0.116,-0.183,-0.824,1.770,66.667,792989.000,1.000
10.771,6.688,9.980,4.536,10.258,6.519,1.010,-2.969,-0.001,0.979,-0.117,-0.061,-0.732,1.740,66.667,792990.000,1.000
12.224,9.101,11.852,6.500,14.123,11.433,4.839,-0.659,-0.006,0.978,-0.114,-0.031,-0.793,1.740,66.667,792991.000,1.000
13.558,11.581,14.013,8.583,18.252,17.262,10.209,3.608,-0.008,0.979,-0.114,-0.061,-0.793,1.709,66.667,792992.000,1.000
14.104,13.281,15.551,10.087,21.385,21.726,15.575,8.936,-0.008,0.980,-0.116,-0.183,-0.916,1.495,66.667,792993.000,1.000
13.183,13.532,15.380,10.217,22.387,23.460,19.536,13.453,-0.008,0.980,-0.115,-0.214,-1.007,1.343,66.667,792994.000,1.000
10.537,12.240,12.900,8.483,20.761,22.686,21.212,14.963,-0.007,0.977,-0.116,-0.214,-1.099,1.251,66.667,792995.000,1.000
6.689,10.029,8.539,5.187,17.038,20.944,20.697,12.656,-0.007,0.975,-0.114,-0.183,-1.129,1.221,66.667,792996.000,1.000
2.821,7.992,3.645,1.363,12.575,20.069,18.840,7.733,-0.005,0.973,-0.115,-0.092,-1.068,0.916,66.667,792997.000,1.000
0.132,7.003,-0.260,-1.860,8.720,20.650,15.981,2.140,-0.005,0.972,-0.116,0.122,-1.190,0.702,66.667,792998.000,1.000
-0.935,7.100,-2.316,-3.922,6.048,21.322,11.479,-2.782,-0.003,0.974,-0.117,0.244,-1.160,0.732,66.667,792999.000,1.000
-0.953,7.587,-2.619,-4.941,4.402,20.287,5.286,-6.305,-0.003,0.978,-0.116,0.214,-1.221,0.610,66.667,793000.000,1.000
-0.885,7.806,-1.754,-5.258,3.530,17.363,-0.741,-7.816,0.000,0.978,-0.117,0.488,-1.099,0.641,66.667,793001.000,1.000
-1.271,7.592,-0.241,-5.044,3.384,13.962,-4.063,-7.020,-0.001,0.980,-0.117,0.427,-1.007,0.610,66.667,793002.000,1.000
-1.982,7.117,1.576,-4.289,3.961,11.540,-3.669,-4.375,-0.001,0.984,-0.114,0.458,-1.038,0.702,66.667,793003.000,1.000
-2.488,6.564,3.429,-3.034,5.118,10.594,-0.633,-0.917,0.000,0.982,-0.116,0.458,-1.068,0.793,66.667,793004.000,1.000
-2.258,6.057,5.103,-1.498,6.603,10.823,3.193,2.387,-0.001,0.980,-0.114,0.488,-1.068,0.885,66.667,793005.000,1.000
-1.106,5.708,6.489,0.041,8.199,11.708,6.676,5.152,-0.001,0.980,-0.115,0.549,-1.068,0.946,66.667,793006.000,1.000
0.614,5.584,7.530,1.386,9.684,12.772,9.542,7.346,-0.004,0.979,-0.116,0.580,-0.946,1.221,66.667,793007.000,1.000
2.212,5.700,8.200,2.436,10.732,13.718,11.359,8.554,-0.005,0.980,-0.117,0.702,-0.977,1.343,66.667,793008.000,1.000
3.070,6.063,8.553,3.167,11.093,14.489,11.402,8.139,-0.003,0.981,-0.113,0.793,-0.946,1.404,66.667,793009.000,1.000
2.844,6.612,8.657,3.651,10.899,15.102,9.773,6.352,-0.005,0.982,-0.113,0.824,-0.793,1.434,66.667,793010.000,1.000
1.515,7.184,8.432,4.018,10.592,15.492,7.673,4.446,-0.007,0.982,-0.114,0.793,-0.793,1.465,66.667,793011.000,1.000
-0.677,7.501,7.503,4.206,10.345,15.414,6.172,3.329,-0.007,0.983,-0.112,0.824,-0.763,1.495,66.667,793012.000,1.000
-3.389,7.099,5.376,3.824,9.663,14.400,5.211,2.677,-0.006,0.983,-0.113,0.702,-0.793,1.495,66.667,793013.000,1.000
-6.173,5.573,1.979,2.508,7.821,12.097,4.077,1.623,-0.005,0.981,-0.114,0.885,-0.916,1.617,66.667,793014.000,1.000
-8.414,3.050,-1.999,0.382,4.662,8.738,2.355,-0.157,-0.006,0.980,-0.114,0.763,-0.885,1.648,66.667,793015.000,1.000
-9.634,0.232,-5.508,-2.015,0.796,5.185,0.307,-2.270,-0.005,0.979,-0.115,0.824,-0.946,1.678,66.667,793016.000,1.000
-9.994,-2.177,-7.921,-4.188,-2.877,2.370,-1.247,-4.028,-0.005,0.979,-0.115,0.885,-0.916,1.709,66.667,793017.000,1.000
-10.177,-3.900,-9.244,-5.834,-5.614,0.680,-1.515,-4.814,-0.004,0.979,-0.115,0.946,-0.946,1.678,66.667,793018.000,1.000
-10.698,-4.933,-9.728,-6.744,-7.045,0.011,-0.388,-4.540,-0.003,0.979,-0.115,0.977,-0.854,1.740,66.667,793019.000,1.000
-11.513,-5.316,-9.568,-6.856,-7.280,0.103,1.449,-3.800,-0.002,0.980,-0.114,0.977,-0.824,1.556,66.667,793020.000,1.000
-12.233,-5.164,-8.987,-6.410,-6.866,0.467,2.838,-3.438,-0.002,0.979,-0.113,1.038,-0.763,1.587,66.667,793021.000,1.000
-12.535,-4.733,-8.370,-5.909,-6.538,0.369,2.612,-4.126,-0.001,0.980,-0.115,1.099,-0.793,1.648,66.667,793022.000,1.000
-12.246,-4.191,-8.036,-5.705,-6.624,-0.420,0.543,-5.811,0.000,0.978,-0.115,1.129,-0.732,1.617,66.667,793023.000,1.000
-11.333,-3.415,-7.953,-5.665,-6.639,-1.104,-1.902,-7.302,0.000,0.979,-0.115,1.099,-0.732,1.556,66.667,793024.000,1.000
-10.153,-2.357,-8.000,-5.519,-5.888,-0.758,-2.737,-7.237,0.000,0.977,-0.119,1.190,-0.671,1.587,66.667,793025.000,1.000
-9.422,-1.313,-8.208,-5.270,-4.270,0.815,-1.356,-5.374,-0.002,0.977,-0.114,1.282,-0.671,1.556,66.667,793026.000,1.000
-9.566,-0.571,-8.480,-4.992,-2.202,3.355,1.444,-2.369,-0.001,0.976,-0.116,1.312,-0.519,1.495,66.667,793027.000,1.000
-10.361,-0.213,-8.513,-4.652,-0.285,6.107,4.319,0.910,-0.001,0.976,-0.116,1.373,-0.488,1.465,66.667,793028.000,1.000
-11.280,-0.347,-8.212,-4.331,0.765,7.540,5.715,3.408,0.000,0.973,-0.118,1.465,-0.488,1.373,66.667,793029.000,1.000
-11.865,-1.041,-7.772,-4.288,0.479,6.346,4.498,4.080,0.000,0.973,-0.119,1.678,-0.580,1.343,66.667,793030.000,1.000
-11.707,-2.008,-7.271,-4.597,-0.850,2.783,0.843,2.552,-0.001,0.974,-0.118,1.801,-0.549,1.251,66.667,793031.000,1.000
-10.367,-2.547,-6.377,-4.849,-2.168,-1.205,-3.482,-0.373,-0.001,0.976,-0.115,1.923,-0.427,1.221,66.667,793032.000,1.000
-7.542,-1.904,-4.567,-4.336,-2.289,-3.120,-5.935,-2.935,-0.003,0.975,-0.116,1.953,-0.397,1.129,66.667,793033.000,1.000
-3.472,0.054,-1.743,-2.705,-0.835,-1.687,-4.959,-3.617,-0.002,0.976,-0.117,1.892,-0.427,1.068,66.667,793034.000,1.000
0.917,2.513,1.416,-0.385,1.362,2.011,-1.334,-2.422,-0.003,0.977,-0.116,1.953,-0.397,1.007,66.667,793035.000,1.000
4.398,4.102,3.766,1.651,2.790,5.063,2.184,-0.974,-0.002,0.979,-0.116,1.953,-0.427,1.129,66.667,793036.000,1.000
6.049,3.773,4.376,2.517,2.270,4.811,2.957,-1.149,-0.003,0.981,-0.115,1.953,-0.427,1.007,66.667,793037.000,1.000
5.789,1.658,3.169,2.085,-0.070,1.132,0.846,-3.135,-0.004,0.980,-0.115,1.984,-0.488,0.977,66.667,793038.000,1.000
4.262,-1.017,0.874,1.028,-2.854,-3.525,-1.609,-5.133,-0.006,0.981,-0.115,1.923,-0.488,1.038,66.667,793039.000,1.000
2.185,-3.019,-1.671,0.077,-4.727,-6.481,-1.803,-5.347,-0.007,0.984,-0.117,1.831,-0.580,0.946,66.667,793040.000,1.000
0.187,-3.778,-3.797,-0.421,-5.238,-6.638,0.705,-3.673,-0.008,0.985,-0.115,1.678,-0.610,0.916,66.667,793041.000,1.000
-0.859,-3.036,-4.694,-0.180,-4.452,-4.317,4.621,-1.133,-0.009,0.985,-0.116,1.495,-0.641,0.854,66.667,793042.000,1.000
-0.006,-0.495,-3.449,1.265,-2.348,-0.326,8.355,1.503,-0.007,0.985,-0.117,1.434,-0.702,0.946,66.667,793043.000,1.000
2.841,3.752,0.179,4.074,0.936,4.570,10.733,3.934,-0.008,0.984,-0.119,1.282,-0.763,0.946,66.667,793044.000,1.000
6.238,8.385,4.872,7.382,4.314,9.192,10.892,5.491,-0.007,0.982,-0.120,1.160,-0.793,1.068,66.667,793045.000,1.000
7.803,10.954,8.021,9.411,5.807,11.385,8.105,4.948,-0.008,0.980,-0.118,1.038,-0.793,0.946,66.667,793046.000,1.000
5.841,9.485,7.431,8.664,3.957,9.174,2.371,1.633,-0.007,0.979,-0.119,0.977,-0.916,0.946,66.667,793047.000,1.000
0.306,3.838,2.728,4.887,-1.053,2.519,-5.028,-3.775,-0.006,0.979,-0.119,0.916,-0.946,1.129,66.667,793048.000,1.000
-7.547,-4.535,-4.789,-1.040,-7.808,-6.702,-12.062,-9.750,-0.006,0.979,-0.118,0.946,-0.977,1.129,66.667,793049.000,1.000
-15.738,-13.369,-12.895,-7.485,-14.418,-15.693,-16.800,-14.543,-0.007,0.976,-0.119,0.916,-1.007,1.251,66.667,793050.000,1.000
-22.272,-20.452,-19.348,-12.640,-19.171,-21.715,-18.161,-16.763,-0.006,0.971,-0.119,1.007,-1.068,1.251,66.667,793051.000,1.000
-26.358,-24.894,-23.203,-15.691,-21.612,-23.715,-16.962,-16.590,-0.007,0.972,-0.121,1.160,-1.129,1.312,66.667,793052.000,1.000
-28.589,-27.295,-25.085,-17.193,-22.666,-23.075,-15.640,-15.870,-0.005,0.973,-0.122,1.221,-1.190,1.373,66.667,793053.000,1.000
-29.533,-28.184,-25.790,-17.817,-23.057,-21.696,-15.603,-15.867,-0.004,0.970,-0.120,1.312,-1.129,1.434,66.667,793054.000,1.000
-29.056,-27.273,-25.428,-17.582,-22.519,-20.176,-15.881,-15.958,-0.006,0.970,-0.119,1.526,-1.129,1.648,66.667,793055.000,1.000
-27.123,-24.548,-24.074,-16.545,-20.875,-18.504,-15.189,-15.167,-0.006,0.971,-0.119,1.770,-1.160,1.678,66.667,793056.000,1.000
-24.303,-20.930,-22.219,-15.236,-18.740,-17.097,-13.721,-13.642,-0.005,0.970,-0.118,1.953,-1.221,1.740,66.667,793057.000,1.000
-21.359,-17.637,-20.430,-14.188,-16.943,-16.478,-12.515,-12.211,-0.005,0.972,-0.118,2.075,-1.221,2.014,66.667,793058.000,1.000
-18.711,-15.293,-18.924,-13.499,-15.830,-16.532,-12.012,-11.310,-0.007,0.975,-0.116,2.258,-1.312,2.075,66.667,793059.000,1.000
-16.127,-13.405,-17.258,-12.664,-14.940,-16.208,-11.375,-10.460,-0.008,0.980,-0.117,2.411,-1.251,2.136,66.667,793060.000,1.000
-12.964,-10.682,-14.475,-10.820,-13.219,-14.119,-9.146,-8.636,-0.010,0.982,-0.117,2.411,-1.434,2.319,66.667,793061.000,1.000
-8.931,-6.244,-10.006,-7.525,-9.932,-9.706,-4.658,-5.234,-0.012,0.980,-0.114,2.350,-1.434,2.319,66.667,793062.000,1.000
-4.501,-0.614,-4.416,-3.326,-5.446,-3.853,1.109,-0.711,-0.010,0.980,-0.115,2.197,-1.648,2.258,66.667,793063.000,1.000
-0.571,4.589,0.913,0.552,-1.023,1.515,6.012,3.643,-0.001,0.984,-0.116,2.319,-1.831,2.411,66.667,793064.000,1.000
2.256,8.018,4.907,3.175,2.281,4.768,8.245,6.607,0.002,0.994,-0.116,2.441,-1.862,2.472,66.667,793065.000,1.000
4.056,9.560,7.520,4.513,4.483,5.804,7.747,7.901,0.001,1.000,-0.111,2.136,-1.801,2.686,66.667,793066.000,1.000
5.077,9.831,9.197,5.010,6.152,5.467,6.052,8.102,-0.004,1.000,-0.109,1.770,-1.801,3.021,66.667,793067.000,1.000
5.352,9.337,10.186,5.030,7.504,4.285,4.826,7.949,-0.007,1.001,-0.109,1.373,-1.740,2.991,66.667,793068.000,1.000
5.067,8.521,10.715,4.958,8.497,2.630,4.932,8.127,-0.007,0.997,-0.110,1.068,-1.648,3.143,66.667,793069.000,1.000
4.752,7.980,11.202,5.248,9.244,1.225,6.126,9.020,-0.006,0.991,-0.113,0.641,-1.709,3.174,66.667,793070.000,1.000
4.861,8.175,11.908,6.020,9.917,0.711,7.071,10.147,-0.004,0.989,-0.116,0.397,-1.831,3.113,66.667,793071.000,1.000
5.304,9.072,12.566,6.821,10.568,1.369,6.509,10.499,0.000,0.989,-0.116,0.244,-1.831,3.143,66.667,793072.000,1.000
5.432,10.170,12.515,6.885,11.231,3.406,4.764,9.747,0.003,0.988,-0.119,0.183,-1.862,3.174,66.667,793073.000,1.000
4.539,10.933,11.243,5.714,12.079,7.021,3.669,8.642,0.004,0.986,-0.117,0.122,-1.862,3.052,66.667,793074.000,1.000
2.576,11.254,8.963,3.601,13.431,12.047,5.075,8.428,0.002,0.985,-0.116,0.031,-1.770,3.143,66.667,793075.000,1.000
0.444,11.558,6.720,1.679,15.603,17.725,9.667,10.263,0.002,0.987,-0.114,-0.183,-1.709,3.052,66.667,793076.000,1.000
-0.539,12.443,5.764,1.219,18.557,22.929,16.819,14.628,0.002,0.987,-0.115,-0.305,-1.587,2.930,66.667,793077.000,1.000
0.231,13.948,6.476,2.539,21.391,26.485,24.498,20.321,0.001,0.983,-0.120,-0.549,-1.556,2.960,66.667,793078.000,1.000
1.772,14.950,7.695,4.417,22.234,27.226,29.403,24.303,0.004,0.980,-0.119,-0.732,-1.434,2.716,66.667,793079.000,1.000
2.088,13.710,7.439,4.837,19.234,24.311,28.486,23.513,0.005,0.979,-0.119,-0.824,-1.312,2.686,66.667,793080.000,1.000
0.159,9.623,4.779,2.769,12.270,18.185,21.246,17.386,0.004,0.979,-0.122,-0.824,-1.190,2.533,66.667,793081.000,1.000
-2.774,4.355,0.955,-0.760,3.660,11.118,10.620,8.605,0.005,0.977,-0.125,-0.824,-1.068,2.258,66.667,793082.000,1.000
-4.180,0.794,-1.559,-3.485,-3.133,6.213,1.307,1.156,0.005,0.975,-0.122,-0.763,-0.885,2.106,66.667,793083.000,1.000
-2.368,0.769,-1.048,-3.739,-5.799,5.179,-3.282,-2.481,0.007,0.976,-0.120,-0.793,-0.641,1.984,66.667,793084.000,1.000
2.378,3.818,2.333,-1.502,-4.438,6.871,-3.015,-2.385,0.010,0.977,-0.119,-0.824,-0.488,1.923,66.667,793085.000,1.000
8.201,7.861,6.949,1.918,-0.927,8.526,-0.408,-0.083,0.010,0.978,-0.120,-0.885,-0.305,1.831,66.667,793086.000,1.000
12.879,10.765,10.829,4.912,2.526,8.210,1.537,2.778,0.010,0.977,-0.121,-0.885,-0.061,1.740,66.667,793087.000,1.000
15.196,11.502,12.809,6.514,4.451,5.543,0.792,4.833,0.009,0.976,-0.123,-0.732,0.153,1.801,66.667,793088.000,1.000
15.627,10.431,13.079,6.836,4.628,1.221,-2.766,5.406,0.006,0.972,-0.125,-0.641,0.458,1.617,66.667,793089.000,1.000
15.845,8.871,12.861,6.846,4.015,-3.198,-7.098,4.977,0.006,0.972,-0.124,-0.580,0.580,1.495,66.667,793090.000,1.000
17.458,8.227,13.451,7.591,3.937,-5.958,-9.593,4.678,0.006,0.971,-0.125,-0.488,0.732,1.373,66.667,793091.000,1.000
20.921,9.217,15.414,9.442,5.163,-6.083,-8.847,5.411,0.005,0.971,-0.125,-0.427,0.885,1.282,66.667,793092.000,1.000
25.578,11.843,18.625,12.135,7.816,-3.509,-4.752,7.679,0.005,0.972,-0.124,-0.366,1.038,1.160,66.667,793093.000,1.000
30.477,15.729,22.704,15.233,11.567,1.009,1.733,11.347,0.004,0.969,-0.128,-0.214,1.160,1.007,66.667,793094.000,1.000
34.914,20.149,27.057,18.248,15.518,5.750,8.129,15.011,0.004,0.971,-0.128,-0.061,1.190,1.007,66.667,793095.000,1.000
38.374,24.013,30.809,20.598,18.414,8.673,11.256,16.527,0.003,0.975,-0.125,0.061,1.251,0.885,66.667,793096.000,1.000
40.236,26.122,32.960,21.725,19.269,8.568,9.526,14.668,0.003,0.979,-0.121,0.092,1.312,0.824,66.667,793097.000,1.000
39.969,25.686,32.776,21.306,17.796,5.581,3.964,9.990,0.002,0.979,-0.118,0.153,1.465,0.824,66.667,793098.000,1.000
37.920,23.099,30.418,19.623,14.745,1.389,-2.520,4.615,0.002,0.981,-0.122,0.092,1.526,0.824,66.667,793099.000,1.000
35.609,20.173,27.248,17.786,11.982,-1.105,-6.245,1.560,-0.001,0.979,-0.120,0.031,1.678,0.885,66.667,793100.000,1.000
34.937,19.067,25.126,17.200,11.578,0.513,-4.360,3.236,-0.002,0.978,-0.122,0.031,1.678,0.916,66.667,793101.000,1.000
37.089,20.921,25.253,18.648,14.412,6.357,3.320,9.574,-0.002,0.974,-0.123,-0.031,1.648,0.854,66.667,793102.000,1.000
41.873,25.310,27.565,21.802,19.631,14.161,13.670,17.673,-0.005,0.973,-0.119,0.061,1.495,0.916,66.667,793103.000,1.000
47.670,30.528,30.895,25.419,25.239,20.525,21.925,23.744,-0.005,0.970,-0.120,0.183,1.343,0.916,66.667,793104.000,1.000
52.334,34.666,33.781,28.115,29.396,23.086,24.932,25.695,-0.008,0.973,-0.123,0.366,1.373,0.916,66.667,793105.000,1.000
54.379,36.695,35.249,29.110,31.437,22.394,23.200,24.072,-0.007,0.970,-0.126,0.580,1.251,0.824,66.667,793106.000,1.000
53.672,36.776,35.165,28.518,31.871,21.113,19.755,20.981,-0.006,0.971,-0.122,0.824,1.190,0.702,66.667,793107.000,1.000
51.601,36.059,34.402,27.408,31.857,21.382,17.388,18.611,-0.008,0.975,-0.119,0.977,1.007,0.702,66.667,793108.000,1.000
49.951,35.761,34.148,27.079,32.355,23.277,17.126,18.301,-0.007,0.976,-0.119,1.038,0.854,0.793,66.667,793109.000,1.000
49.039,35.902,34.564,27.755,33.291,25.351,18.508,20.118,-0.007,0.974,-0.120,1.038,0.763,0.824,66.667,793110.000,1.000
47.501,35.333,34.564,28.397,33.751,26.218,20.615,23.097,-0.005,0.977,-0.120,1.160,0.549,0.854,66.667,793111.000,1.000
43.817,32.871,32.854,27.714,32.747,25.243,22.428,25.731,-0.006,0.979,-0.121,1.404,0.519,0.916,66.667,793112.000,1.000
37.565,28.082,28.876,25.031,29.726,22.300,22.789,26.453,-0.008,0.980,-0.121,1.404,0.427,1.068,66.667,793113.000,1.000
29.649,21.615,23.251,20.681,25.048,17.950,21.333,24.547,-0.009,0.980,-0.121,1.373,0.183,1.190,66.667,793114.000,1.000
22.121,15.353,17.815,16.168,20.293,13.635,19.330,21.058,-0.007,0.983,-0.119,1.343,0.153,1.373,66.667,793115.000,1.000
17.565,11.917,15.014,13.706,17.770,11.298,18.873,18.545,-0.007,0.984,-0.120,1.190,-0.092,1.404,66.667,793116.000,1.000
17.656,13.170,16.530,14.901,19.119,12.537,21.111,19.263,-0.008,0.986,-0.124,1.129,-0.244,1.495,66.667,793117.000,1.000
21.625,18.463,21.776,19.301,23.776,17.134,24.880,22.996,-0.009,0.986,-0.121,1.068,-0.366,1.617,66.667,793118.000,1.000
26.038,24.233,27.490,24.026,28.638,22.231,27.022,26.759,-0.008,0.988,-0.119,0.854,-0.580,1.770,66.667,793119.000,1.000
26.701,26.053,29.417,25.328,29.815,23.983,24.615,26.907,-0.006,0.989,-0.117,0.702,-0.824,1.984,66.667,793120.000,1.000
21.727,21.981,25.407,21.328,25.600,20.740,17.571,22.026,-0.008,0.989,-0.119,0.519,-0.916,2.014,66.667,793121.000,1.000
13.159,14.247,17.255,13.660,18.085,14.501,9.287,14.331,-0.009,0.990,-0.118,0.336,-1.160,2.167,66.667,793122.000,1.000
5.529,7.555,9.406,6.393,11.691,9.101,4.153,8.179,-0.011,0.990,-0.115,0.122,-1.404,2.136,66.667,793123.000,1.000
2.299,5.342,5.457,2.877,9.659,6.992,3.989,6.613,-0.010,0.988,-0.115,-0.214,-1.526,2.167,66.667,793124.000,1.000
3.039,7.099,5.408,3.152,11.537,7.572,6.855,8.872,-0.009,0.988,-0.116,-0.336,-1.617,2.258,66.667,793125.000,1.000
3.938,8.970,6.047,4.233,13.735,7.935,8.827,11.198,-0.006,0.988,-0.118,-0.519,-1.923,2.197,66.667,793126.000,1.000
1.334,7.184,4.073,3.018,12.681,5.345,7.175,10.435,-0.004,0.986,-0.118,-0.763,-2.014,2.228,66.667,793127.000,1.000
-5.019,1.592,-0.806,-0.815,8.139,0.338,3.165,7.299,-0.002,0.986,-0.120,-0.916,-2.075,2.289,66.667,793128.000,1.000
-11.880,-3.935,-5.650,-4.626,3.504,-2.653,1.822,5.889,0.000,0.985,-0.122,-1.099,-2.289,2.441,66.667,793129.000,1.000
-15.508,-5.222,-7.335,-5.610,2.111,0.223,6.688,9.078,-0.001,0.987,-0.119,-1.221,-2.289,2.533,66.667,793130.000,1.000
-15.061,-2.258,-5.931,-3.868,3.230,6.818,14.333,14.453,0.002,0.987,-0.120,-1.434,-2.289,2.563,66.667,793131.000,1.000
-13.272,0.700,-4.696,-2.359,2.717,10.265,16.768,16.192,0.002,0.989,-0.121,-1.678,-2.228,2.563,66.667,793132.000,1.000
-13.575,-0.409,-6.596,-3.685,-2.316,5.971,9.833,11.130,0.000,0.988,-0.121,-1.892,-2.197,2.441,66.667,793133.000,1.000
-16.734,-5.677,-11.424,-7.523,-10.576,-4.293,-3.044,1.614,0.001,0.984,-0.118,-2.136,-2.045,2.502,66.667,793134.000,1.000
-20.254,-11.462,-16.096,-11.069,-17.883,-14.324,-14.489,-7.002,0.002,0.983,-0.122,-2.106,-2.075,2.533,66.667,793135.000,1.000
-20.868,-13.626,-17.332,-11.564,-20.527,-18.312,-18.625,-10.405,0.004,0.982,-0.122,-2.228,-2.167,2.441,66.667,793136.000,1.000
-18.195,-11.447,-14.916,-9.128,-18.509,-15.406,-14.898,-8.457,0.005,0.979,-0.123,-2.289,-2.045,2.319,66.667,793137.000,1.000
-15.646,-8.518,-12.318,-7.083,-15.807,-10.137,-8.251,-5.218,0.005,0.979,-0.121,-2.319,-1.892,2.075,66.667,793138.000,1.000
-16.661,-8.687,-12.995,-8.403,-16.256,-7.323,-4.351,-4.739,0.009,0.980,-0.119,-2.228,-1.892,1.862,66.667,793139.000,1.000
-20.735,-11.830,-16.589,-12.318,-19.641,-7.571,-4.903,-7.261,0.009,0.979,-0.120,-2.289,-1.831,1.648,66.667,793140.000,1.000
-24.253,-14.685,-19.796,-15.368,-22.696,-8.584,-8.026,-10.185,0.009,0.975,-0.121,-2.167,-1.587,1.556,66.667,793141.000,1.000
-24.503,-14.764,-20.123,-15.135,-22.822,-8.670,-11.237,-11.382,0.012,0.970,-0.119,-2.014,-1.465,1.495,66.667,793142.000,1.000
-22.116,-12.683,-18.123,-12.359,-20.253,-8.192,-13.555,-11.044,0.014,0.966,-0.119,-1.923,-1.282,1.434,66.667,793143.000,1.000
-20.191,-11.348,-16.588,-10.052,-17.557,-9.083,-15.884,-11.229,0.013,0.964,-0.121,-1.740,-0.977,1.434,66.667,793144.000,1.000
-21.372,-13.073,-17.789,-10.725,-17.115,-12.791,-19.090,-13.492,0.014,0.965,-0.123,-1.526,-0.793,1.343,66.667,793145.000,1.000
-25.360,-17.165,-21.157,-14.071,-18.680,-17.918,-21.557,-16.705,0.015,0.966,-0.123,-1.373,-0.763,1.312,66.667,793146.000,1.000
-29.007,-20.323,-23.668,-17.224,-19.641,-20.657,-19.966,-17.900,0.017,0.970,-0.126,-1.038,-0.549,1.404,66.667,793147.000,1.000
-29.102,-19.737,-22.682,-17.458,-17.877,-18.342,-13.058,-15.526,0.018,0.977,-0.124,-0.793,-0.366,1.587,66.667,793148.000,1.000
-25.561,-16.018,-18.658,-14.863,-14.165,-12.393,-3.872,-11.424,0.019,0.983,-0.121,-0.641,-0.061,1.648,66.667,793149.000,1.000
-21.431,-12.542,-14.671,-12.060,-11.340,-7.091,2.401,-9.127,0.014,0.986,-0.120,-0.702,0.061,1.740,66.667,793150.000,1.000
-19.466,-11.665,-13.011,-11.131,-11.027,-5.278,2.976,-10.206,0.012,0.985,-0.118,-0.854,0.366,1.678,66.667,793151.000,1.000
-19.887,-12.821,-13.385,-11.895,-12.254,-6.287,-0.571,-13.150,0.008,0.982,-0.119,-1.007,0.549,1.648,66.667,793152.000,1.000
-21.756,-14.620,-14.731,-13.470,-13.625,-8.300,-5.127,-16.022,0.006,0.980,-0.118,-1.068,0.549,1.404,66.667,793153.000,1.000
-24.628,-16.908,-16.978,-15.819,-15.223,-10.923,-9.235,-18.611,0.003,0.980,-0.117,-1.007,0.671,1.221,66.667,793154.000,1.000
-27.793,-19.716,-19.960,-18.687,-17.360,-14.224,-12.553,-21.020,-0.002,0.981,-0.118,-0.916,0.671,1.160,66.667,793155.000,1.000
-29.550,-21.804,-22.206,-20.542,-18.991,-16.870,-14.148,-21.961,-0.003,0.980,-0.118,-0.824,0.458,0.916,66.667,793156.000,1.000
-28.781,-21.823,-22.402,-20.109,-18.948,-17.195,-13.307,-20.266,-0.002,0.984,-0.115,-0.732,0.275,0.763,66.667,793157.000,1.000
-26.035,-19.816,-20.836,-17.799,-17.505,-15.222,-11.021,-16.838,-0.003,0.986,-0.114,-0.824,0.275,0.671,66.667,793158.000,1.000
-22.506,-16.806,-18.622,-14.843,-15.734,-12.306,-8.882,-13.628,-0.004,0.988,-0.115,-0.916,0.244,0.458,66.667,793159.000,1.000
-19.527,-14.242,-16.941,-12.409,-14.616,-9.805,-7.296,-11.851,-0.003,0.988,-0.113,-1.038,0.092,0.427,66.667,793160.000,1.000
-18.598,-13.620,-16.905,-11.501,-14.918,-8.556,-5.808,-11.823,-0.002,0.990,-0.116,-1.068,0.061,0.305,66.667,793161.000,1.000
-20.043,-15.165,-18.610,-12.224,-16.660,-8.671,-4.369,-13.201,0.000,0.988,-0.112,-1.129,-0.031,0.275,66.667,793162.000,1.000
-22.056,-17.250,-20.544,-13.285,-18.709,-9.588,-3.463,-14.977,0.002,0.987,-0.113,-1.160,-0.122,0.366,66.667,793163.000,1.000
-22.361,-18.044,-20.966,-13.230,-19.792,-10.670,-3.500,-16.216,0.002,0.989,-0.114,-1.221,-0.061,0.397,66.667,793164.000,1.000
-20.683,-17.544,-19.857,-12.167,-19.965,-12.073,-5.018,-17.162,0.003,0.988,-0.109,-1.312,-0.153,0.519,66.667,793165.000,1.000
-18.606,-17.203,-18.674,-11.410,-20.270,-14.647,-8.573,-18.687,0.002,0.989,-0.109,-1.465,-0.244,0.610,66.667,793166.000,1.000
-17.129,-17.532,-18.063,-11.330,-20.668,-18.215,-12.991,-20.174,0.003,0.985,-0.108,-1.404,-0.183,0.671,66.667,793167.000,1.000
-15.507,-17.119,-16.812,-10.579,-19.412,-20.616,-15.105,-19.266,0.002,0.983,-0.109,-1.495,-0.214,0.702,66.667,793168.000,1.000
-12.846,-14.592,-13.702,-8.038,-15.326,-19.682,-12.976,-14.762,-0.001,0.984,-0.109,-1.434,-0.214,0.763,66.667,793169.000,1.000
-9.809,-10.784,-9.601,-4.669,-9.911,-15.892,-8.521,-8.888,0.000,0.984,-0.104,-1.678,-0.183,0.793,66.667,793170.000,1.000
-8.050,-8.197,-6.873,-2.682,-6.269,-12.168,-5.748,-5.701,0.000,0.984,-0.107,-1.648,-0.244,0.702,66.667,793171.000,1.000
-8.451,-8.543,-7.021,-3.260,-6.178,-11.009,-6.783,-7.338,-0.002,0.986,-0.109,-1.678,-0.397,0.702,66.667,793172.000,1.000
-9.927,-10.860,-9.002,-5.253,-8.317,-11.871,-9.761,-11.808,-0.001,0.986,-0.109,-1.862,-0.397,0.946,66.667,793173.000,1.000
-9.967,-12.135,-9.896,-6.027,-9.325,-11.668,-10.293,-14.477,0.002,0.987,-0.108,-1.740,-0.519,0.946,66.667,793174.000,1.000
-7.182,-10.466,-7.873,-4.117,-7.178,-8.435,-5.900,-12.399,0.001,0.985,-0.107,-1.740,-0.519,0.916,66.667,793175.000,1.000
-3.231,-7.407,-4.403,-1.052,-3.508,-3.938,0.835,-7.208,0.004,0.982,-0.106,-1.801,-0.580,1.007,66.667,793176.000,1.000
-1.654,-6.697,-3.120,-0.207,-2.247,-2.095,4.251,-3.589,0.001,0.983,-0.105,-1.740,-0.458,1.221,66.667,793177.000,1.000
-4.720,-10.763,-6.509,-3.790,-6.024,-5.378,0.341,-5.252,0.001,0.981,-0.108,-1.770,-0.549,1.251,66.667,793178.000,1.000
-11.037,-18.069,-13.285,-10.464,-13.396,-12.517,-9.936,-11.742,0.002,0.982,-0.110,-1.648,-0.549,1.404,66.667,793179.000,1.000
-16.405,-24.016,-19.123,-16.038,-19.564,-19.125,-20.811,-18.545,0.001,0.982,-0.113,-1.556,-0.549,1.495,66.667,793180.000,1.000
-17.712,-25.195,-20.697,-17.246,-20.648,-21.244,-25.853,-21.018,0.001,0.979,-0.110,-1.587,-0.488,1.495,66.667,793181.000,1.000
-15.613,-22.337,-18.608,-14.544,-17.124,-18.641,-23.061,-18.384,0.001,0.976,-0.109,-1.648,-0.458,1.587,66.667,793182.000,1.000
-13.251,-18.921,-16.164,-11.087,-12.875,-14.451,-16.191,-13.751,0.000,0.974,-0.111,-1.465,-0.519,1.465,66.667,793183.000,1.000
-13.510,-18.113,-16.408,-9.973,-11.838,-12.361,-11.231,-11.041,0.001,0.974,-0.112,-1.343,-0.488,1.434,66.667,793184.000,1.000
-17.293,-20.899,-20.226,-12.312,-15.365,-14.058,-11.399,-11.916,0.001,0.972,-0.115,-1.099,-0.488,1.373,66.667,793185.000,1.000
-23.041,-25.727,-25.935,-16.737,-21.540,-18.263,-15.160,-14.928,0.002,0.973,-0.112,-0.946,-0.549,1.404,66.667,793186.000,1.000
-27.856,-29.740,-30.556,-20.607,-26.854,-22.098,-18.614,-17.416,0.002,0.976,-0.112,-0.854,-0.610,1.465,66.667,793187.000,1.000
-29.694,-30.991,-32.051,-22.093,-28.930,-23.646,-19.240,-17.890,0.003,0.975,-0.112,-0.793,-0.488,1.495,66.667,793188.000,1.000
-28.550,-29.575,-30.470,-21.226,-27.849,-23.108,-17.470,-16.764,0.004,0.977,-0.110,-0.610,-0.519,1.495,66.667,793189.000,1.000
-25.741,-26.829,-27.218,-19.262,-25.380,-21.864,-15.798,-15.779,0.003,0.975,-0.108,-0.519,-0.458,1.495,66.667,793190.000,1.000
-22.578,-23.980,-23.694,-17.456,-23.350,-20.979,-16.607,-16.663,0.002,0.974,-0.107,-0.458,-0.397,1.434,66.667,793191.000,1.000
-19.863,-21.730,-20.755,-16.454,-22.690,-20.683,-20.306,-19.718,0.001,0.974,-0.110,-0.275,-0.336,1.617,66.667,793192.000,1.000
-18.237,-20.801,-19.142,-16.554,-23.696,-21.120,-25.633,-23.935,0.003,0.977,-0.113,-0.153,-0.427,1.617,66.667,793193.000,1.000
-18.588,-22.348,-19.934,-18.221,-26.747,-23.219,-31.435,-28.371,0.004,0.980,-0.113,-0.061,-0.397,1.587,66.667,793194.000,1.000
-21.478,-27.067,-23.776,-21.692,-31.907,-27.924,-37.113,-32.526,0.003,0.979,-0.109,-0.061,-0.427,1.678,66.667,793195.000,1.000
-25.941,-33.669,-29.451,-25.881,-37.688,-34.252,-41.392,-35.371,0.003,0.982,-0.108,0.000,-0.366,1.648,66.667,793196.000,1.000
-29.831,-39.353,-34.299,-28.726,-41.553,-39.379,-42.475,-35.475,0.004,0.987,-0.107,0.092,-0.305,1.740,66.667,793197.000,1.000
-31.625,-42.218,-36.443,-29.033,-42.150,-41.228,-40.100,-32.655,0.002,0.986,-0.109,-0.031,-0.366,1.709,66.667,793198.000,1.000
-31.274,-42.478,-35.949,-27.301,-40.259,-40.087,-36.096,-28.451,0.002,0.989,-0.109,-0.244,-0.427,1.709,66.667,793199.000,1.000
-29.637,-41.614,-34.103,-24.938,-37.697,-37.767,-32.634,-24.846,0.002,0.989,-0.109,-0.336,-0.397,1.770,66.667,793200.000,1.000
-27.732,-41.099,-32.310,-23.322,-36.050,-36.066,-31.014,-23.253,0.001,0.991,-0.109,-0.488,-0.397,1.801,66.667,793201.000,1.000
-26.166,-41.558,-31.349,-23.193,-36.024,-35.775,-31.782,-24.183,0.002,0.990,-0.108,-0.671,-0.458,1.862,66.667,793202.000,1.000
-24.730,-42.388,-30.960,-24.196,-37.107,-36.385,-34.731,-26.850,0.001,0.988,-0.110,-0.854,-0.488,1.892,66.667,793203.000,1.000
-22.786,-42.274,-30.218,-25.178,-37.947,-36.712,-38.604,-29.525,0.002,0.984,-0.111,-1.007,-0.519,1.862,66.667,793204.000,1.000
-20.191,-40.408,-28.595,-25.251,-37.524,-35.988,-41.693,-30.961,0.004,0.980,-0.113,-1.007,-0.427,1.892,66.667,793205.000,1.000
-17.692,-37.227,-26.531,-24.427,-35.891,-34.357,-42.883,-31.067,0.006,0.976,-0.113,-0.946,-0.366,1.923,66.667,793206.000,1.000
-16.383,-33.935,-24.935,-23.234,-33.758,-32.403,-41.807,-30.155,0.008,0.975,-0.114,-0.702,-0.336,1.984,66.667,793207.000,1.000
-16.807,-31.437,-24.232,-22.009,-31.592,-30.434,-38.500,-28.267,0.008,0.976,-0.114,-0.519,-0.366,1.953,66.667,793208.000,1.000
-18.596,-29.873,-24.136,-20.816,-29.434,-28.541,-33.591,-25.506,0.009,0.973,-0.115,-0.214,-0.275,1.862,66.667,793209.000,1.000
-20.837,-28.934,-24.155,-19.760,-27.354,-27.032,-28.544,-22.405,0.009,0.971,-0.114,-0.061,-0.183,1.892,66.667,793210.000,1.000
-22.315,-27.991,-23.720,-18.802,-25.311,-26.028,-24.624,-19.342,0.007,0.968,-0.113,0.122,-0.061,1.892,66.667,793211.000,1.000
-21.662,-26.084,-22.025,-17.415,-22.741,-24.827,-21.663,-16.061,0.007,0.969,-0.112,0.458,0.000,1.953,66.667,793212.000,1.000
-18.145,-22.555,-18.542,-15.009,-19.030,-22.383,-18.618,-12.302,0.009,0.969,-0.114,0.671,0.122,1.892,66.667,793213.000,1.000
-12.320,-17.680,-13.622,-11.516,-14.241,-18.367,-14.755,-8.211,0.009,0.967,-0.112,1.038,0.153,1.923,66.667,793214.000,1.000
-5.781,-12.539,-8.408,-7.480,-9.204,-13.608,-10.248,-4.163,0.008,0.969,-0.114,1.373,0.183,1.892,66.667,793215.000,1.000
-0.558,-8.609,-4.493,-4.035,-5.359,-9.839,-6.556,-1.090,0.008,0.973,-0.113,1.648,0.305,1.892,66.667,793216.000,1.000
1.529,-7.225,-3.327,-2.538,-4.164,-8.769,-5.602,-0.364,0.005,0.979,-0.108,1.801,0.305,1.892,66.667,793217.000,1.000
-0.172,-8.605,-5.142,-3.488,-5.734,-10.548,-7.527,-2.218,0.002,0.985,-0.107,1.801,0.336,1.709,66.667,793218.000,1.000
-4.580,-11.307,-8.451,-5.850,-8.209,-12.979,-9.825,-4.758,-0.002,0.988,-0.108,1.587,0.153,1.648,66.667,793219.000,1.000
-9.480,-13.155,-11.063,-7.846,-9.124,-12.968,-9.781,-5.447,-0.004,0.990,-0.108,1.404,0.000,1.434,66.667,793220.000,1.000
-12.792,-12.808,-11.614,-8.358,-7.354,-9.000,-7.099,-3.336,-0.007,0.992,-0.108,1.190,-0.214,1.068,66.667,793221.000,1.000
-13.479,-10.335,-10.095,-7.415,-3.506,-1.940,-3.104,0.630,-0.005,0.988,-0.112,0.916,-0.519,0.763,66.667,793222.000,1.000
-11.707,-6.676,-7.291,-5.641,1.113,6.112,1.447,4.996,-0.004,0.985,-0.108,0.671,-0.641,0.427,66.667,793223.000,1.000
-8.595,-3.062,-4.231,-3.736,5.245,12.968,6.418,8.740,-0.002,0.985,-0.107,0.519,-0.732,0.153,66.667,793224.000,1.000
-5.700,-0.675,-1.961,-2.349,7.805,16.801,10.938,11.212,0.001,0.984,-0.110,0.488,-0.885,-0.183,66.667,793225.000,1.000
-4.247,-0.133,-1.155,-1.890,8.222,16.748,13.448,12.176,0.005,0.986,-0.110,0.275,-0.885,-0.366,66.667,793226.000,1.000
-4.564,-1.111,-1.747,-2.316,6.822,13.514,13.205,11.988,0.006,0.988,-0.112,0.122,-0.854,-0.336,66.667,793227.000,1.000
-6.056,-2.580,-3.019,-3.189,4.656,9.062,11.058,11.412,0.011,0.990,-0.114,0.061,-0.793,-0.275,66.667,793228.000,1.000
-7.494,-3.327,-3.963,-3.846,2.968,5.663,8.827,11.322,0.011,0.990,-0.114,-0.122,-0.763,-0.214,66.667,793229.000,1.000
-7.614,-2.451,-3.734,-3.651,2.678,4.919,8.160,12.401,0.013,0.990,-0.118,-0.366,-0.580,-0.031,66.667,793230.000,1.000
-5.868,0.181,-2.091,-2.375,3.954,6.952,9.638,14.794,0.012,0.988,-0.118,-0.458,-0.458,0.153,66.667,793231.000,1.000
-2.739,3.786,0.459,-0.381,6.095,10.342,12.607,17.967,0.009,0.987,-0.117,-0.519,-0.427,0.336,66.667,793232.000,1.000
0.781,7.145,3.079,1.696,8.038,13.240,15.756,20.945,0.007,0.986,-0.115,-0.610,-0.427,0.519,66.667,793233.000,1.000
4.054,9.465,5.287,3.538,9.240,14.765,18.141,22.975,0.003,0.983,-0.116,-0.610,-0.336,0.641,66.667,793234.000,1.000
7.095,10.806,7.212,5.306,9.970,15.247,19.527,24.009,0.000,0.981,-0.114,-0.580,-0.366,0.580,66.667,793235.000,1.000
10.110,11.647,9.105,7.105,10.636,15.153,19.599,24.128,-0.001,0.981,-0.114,-0.549,-0.397,0.671,66.667,793236.000,1.000
12.983,12.322,10.839,8.570,11.160,14.399,17.633,22.874,-0.001,0.978,-0.113,-0.641,-0.519,0.671,66.667,793237.000,1.000
15.430,13.042,12.178,9.329,11.332,13.027,13.394,19.887,-0.001,0.979,-0.114,-0.580,-0.641,0.702,66.667,793238.000,1.000
17.397,14.129,13.290,9.548,11.331,11.778,7.879,15.666,-0.003,0.978,-0.116,-0.580,-0.702,0.610,66.667,793239.000,1.000
19.086,15.864,14.650,9.811,11.598,11.457,2.935,11.293,-0.003,0.979,-0.116,-0.458,-0.885,0.732,66.667,793240.000,1.000
20.722,18.189,16.605,10.714,12.540,12.226,0.475,8.063,-0.004,0.980,-0.116,-0.366,-1.007,0.763,66.667,793241.000,1.000
22.275,20.610,19.052,12.486,14.309,13.644,1.678,7.089,-0.003,0.979,-0.115,-0.336,-1.190,0.946,66.667,793242.000,1.000
23.433,22.484,21.500,14.758,16.660,15.094,6.053,8.379,-0.002,0.981,-0.112,-0.275,-1.343,0.885,66.667,793243.000,1.000
24.080,23.665,23.598,16.894,19.232,16.317,11.612,10.587,-0.001,0.980,-0.111,-0.244,-1.343,0.946,66.667,793244.000,1.000
24.669,24.733,25.531,18.568,21.965,17.574,16.340,12.146,0.000,0.983,-0.111,-0.275,-1.343,0.977,66.667,793245.000,1.000
25.688,26.245,27.628,19.779,24.887,19.067,19.270,12.513,-0.001,0.982,-0.112,-0.183,-1.556,1.160,66.667,793246.000,1.000
27.015,28.083,29.805,20.549,27.726,20.511,20.459,12.359,0.001,0.981,-0.113,-0.153,-1.587,1.160,66.667,793247.000,1.000
28.176,29.800,31.719,20.988,30.131,21.556,20.556,12.927,0.003,0.979,-0.114,-0.122,-1.617,1.282,66.667,793248.000,1.000
28.934,31.247,33.217,21.434,32.133,22.352,20.649,15.238,0.003,0.980,-0.115,-0.031,-1.678,1.190,66.667,793249.000,1.000
29.262,32.545,34.368,22.222,34.027,23.364,21.755,19.391,0.002,0.980,-0.116,-0.061,-1.617,1.251,66.667,793250.000,1.000
28.999,33.692,35.167,23.349,35.902,24.817,23.919,24.180,0.002,0.979,-0.116,-0.031,-1.678,1.282,66.667,793251.000,1.000
27.949,34.521,35.479,24.553,37.553,26.613,26.406,27.873,0.002,0.976,-0.115,-0.031,-1.709,1.282,66.667,793252.000,1.000
26.270,34.927,35.226,25.620,38.764,28.524,28.671,29.686,0.002,0.975,-0.115,-0.031,-1.770,1.221,66.667,793253.000,1.000
24.442,34.882,34.411,26.391,39.317,30.152,30.437,30.060,0.000,0.977,-0.116,0.153,-1.709,1.221,66.667,793254.000,1.000
22.866,34.347,33.056,26.608,38.905,31.044,31.067,29.563,0.001,0.976,-0.115,0.366,-1.862,1.099,66.667,793255.000,1.000
21.699,33.381,31.325,26.092,37.491,31.120,29.956,28.447,0.002,0.976,-0.116,0.458,-1.923,0.977,66.667,793256.000,1.000
21.010,32.238,29.582,24.987,35.588,30.860,27.594,27.102,0.003,0.979,-0.115,0.458,-1.984,0.885,66.667,793257.000,1.000
20.777,31.095,28.083,23.570,33.754,30.739,25.191,25.899,0.002,0.979,-0.114,0.458,-1.923,0.824,66.667,793258.000,1.000
20.706,29.775,26.659,21.909,31.992,30.587,23.383,24.632,0.002,0.978,-0.116,0.427,-1.953,0.671,66.667,793259.000,1.000
20.359,28.045,24.998,20.007,30.045,29.899,22.075,22.832,0.001,0.979,-0.114,0.488,-2.014,0.732,66.667,793260.000,1.000
19.521,26.101,23.150,18.162,28.042,28.639,21.120,20.527,0.002,0.979,-0.116,0.519,-1.953,0.702,66.667,793261.000,1.000
18.258,24.463,21.465,16.826,26.467,27.312,20.643,18.362,-0.001,0.979,-0.114,0.488,-2.106,0.580,66.667,793262.000,1.000
16.771,23.555,20.201,16.176,25.671,26.442,20.889,17.089,0.002,0.979,-0.117,0.397,-2.045,0.580,66.667,793263.000,1.000
15.304,23.510,19.375,15.992,25.611,26.276,22.111,17.077,0.000,0.979,-0.115,0.488,-2.075,0.458,66.667,793264.000,1.000
14.104,24.141,18.862,15.856,25.835,26.720,24.232,18.055,0.001,0.980,-0.115,0.397,-2.106,0.336,66.667,793265.000,1.000
13.329,24.926,18.474,15.400,25.644,27.322,26.352,19.102,0.003,0.982,-0.113,0.275,-2.045,0.336,66.667,793266.000,1.000
12.998,25.212,18.051,14.532,24.524,27.400,27.185,19.247,0.001,0.982,-0.114,0.305,-2.136,0.427,66.667,793267.000,1.000
13.035,24.551,17.571,13.504,22.499,26.313,25.857,18.037,0.002,0.983,-0.112,0.153,-2.045,0.366,66.667,793268.000,1.000
13.205,22.857,17.043,12.632,20.016,23.783,22.322,15.456,0.000,0.983,-0.113,0.031,-2.136,0.336,66.667,793269.000,1.000
13.143,20.524,16.442,12.121,17.817,20.458,18.093,12.136,0.000,0.982,-0.111,-0.092,-2.197,0.336,66.667,793270.000,1.000
12.778,18.505,15.908,12.179,16.831,17.922,15.877,9.539,-0.001,0.982,-0.113,-0.244,-2.136,0.305,66.667,793271.000,1.000
12.503,17.760,15.644,12.838,17.404,17.362,16.733,8.640,-0.001,0.982,-0.114,-0.275,-2.197,0.397,66.667,793272.000,1.000
12.722,18.477,15.577,13.675,18.734,18.435,18.422,8.690,0.001,0.982,-0.113,-0.275,-2.136,0.336,66.667,793273.000,1.000
13.433,20.018,15.394,14.118,19.549,19.869,17.894,8.230,-0.001,0.983,-0.113,-0.397,-2.258,0.305,66.667,793274.000,1.000
14.271,21.484,14.808,13.976,19.131,20.631,14.457,6.892,-0.001,0.983,-0.115,-0.549,-2.228,0.397,66.667,793275.000,1.000
14.823,22.174,13.708,13.508,17.622,20.428,10.065,5.708,0.000,0.983,-0.116,-0.641,-2.197,0.305,66.667,793276.000,1.000
14.868,21.803,12.195,13.092,15.693,19.597,7.401,5.927,0.001,0.983,-0.114,-0.732,-2.319,0.305,66.667,793277.000,1.000
14.421,20.512,10.517,12.897,14.041,18.707,7.765,7.746,-0.001,0.983,-0.114,-0.824,-2.350,0.336,66.667,793278.000,1.000
13.678,18.734,8.939,12.831,13.037,18.229,10.553,10.229,-0.001,0.982,-0.112,-0.885,-2.319,0.305,66.667,793279.000,1.000
13.009,17.001,7.706,12.695,12.600,18.354,14.096,12.124,-0.002,0.982,-0.112,-1.129,-2.258,0.183,66.667,793280.000,1.000
12.854,15.701,6.993,12.290,12.219,18.792,16.495,12.359,0.000,0.982,-0.114,-1.251,-2.228,0.397,66.667,793281.000,1.000
13.373,14.884,6.742,11.472,11.207,18.834,16.434,10.370,0.000,0.983,-0.113,-1.373,-2.228,0.427,66.667,793282.000,1.000
14.229,14.296,6.650,10.270,9.226,17.764,13.814,6.603,-0.001,0.981,-0.112,-1.343,-2.258,0.427,66.667,793283.000,1.000
14.808,13.727,6.441,8.928,6.650,15.398,9.700,2.419,0.000,0.979,-0.113,-1.373,-2.228,0.549,66.667,793284.000,1.000
14.771,13.362,6.200,7.827,4.507,12.449,5.790,-0.672,0.002,0.978,-0.115,-1.434,-2.045,0.580,66.667,793285.000,1.000
14.400,13.692,6.391,7.324,3.950,10.263,3.608,-1.715,0.003,0.976,-0.113,-1.221,-2.045,0.610,66.667,793286.000,1.000
14.171,14.826,7.274,7.442,5.304,9.740,3.694,-0.810,0.001,0.978,-0.114,-1.221,-1.984,0.671,66.667,793287.000,1.000
14.114,15.994,8.359,7.658,7.542,10.435,5.358,0.876,0.000,0.978,-0.112,-1.190,-1.892,0.702,66.667,793288.000,1.000
13.874,16.101,8.790,7.309,9.102,11.127,7.601,2.039,0.002,0.979,-0.113,-1.221,-1.892,0.671,66.667,793289.000,1.000
13.257,14.796,8.209,6.255,9.258,11.203,10.101,2.359,0.002,0.978,-0.113,-1.190,-1.862,0.732,66.667,793290.000,1.000
12.374,12.685,6.972,4.923,8.432,10.913,12.722,2.410,0.002,0.979,-0.115,-1.190,-1.740,0.793,66.667,793291.000,1.000
11.364,10.672,5.656,3.775,7.420,10.571,14.696,2.709,0.004,0.980,-0.115,-1.190,-1.770,1.007,66.667,793292.000,1.000
10.354,9.375,4.724,3.042,6.812,10.269,15.149,3.308,0.003,0.980,-0.113,-1.160,-1.648,0.946,66.667,793293.000,1.000
9.494,8.848,4.344,2.703,6.715,10.066,13.787,3.894,0.004,0.983,-0.109,-1.282,-1.556,0.885,66.667,793294.000,1.000
8.797,8.498,4.198,2.453,6.575,9.600,10.634,3.931,0.004,0.982,-0.108,-1.129,-1.495,0.916,66.667,793295.000,1.000
8.248,7.636,3.868,2.007,5.763,8.055,6.256,3.265,0.003,0.981,-0.110,-1.129,-1.373,0.885,66.667,793296.000,1.000
8.154,6.417,3.570,1.607,4.589,5.358,2.539,2.733,0.003,0.982,-0.112,-1.190,-1.312,0.854,66.667,793297.000,1.000
8.958,5.808,4.039,1.842,4.117,2.683,1.575,3.359,0.004,0.983,-0.112,-1.190,-1.190,0.946,66.667,793298.000,1.000
10.564,6.421,5.565,2.876,4.837,1.153,3.370,4.850,0.004,0.982,-0.111,-1.129,-1.190,0.946,66.667,793299.000,1.000
12.211,7.863,7.601,4.227,6.148,0.856,5.784,5.710,0.004,0.982,-0.109,-1.160,-1.038,0.977,66.667,793300.000,1.000
13.089,9.290,9.377,5.354,7.213,1.389,6.863,4.944,0.003,0.980,-0.111,-1.099,-0.946,1.038,66.667,793301.000,1.000
12.895,10.227,10.563,6.166,7.790,2.655,6.642,3.149,0.002,0.981,-0.113,-1.129,-0.885,0.885,66.667,793302.000,1.000
11.917,10.777,11.356,6.960,8.287,4.810,6.738,2.072,0.002,0.980,-0.112,-1.038,-0.916,0.763,66.667,793303.000,1.000
10.739,11.242,12.098,7.999,9.211,7.654,8.509,3.159,0.001,0.982,-0.109,-0.946,-0.793,0.763,66.667,793304.000,1.000
9.849,11.670,12.835,9.145,10.580,10.338,11.622,6.207,0.002,0.982,-0.110,-0.916,-0.732,0.763,66.667,793305.000,1.000
9.475,11.844,13.340,9.952,11.961,12.027,14.632,9.523,0.000,0.982,-0.110,-1.007,-0.763,0.763,66.667,793306.000,1.000
9.616,11.621,13.455,10.073,12.990,12.604,16.757,11.496,-0.001,0.983,-0.108,-0.824,-0.732,0.732,66.667,793307.000,1.000
10.093,11.050,13.204,9.447,13.554,12.356,18.021,11.637,-0.002,0.982,-0.110,-0.885,-0.580,0.610,66.667,793308.000,1.000
10.617,10.208,12.645,8.225,13.530,11.415,18.156,10.331,-0.001,0.980,-0.109,-0.916,-0.580,0.610,66.667,793309.000,1.000
10.852,9.078,11.764,6.665,12.691,9.849,16.592,8.219,-0.001,0.981,-0.108,-0.885,-0.610,0.641,66.667,793310.000,1.000
10.423,7.534,10.420,4.931,10.783,7.790,12.983,5.600,-0.001,0.983,-0.109,-0.854,-0.641,0.580,66.667,793311.000,1.000
9.025,5.490,8.390,2.949,7.677,5.352,7.414,2.223,-0.001,0.981,-0.109,-0.763,-0.641,0.549,66.667,793312.000,1.000
6.800,3.255,5.752,0.760,3.819,2.892,0.936,-1.833,-0.001,0.980,-0.112,-0.732,-0.580,0.519,66.667,793313.000,1.000
4.534,1.670,3.234,-1.067,0.460,1.325,-4.107,-5.218,-0.001,0.982,-0.112,-0.702,-0.641,0.580,66.667,793314.000,1.000
3.269,1.639,1.936,-1.677,-1.017,1.673,-5.284,-6.091,-0.003,0.982,-0.111,-0.641,-0.702,0.549,66.667,793315.000,1.000
3.591,3.386,2.540,-0.654,-0.137,4.130,-2.095,-3.955,-0.003,0.983,-0.111,-0.702,-0.671,0.488,66.667,793316.000,1.000
5.200,6.101,4.685,1.553,2.236,7.529,3.237,-0.336,-0.003,0.982,-0.107,-0.763,-0.641,0.458,66.667,793317.000,1.000
7.124,8.322,7.112,3.904,4.402,9.665,7.089,2.333,-0.003,0.982,-0.108,-0.732,-0.732,0.488,66.667,793318.000,1.000
8.370,8.762,8.469,5.453,4.893,8.588,7.035,2.504,-0.004,0.981,-0.109,-0.824,-0.793,0.458,66.667,793319.000,1.000
8.470,7.042,8.128,5.892,3.363,4.022,3.375,0.461,-0.005,0.981,-0.109,-0.763,-0.793,0.427,66.667,793320.000,1.000
7.540,3.804,6.369,5.529,0.595,-2.451,-1.712,-2.331,-0.004,0.980,-0.112,-0.732,-0.824,0.580,66.667,793321.000,1.000
5.978,0.279,3.975,4.875,-2.196,-8.430,-5.770,-4.482,-0.005,0.979,-0.114,-0.702,-0.854,0.549,66.667,793322.000,1.000
4.228,-2.317,1.812,4.350,-3.965,-11.886,-6.853,-5.127,-0.005,0.981,-0.110,-0.610,-0.824,0.458,66.667,793323.000,1.000
2.667,-3.283,0.525,4.145,-4.242,-12.118,-4.372,-4.159,-0.005,0.978,-0.109,-0.549,-0.946,0.641,66.667,793324.000,1.000
1.492,-2.693,0.265,4.108,-3.440,-10.213,-0.210,-2.734,-0.006,0.978,-0.109,-0.519,-1.068,0.671,66.667,793325.000,1.000
0.666,-1.261,0.661,3.865,-2.535,-8.320,2.307,-2.578,-0.006,0.979,-0.107,-0.488,-1.068,0.641,66.667,793326.000,1.000
-0.016,0.141,1.153,3.166,-2.273,-7.936,1.472,-4.318,-0.006,0.980,-0.110,-0.366,-1.099,0.641,66.667,793327.000,1.000
-0.647,0.985,1.405,2.109,-2.773,-8.836,-1.801,-7.155,-0.002,0.981,-0.111,-0.458,-1.190,0.702,66.667,793328.000,1.000
-1.048,1.171,1.391,0.967,-3.819,-9.725,-5.789,-10.067,-0.003,0.982,-0.107,-0.427,-1.251,0.763,66.667,793329.000,1.000
-0.914,0.815,1.216,-0.050,-5.183,-9.654,-9.384,-12.563,-0.003,0.983,-0.109,-0.458,-1.251,0.793,66.667,793330.000,1.000
0.018,0.097,1.034,-0.771,-6.602,-8.685,-11.992,-14.356,-0.004,0.982,-0.112,-0.397,-1.221,0.854,66.667,793331.000,1.000
1.756,-0.831,0.967,-1.074,-7.822,-7.703,-13.371,-15.236,-0.005,0.980,-0.110,-0.427,-1.221,0.885,66.667,793332.000,1.000
3.865,-1.993,0.984,-1.066,-8.773,-7.849,-13.912,-15.425,-0.004,0.979,-0.109,-0.458,-1.251,0.885,66.667,793333.000,1.000
5.499,-3.594,0.871,-1.083,-9.509,-9.693,-14.242,-15.356,-0.005,0.979,-0.111,-0.458,-1.312,0.885,66.667,793334.000,1.000
5.801,-5.785,0.399,-1.398,-9.915,-12.631,-14.289,-14.952,-0.006,0.980,-0.110,-0.397,-1.343,0.854,66.667,793335.000,1.000
4.541,-8.337,-0.425,-1.940,-9.650,-15.157,-13.350,-13.633,-0.004,0.981,-0.110,-0.244,-1.343,0.854,66.667,793336.000,1.000
2.335,-10.595,-1.344,-2.377,-8.541,-15.945,-11.110,-11.133,-0.002,0.982,-0.107,-0.275,-1.373,0.732,66.667,793337.000,1.000
0.209,-11.795,-2.066,-2.424,-6.862,-14.731,-8.136,-7.891,0.000,0.984,-0.107,-0.305,-1.343,0.854,66.667,793338.000,1.000
-1.080,-11.416,-2.418,-2.019,-5.113,-12.166,-5.314,-4.630,0.000,0.981,-0.107,-0.427,-1.343,0.946,66.667,793339.000,1.000
-1.354,-9.351,-2.306,-1.241,-3.635,-9.084,-3.411,-1.963,0.001,0.976,-0.107,-0.458,-1.373,1.038,66.667,793340.000,1.000
-0.909,-5.935,-1.629,-0.146,-2.450,-6.111,-3.037,-0.244,0.000,0.974,-0.109,-0.397,-1.221,1.129,66.667,793341.000,1.000
-0.320,-1.908,-0.371,1.284,-1.361,-3.636,-4.113,0.646,0.002,0.969,-0.111,-0.214,-1.251,1.221,66.667,793342.000,1.000
-0.227,1.739,1.231,3.023,-0.145,-1.790,-5.426,1.215,0.002,0.969,-0.112,-0.092,-1.282,1.190,66.667,793343.000,1.000
-1.031,4.093,2.697,4.878,1.229,-0.571,-5.305,1.927,0.004,0.971,-0.113,0.031,-1.129,1.160,66.667,793344.000,1.000
-2.672,4.620,3.496,6.460,2.425,-0.171,-3.106,2.896,0.003,0.975,-0.110,0.061,-0.977,1.221,66.667,793345.000,1.000
-4.699,3.301,3.338,7.313,2.834,-1.029,-0.127,3.687,0.004,0.980,-0.110,0.092,-0.977,1.312,66.667,793346.000,1.000
-6.506,0.630,2.392,7.165,1.990,-3.317,1.117,3.393,0.004,0.983,-0.113,0.122,-0.885,1.404,66.667,793347.000,1.000
-7.514,-2.435,1.313,6.246,0.143,-6.311,-0.976,1.556,0.004,0.985,-0.110,-0.031,-0.854,1.282,66.667,793348.000,1.000
-7.366,-4.741,0.904,5.274,-1.635,-8.461,-5.204,-0.856,0.006,0.986,-0.109,-0.031,-0.732,1.312,66.667,793349.000,1.000
-6.243,-5.534,1.478,4.868,-2.268,-8.472,-8.274,-2.080,0.004,0.985,-0.112,-0.153,-0.641,1.312,66.667,793350.000,1.000
-4.909,-4.943,2.539,4.981,-1.683,-6.362,-7.866,-1.231,0.001,0.985,-0.108,-0.214,-0.549,1.343,66.667,793351.000,1.000
-4.185,-3.801,3.218,5.025,-0.785,-3.331,-4.461,1.029,0.000,0.987,-0.111,-0.244,-0.549,1.282,66.667,793352.000,1.000
-4.310,-2.959,3.068,4.483,-0.495,-0.762,-0.364,3.267,-0.001,0.987,-0.109,-0.336,-0.549,1.099,66.667,793353.000,1.000
-4.857,-2.802,2.260,3.205,-1.152,0.338,2.120,4.190,-0.005,0.985,-0.108,-0.397,-0.641,0.977,66.667,793354.000,1.000
-5.211,-3.288,1.122,1.222,-2.682,-0.572,1.878,3.122,-0.006,0.987,-0.107,-0.488,-0.671,0.854,66.667,793355.000,1.000
-4.940,-4.121,-0.140,-1.304,-4.700,-3.064,-0.251,0.452,-0.007,0.986,-0.107,-0.549,-0.732,0.641,66.667,793356.000,1.000
-3.868,-4.912,-1.353,-3.956,-6.511,-5.565,-1.869,-2.440,-0.006,0.988,-0.108,-0.763,-0.824,0.458,66.667,793357.000,1.000
-2.157,-5.498,-2.417,-6.269,-7.589,-6.623,-1.402,-4.356,-0.007,0.988,-0.109,-0.854,-1.038,0.305,66.667,793358.000,1.000
-0.491,-6.250,-3.587,-8.165,-8.179,-6.422,0.003,-5.358,-0.007,0.987,-0.110,-0.916,-1.038,0.244,66.667,793359.000,1.000
0.060,-7.818,-5.401,-9.961,-9.086,-6.509,-0.209,-6.330,-0.004,0.986,-0.107,-1.038,-1.160,0.214,66.667,793360.000,1.000
-1.245,-10.371,-8.044,-11.851,-10.734,-8.070,-3.108,-7.598,-0.003,0.985,-0.105,-1.129,-1.312,0.214,66.667,793361.000,1.000
-4.112,-13.169,-10.890,-13.483,-12.643,-10.873,-7.276,-8.373,-0.003,0.987,-0.106,-1.129,-1.312,0.183,66.667,793362.000,1.000
-7.216,-14.932,-12.786,-14.164,-13.840,-13.743,-10.490,-7.772,-0.002,0.986,-0.106,-1.282,-1.343,0.305,66.667,793363.000,1.000
-9.033,-14.654,-12.843,-13.510,-13.700,-15.473,-11.658,-6.228,-0.001,0.984,-0.106,-1.343,-1.282,0.305,66.667,793364.000,1.000
-8.716,-12.163,-10.972,-11.742,-12.276,-15.245,-10.974,-5.168,-0.001,0.986,-0.106,-1.465,-1.312,0.305,66.667,793365.000,1.000
-6.388,-8.183,-7.860,-9.406,-10.086,-12.855,-9.198,-5.416,0.000,0.985,-0.105,-1.404,-1.343,0.366,66.667,793366.000,1.000
-3.107,-4.129,-4.793,-7.206,-8.076,-9.201,-7.672,-6.926,-0.002,0.984,-0.107,-1.465,-1.434,0.519,66.667,793367.000,1.000
-0.466,-1.627,-3.223,-5.907,-7.426,-6.243,-8.091,-9.507,-0.002,0.984,-0.106,-1.495,-1.312,0.458,66.667,793368.000,1.000
0.233,-1.651,-3.920,-5.842,-8.673,-5.703,-10.914,-12.606,-0.002,0.983,-0.101,-1.556,-1.343,0.641,66.667,793369.000,1.000
-1.298,-3.877,-6.384,-6.496,-11.055,-7.681,-14.464,-14.920,-0.003,0.983,-0.101,-1.526,-1.343,0.641,66.667,793370.000,1.000
-4.268,-6.949,-9.159,-6.828,-13.007,-10.766,-16.388,-15.209,-0.003,0.981,-0.103,-1.343,-1.282,0.671,66.667,793371.000,1.000
-7.386,-9.432,-10.806,-6.078,-13.297,-13.310,-15.508,-13.315,-0.004,0.979,-0.105,-1.404,-1.373,0.763,66.667,793372.000,1.000
-9.520,-10.483,-10.603,-4.218,-11.629,-14.278,-12.098,-10.039,-0.006,0.979,-0.106,-1.251,-1.373,0.793,66.667,793373.000,1.000
-10.044,-9.930,-8.659,-1.781,-8.577,-13.321,-7.287,-6.355,-0.004,0.979,-0.107,-1.129,-1.465,0.854,66.667,793374.000,1.000
-9.047,-8.225,-5.839,0.450,-5.370,-10.910,-2.923,-3.192,-0.004,0.978,-0.104,-1.038,-1.495,0.854,66.667,793375.000,1.000
-7.341,-6.362,-3.531,1.658,-3.482,-8.431,-1.152,-1.564,-0.004,0.976,-0.105,-0.977,-1.556,0.824,66.667,793376.000,1.000
-5.999,-5.352,-2.975,1.314,-3.868,-7.390,-2.924,-2.217,-0.003,0.976,-0.101,-0.946,-1.495,0.702,66.667,793377.000,1.000
-5.692,-5.558,-4.516,-0.518,-6.369,-8.220,-7.028,-5.055,-0.002,0.974,-0.102,-0.824,-1.495,0.763,66.667,793378.000,1.000
-6.459,-6.591,-7.457,-3.205,-9.887,-10.018,-11.033,-8.992,-0.002,0.974,-0.105,-0.702,-1.434,0.732,66.667,793379.000,1.000
-7.895,-7.817,-10.596,-5.943,-13.183,-11.595,-13.408,-12.586,-0.002,0.975,-0.103,-0.610,-1.343,0.854,66.667,793380.000,1.000
-9.378,-8.810,-12.926,-8.177,-15.542,-12.444,-14.588,-15.107,-0.003,0.976,-0.102,-0.427,-1.282,0.763,66.667,793381.000,1.000
-10.322,-9.391,-14.004,-9.702,-16.742,-12.515,-15.656,-16.626,-0.002,0.973,-0.102,-0.183,-1.282,0.854,66.667,793382.000,1.000
-10.373,-9.562,-13.876,-10.420,-16.665,-11.706,-16.616,-16.999,-0.003,0.974,-0.103,-0.061,-1.343,0.977,66.667,793383.000,1.000
-9.496,-9.524,-12.878,-10.261,-15.340,-10.021,-16.615,-15.734,-0.004,0.976,-0.106,0.000,-1.343,1.068,66.667,793384.000,1.000
-7.929,-9.583,-11.457,-9.344,-13.182,-7.839,-15.320,-13.035,-0.002,0.974,-0.105,0.092,-1.343,1.038,66.667,793385.000,1.000
-6.094,-9.873,-9.979,-7.970,-10.778,-5.750,-13.213,-9.968,-0.003,0.972,-0.108,0.214,-1.160,0.946,66.667,793386.000,1.000
-4.515,-10.216,-8.702,-6.508,-8.619,-4.283,-10.907,-7.468,0.000,0.974,-0.106,0.549,-1.129,0.946,66.667,793387.000,1.000
-3.606,-10.295,-7.833,-5.359,-7.197,-3.813,-9.130,-5.820,0.001,0.974,-0.105,0.702,-1.251,0.946,66.667,793388.000,1.000
-3.407,-9.921,-7.455,-4.789,-6.934,-4.428,-8.594,-4.857,0.002,0.975,-0.103,0.793,-1.099,1.007,66.667,793389.000,1.000
-3.546,-9.137,-7.384,-4.687,-7.740,-5.796,-9.116,-4.177,0.001,0.977,-0.102,0.916,-1.038,1.068,66.667,793390.000,1.000
-3.548,-8.201,-7.257,-4.659,-8.948,-7.319,-9.608,-3.386,0.000,0.980,-0.107,0.977,-1.038,0.977,66.667,793391.000,1.000
-3.254,-7.444,-6.849,-4.395,-9.777,-8.386,-9.141,-2.373,0.000,0.980,-0.107,1.038,-0.977,0.916,66.667,793392.000,1.000
-2.939,-7.081,-6.285,-3.886,-9.745,-8.574,-7.760,-1.292,0.001,0.981,-0.103,1.160,-0.916,1.038,66.667,793393.000,1.000
-3.029,-7.115,-5.977,-3.372,-8.813,-7.913,-6.298,-0.328,0.000,0.983,-0.106,1.068,-0.793,1.129,66.667,793394.000,1.000
-3.707,-7.342,-6.288,-3.107,-7.261,-6.837,-5.363,0.624,-0.001,0.984,-0.107,1.099,-0.702,1.129,66.667,793395.000,1.000
-4.764,-7.472,-7.185,-3.139,-5.456,-5.689,-4.635,2.065,-0.004,0.986,-0.108,1.038,-0.793,1.099,66.667,793396.000,1.000
-5.858,-7.410,-8.330,-3.390,-3.848,-4.518,-3.440,4.362,-0.003,0.989,-0.106,0.946,-0.854,1.221,66.667,793397.000,1.000
-6.829,-7.446,-9.461,-3.861,-3.024,-3.339,-1.765,7.044,-0.004,0.990,-0.104,0.916,-0.824,1.160,66.667,793398.000,1.000
-7.721,-7.995,-10.521,-4.644,-3.408,-2.252,-0.198,8.974,-0.004,0.989,-0.103,0.763,-0.854,1.099,66.667,793399.000,1.000
-8.590,-9.121,-11.482,-5.735,-4.856,-1.335,0.880,9.362,-0.004,0.990,-0.106,0.549,-0.824,1.129,66.667,793400.000,1.000
-9.392,-10.422,-12.217,-6.939,-6.677,-0.641,1.555,8.390,-0.005,0.988,-0.104,0.397,-0.946,1.099,66.667,793401.000,1.000
-10.017,-11.347,-12.563,-7.957,-8.112,-0.269,1.892,6.849,-0.004,0.985,-0.104,0.214,-1.038,1.068,66.667,793402.000,1.000
-10.353,-11.463,-12.346,-8.492,-8.687,-0.206,1.545,5.557,-0.003,0.984,-0.105,0.122,-1.129,1.129,66.667,793403.000,1.000
-10.300,-10.481,-11.346,-8.339,-8.166,-0.067,0.434,5.218,-0.002,0.982,-0.107,0.153,-1.007,1.190,66.667,793404.000,1.000
-9.734,-8.236,-9.351,-7.435,-6.414,0.807,-0.478,6.362,0.000,0.984,-0.110,0.092,-1.007,1.068,66.667,793405.000,1.000
-8.598,-4.852,-6.384,-5.861,-3.451,2.744,0.228,9.150,0.001,0.986,-0.110,-0.061,-0.946,1.129,66.667,793406.000,1.000
-7.191,-0.973,-2.990,-3.930,0.298,5.302,3.130,13.137,0.001,0.988,-0.112,-0.183,-0.824,1.221,66.667,793407.000,1.000
-6.198,2.371,-0.156,-2.194,3.901,7.548,7.110,17.038,0.001,0.989,-0.112,-0.153,-0.824,1.190,66.667,793408.000,1.000
-6.183,4.401,1.307,-1.156,6.343,8.919,9.910,19.051,0.001,0.988,-0.109,-0.275,-0.702,1.251,66.667,793409.000,1.000
-7.103,5.169,1.370,-0.892,7.297,9.896,10.084,18.079,0.003,0.986,-0.110,-0.305,-0.641,1.434,66.667,793410.000,1.000
-8.362,5.389,0.745,-1.011,7.340,11.540,8.158,14.684,0.004,0.982,-0.113,-0.275,-0.671,1.465,66.667,793411.000,1.000
-9.296,5.721,0.276,-0.980,7.315,14.124,5.705,10.629,0.004,0.982,-0.110,-0.305,-0.580,1.526,66.667,793412.000,1.000
-9.574,6.284,0.421,-0.430,7.743,16.620,4.024,7.842,0.003,0.982,-0.106,-0.305,-0.427,1.587,66.667,793413.000,1.000
-9.396,6.657,1.039,0.610,8.624,17.599,3.712,7.473,-0.002,0.981,-0.104,-0.336,-0.397,1.526,66.667,793414.000,1.000
-9.403,6.126,1.464,1.621,9.362,16.232,4.333,9.028,-0.004,0.981,-0.106,-0.397,-0.366,1.404,66.667,793415.000,1.000
-10.070,4.244,1.078,1.991,9.165,12.734,4.562,10.654,-0.005,0.980,-0.106,-0.427,-0.366,1.190,66.667,793416.000,1.000
-11.123,1.381,-0.045,1.626,7.825,8.379,3.517,10.818,-0.006,0.978,-0.105,-0.397,-0.397,1.099,66.667,793417.000,1.000
-11.673,-1.393,-1.120,1.073,5.989,4.927,1.736,9.514,-0.006,0.978,-0.106,-0.427,-0.458,0.946,66.667,793418.000,1.000
-10.977,-3.073,-1.297,1.063,4.637,3.652,0.722,7.984,-0.003,0.976,-0.107,-0.305,-0.549,0.702,66.667,793419.000,1.000
-9.009,-3.416,-0.317,1.938,4.306,4.507,1.490,7.568,-0.001,0.977,-0.107,-0.336,-0.671,0.702,66.667,793420.000,1.000
-6.397,-2.988,1.340,3.365,4.657,6.070,3.244,8.575,-0.002,0.978,-0.106,-0.275,-0.732,0.549,66.667,793421.000,1.000
-3.966,-2.585,2.848,4.545,4.808,6.671,3.982,10.084,-0.002,0.980,-0.109,-0.183,-0.763,0.427,66.667,793422.000,1.000
-2.255,-2.618,3.632,4.851,4.244,5.707,2.760,11.003,-0.002,0.980,-0.109,-0.122,-0.732,0.305,66.667,793423.000,1.000
-1.340,-2.976,3.634,4.272,3.261,3.744,0.777,11.134,-0.005,0.982,-0.109,-0.092,-0.732,0.397,66.667,793424.000,1.000
-1.001,-3.327,3.109,3.256,2.466,1.648,-0.135,10.931,-0.003,0.985,-0.108,-0.244,-0.610,0.427,66.667,793425.000,1.000
-0.892,-3.369,2.402,2.304,2.149,0.049,0.509,10.529,-0.005,0.986,-0.106,-0.214,-0.671,0.488,66.667,793426.000,1.000
-0.641,-2.871,1.891,1.761,2.275,-0.656,1.827,9.610,-0.003,0.985,-0.110,-0.244,-0.641,0.519,66.667,793427.000,1.000
-0.053,-1.751,1.857,1.755,2.715,-0.476,2.656,7.997,-0.004,0.984,-0.109,-0.244,-0.702,0.519,66.667,793428.000,1.000
0.701,-0.217,2.205,2.078,3.181,-0.049,2.112,5.722,-0.003,0.986,-0.107,-0.275,-0.702,0.549,66.667,793429.000,1.000
1.224,1.336,2.508,2.273,3.209,-0.216,-0.189,2.847,-0.005,0.985,-0.106,-0.336,-0.732,0.702,66.667,793430.000,1.000
1.253,2.605,2.427,2.047,2.534,-1.262,-3.763,-0.275,-0.005,0.986,-0.105,-0.397,-0.763,0.854,66.667,793431.000,1.000
0.779,3.475,1.922,1.480,1.281,-2.829,-7.354,-2.986,-0.005,0.986,-0.107,-0.397,-0.824,1.068,66.667,793432.000,1.000
-0.085,3.866,1.124,0.893,-0.183,-4.418,-9.710,-4.783,-0.005,0.986,-0.107,-0.336,-0.916,1.099,66.667,793433.000,1.000
-1.156,3.651,0.229,0.622,-1.457,-5.610,-10.226,-5.550,-0.004,0.986,-0.105,-0.397,-0.946,1.038,66.667,793434.000,1.000
-2.180,2.760,-0.556,0.801,-2.323,-6.099,-9.202,-5.681,-0.004,0.985,-0.106,-0.519,-0.885,1.221,66.667,793435.000,1.000
-2.907,1.318,-1.073,1.256,-2.857,-5.997,-7.720,-6.015,-0.005,0.983,-0.108,-0.549,-1.007,1.099,66.667,793436.000,1.000
-3.219,-0.343,-1.268,1.597,-3.252,-5.861,-6.752,-7.154,-0.005,0.984,-0.105,-0.641,-0.946,1.099,66.667,793437.000,1.000
-3.222,-1.808,-1.214,1.435,-3.535,-6.056,-6.376,-8.914,-0.005,0.985,-0.105,-0.610,-0.977,1.221,66.667,793438.000,1.000
-3.217,-2.762,-1.103,0.568,-3.555,-6.356,-6.064,-10.614,-0.004,0.985,-0.104,-0.641,-1.129,1.312,66.667,793439.000,1.000
-3.490,-3.121,-1.102,-0.887,-3.146,-6.325,-5.324,-11.559,-0.002,0.984,-0.105,-0.641,-1.068,1.160,66.667,793440.000,1.000
-4.055,-2.947,-1.164,-2.440,-2.144,-5.637,-3.558,-11.074,-0.002,0.982,-0.107,-0.732,-1.068,1.251,66.667,793441.000,1.000
-4.635,-2.354,-1.128,-3.521,-0.570,-4.209,-0.197,-8.792,-0.001,0.982,-0.105,-0.732,-1.129,1.434,66.667,793442.000,1.000
-4.935,-1.612,-1.021,-4.024,0.955,-2.610,3.784,-5.546,-0.001,0.983,-0.105,-0.732,-1.129,1.434,66.667,793443.000,1.000
-4.901,-1.154,-1.122,-4.400,1.436,-1.921,5.753,-3.214,-0.003,0.981,-0.106,-0.763,-1.068,1.373,66.667,793444.000,1.000
-4.788,-1.308,-1.703,-5.116,0.483,-2.612,4.176,-2.917,0.000,0.981,-0.107,-0.732,-1.129,1.373,66.667,793445.000,1.000
-5.041,-2.137,-2.878,-6.293,-1.313,-4.002,0.230,-3.981,-0.002,0.979,-0.107,-0.732,-1.160,1.373,66.667,793446.000,1.000
-6.041,-3.543,-4.654,-7.878,-3.141,-5.055,-3.845,-5.103,-0.003,0.980,-0.107,-0.671,-1.129,1.312,66.667,793447.000,1.000
-7.761,-5.310,-6.854,-9.774,-4.568,-5.266,-6.482,-5.617,-0.004,0.979,-0.106,-0.641,-1.129,1.343,66.667,793448.000,1.000
-9.697,-7.072,-9.049,-11.759,-5.469,-4.772,-6.858,-5.491,-0.002,0.980,-0.107,-0.702,-1.038,1.160,66.667,793449.000,1.000
-11.276,-8.479,-10.807,-13.571,-5.944,-4.099,-5.113,-5.148,-0.002,0.980,-0.107,-0.610,-0.946,1.160,66.667,793450.000,1.000
-12.261,-9.446,-11.975,-15.079,-6.302,-3.850,-2.766,-5.380,-0.002,0.981,-0.107,-0.549,-0.977,1.129,66.667,793451.000,1.000
-12.757,-10.082,-12.602,-16.183,-6.769,-4.351,-1.684,-6.703,-0.001,0.979,-0.105,-0.366,-0.977,1.190,66.667,793452.000,1.000
-12.883,-10.366,-12.613,-16.549,-7.101,-5.318,-2.405,-8.669,-0.002,0.981,-0.107,-0.336,-1.007,1.099,66.667,793453.000,1.000
-12.626,-10.108,-11.839,-15.737,-6.791,-6.027,-3.835,-10.121,-0.002,0.980,-0.107,-0.275,-1.007,1.007,66.667,793454.000,1.000
-12.075,-9.371,-10.516,-13.818,-5.858,-6.141,-4.596,-10.287,-0.003,0.979,-0.109,-0.244,-1.007,0.885,66.667,793455.000,1.000
-11.569,-8.690,-9.453,-11.630,-5.076,-6.060,-4.254,-9.408,-0.002,0.978,-0.105,-0.214,-1.129,0.854,66.667,793456.000,1.000
-11.480,-8.687,-9.476,-10.227,-5.263,-6.251,-3.244,-8.241,-0.003,0.981,-0.108,-0.122,-0.946,0.763,66.667,793457.000,1.000
-11.799,-9.509,-10.695,-10.078,-6.525,-6.679,-2.130,-7.313,-0.003,0.979,-0.108,-0.092,-0.977,0.610,66.667,793458.000,1.000
-12.014,-10.637,-12.281,-10.743,-8.094,-6.904,-0.997,-6.639,-0.003,0.981,-0.103,-0.061,-0.916,0.580,66.667,793459.000,1.000
-11.472,-11.196,-12.959,-11.235,-8.815,-6.422,0.380,-5.925,-0.003,0.981,-0.106,-0.031,-0.916,0.641,66.667,793460.000,1.000
-9.894,-10.533,-11.879,-10.701,-7.879,-4.913,2.093,-4.840,-0.002,0.980,-0.104,0.031,-1.068,0.549,66.667,793461.000,1.000
-7.684,-8.658,-9.218,-8.978,-5.343,-2.462,4.177,-3.249,-0.005,0.981,-0.104,-0.214,-1.099,0.488,66.667,793462.000,1.000
-5.784,-6.313,-6.135,-6.712,-2.230,0.188,6.261,-1.546,-0.006,0.982,-0.104,-0.183,-1.099,0.610,66.667,793463.000,1.000
-5.042,-4.504,-4.031,-4.927,0.020,1.916,7.257,-0.495,-0.006,0.984,-0.103,-0.183,-1.221,0.549,66.667,793464.000,1.000
-5.562,-3.771,-3.621,-4.285,0.570,2.164,6.454,-0.464,-0.006,0.982,-0.102,-0.092,-1.221,0.549,66.667,793465.000,1.000
-6.680,-3.954,-4.634,-4.726,-0.346,1.365,4.478,-1.185,-0.006,0.981,-0.102,-0.153,-1.251,0.427,66.667,793466.000,1.000
-7.592,-4.662,-6.325,-5.812,-1.993,0.223,2.544,-2.307,-0.007,0.983,-0.103,-0.153,-1.282,0.549,66.667,793467.000,1.000
-7.947,-5.748,-8.121,-7.238,-3.844,-0.988,1.327,-3.679,-0.006,0.984,-0.105,-0.153,-1.282,0.671,66.667,793468.000,1.000
-7.906,-7.269,-9.808,-8.927,-5.697,-2.286,0.862,-5.049,-0.005,0.984,-0.105,-0.214,-1.343,0.610,66.667,793469.000,1.000
-7.720,-9.065,-11.209,-10.682,-7.277,-3.508,1.254,-5.708,-0.007,0.985,-0.104,-0.275,-1.404,0.610,66.667,793470.000,1.000
-7.302,-10.507,-11.863,-11.918,-7.951,-4.119,3.034,-4.775,-0.006,0.984,-0.102,-0.244,-1.434,0.641,66.667,793471.000,1.000
-6.469,-10.912,-11.385,-12.136,-7.220,-3.604,6.369,-2.302,-0.007,0.983,-0.098,-0.305,-1.434,0.854,66.667,793472.000,1.000
-5.440,-10.188,-10.063,-11.537,-5.397,-2.101,10.067,0.277,-0.006,0.982,-0.101,-0.275,-1.495,0.854,66.667,793473.000,1.000
-4.825,-8.929,-8.779,-10.841,-3.456,-0.462,12.159,1.313,-0.006,0.982,-0.101,-0.427,-1.526,0.916,66.667,793474.000,1.000
-5.113,-7.885,-8.307,-10.581,-2.248,0.472,11.530,0.304,-0.006,0.983,-0.100,-0.397,-1.465,0.977,66.667,793475.000,1.000
-6.250,-7.436,-8.784,-10.730,-1.973,0.531,8.654,-1.939,-0.006,0.984,-0.104,-0.458,-1.526,1.038,66.667,793476.000,1.000
-7.701,-7.531,-9.783,-10.901,-2.318,0.110,5.012,-4.017,-0.006,0.983,-0.104,-0.519,-1.587,1.038,66.667,793477.000,1.000
-8.741,-7.917,-10.659,-10.656,-2.797,-0.249,2.230,-4.712,-0.005,0.983,-0.104,-0.427,-1.648,1.129,66.667,793478.000,1.000
-8.791,-8.308,-10.905,-9.779,-3.082,-0.139,1.217,-3.732,-0.005,0.984,-0.104,-0.397,-1.648,1.099,66.667,793479.000,1.000
-7.684,-8.470,-10.452,-8.464,-3.236,0.520,1.291,-2.187,-0.004,0.983,-0.103,-0.519,-1.617,1.282,66.667,793480.000,1.000
-5.715,-8.235,-9.623,-7.189,-3.495,1.502,0.735,-1.755,-0.004,0.981,-0.105,-0.427,-1.526,1.343,66.667,793481.000,1.000
-3.467,-7.548,-8.804,-6.313,-3.842,2.482,-1.272,-3.034,-0.004,0.982,-0.105,-0.458,-1.526,1.312,66.667,793482.000,1.000
-1.399,-6.454,-8.108,-5.737,-3.892,3.270,-3.848,-4.987,-0.002,0.983,-0.102,-0.519,-1.434,1.190,66.667,793483.000,1.000
0.446,-5.035,-7.281,-4.972,-3.178,3.894,-5.420,-5.930,-0.003,0.982,-0.104,-0.488,-1.404,1.221,66.667,793484.000,1.000
2.290,-3.483,-5.950,-3.577,-1.571,4.409,-5.034,-4.766,-0.001,0.982,-0.104,-0.458,-1.312,1.343,66.667,793485.000,1.000
4.270,-2.122,-3.984,-1.531,0.594,4.795,-2.625,-1.470,0.000,0.983,-0.105,-0.427,-1.251,1.373,66.667,793486.000,1.000
6.305,-1.230,-1.679,0.750,2.725,5.059,1.379,3.113,-0.001,0.984,-0.105,-0.519,-1.160,1.343,66.667,793487.000,1.000
8.206,-0.858,0.411,2.700,4.231,5.132,6.049,7.642,-0.003,0.983,-0.105,-0.519,-1.068,1.404,66.667,793488.000,1.000
9.806,-0.810,1.877,3.938,4.745,4.810,9.968,10.771,-0.002,0.984,-0.104,-0.488,-1.038,1.404,66.667,793489.000,1.000
11.045,-0.782,2.664,4.413,4.241,4.019,11.852,11.683,-0.004,0.983,-0.104,-0.397,-0.977,1.434,66.667,793490.000,1.000
12.050,-0.602,2.956,4.337,2.952,2.897,11.109,10.317,-0.002,0.981,-0.104,-0.458,-0.854,1.373,66.667,793491.000,1.000
13.078,-0.368,2.932,4.020,1.149,1.591,7.918,7.205,-0.001,0.983,-0.105,-0.427,-0.885,1.343,66.667,793492.000,1.000
14.329,-0.288,2.680,3.712,-0.908,0.256,3.028,3.250,-0.003,0.984,-0.105,-0.458,-0.824,1.251,66.667,793493.000,1.000
15.765,-0.503,2.163,3.498,-2.925,-0.952,-2.396,-0.464,0.000,0.983,-0.104,-0.519,-0.732,1.282,66.667,793494.000,1.000
17.068,-1.116,1.239,3.304,-4.632,-2.174,-6.938,-2.962,-0.001,0.982,-0.104,-0.519,-0.641,1.221,66.667,793495.000,1.000
17.860,-2.141,-0.132,3.052,-5.832,-3.816,-9.435,-3.834,-0.003,0.981,-0.101,-0.488,-0.549,1.099,66.667,793496.000,1.000
