EEG 1,EEG 2,EEG 3,EEG 4,EEG 5,EEG 6,EEG 7,EEG 8,Accelerometer X,Accelerometer Y,Accelerometer Z,Gyroscope X,Gyroscope Y,Gyroscope Z,Battery Level,Counter,Validation Indicator
10.299,9.353,12.390,10.636,10.412,13.121,2.527,2.990,0.019,0.983,-0.102,0.763,-0.793,0.580,66.667,561873.000,1.000
8.363,8.057,9.985,8.149,7.225,11.185,-0.365,0.615,0.019,0.982,-0.100,0.732,-0.916,0.580,66.667,561874.000,1.000
6.137,5.882,7.028,5.233,4.115,8.687,-2.319,-1.456,0.019,0.983,-0.101,0.793,-0.916,0.580,66.667,561875.000,1.000
4.599,3.982,4.781,3.240,2.642,6.900,-1.226,-1.186,0.016,0.981,-0.102,0.732,-0.977,0.580,66.667,561876.000,1.000
4.102,2.911,3.720,2.576,3.099,6.115,2.475,1.320,0.016,0.983,-0.102,0.763,-0.916,0.549,66.667,561877.000,1.000
4.140,2.230,3.214,2.445,4.245,5.349,5.692,3.863,0.016,0.985,-0.100,0.763,-1.007,0.549,66.667,561878.000,1.000
3.795,0.945,2.180,1.650,4.263,3.142,5.168,3.928,0.017,0.984,-0.102,0.671,-1.068,0.671,66.667,561879.000,1.000
2.556,-1.519,0.125,-0.299,2.220,-1.092,0.120,0.632,0.015,0.983,-0.101,0.610,-1.160,0.732,66.667,561880.000,1.000
0.972,-4.470,-2.237,-2.563,-0.989,-6.066,-7.023,-4.289,0.014,0.984,-0.101,0.580,-1.221,0.732,66.667,561881.000,1.000
0.333,-6.287,-3.491,-3.566,-3.209,-9.180,-12.173,-7.521,0.015,0.983,-0.101,0.580,-1.343,0.885,66.667,561882.000,1.000
1.473,-5.734,-2.764,-2.355,-2.694,-8.286,-12.017,-6.444,0.016,0.983,-0.102,0.580,-1.404,0.854,66.667,561883.000,1.000
3.997,-2.963,-0.464,0.595,0.620,-3.172,-5.818,-0.779,0.016,0.984,-0.102,0.610,-1.465,0.854,66.667,561884.000,1.000
6.543,0.510,1.973,3.692,4.967,3.971,3.811,7.046,0.015,0.984,-0.100,0.519,-1.526,0.854,66.667,561885.000,1.000
7.626,2.551,2.879,5.126,7.600,9.242,11.716,12.851,0.018,0.983,-0.102,0.427,-1.526,1.007,66.667,561886.000,1.000
6.466,1.506,1.255,3.889,6.438,9.038,13.013,13.142,0.019,0.983,-0.105,0.458,-1.465,1.068,66.667,561887.000,1.000
3.432,-2.733,-2.554,0.463,1.623,2.564,6.388,7.633,0.020,0.983,-0.107,0.397,-1.526,0.977,66.667,561888.000,1.000
-0.257,-8.573,-7.021,-3.470,-4.515,-7.338,-4.748,-0.529,0.020,0.983,-0.106,0.366,-1.556,1.099,66.667,561889.000,1.000
-3.345,-13.702,-10.470,-6.208,-9.222,-16.228,-14.495,-7.061,0.023,0.984,-0.102,0.366,-1.495,1.160,66.667,561890.000,1.000
-5.042,-16.317,-11.990,-7.029,-11.096,-21.109,-18.561,-9.345,0.024,0.983,-0.103,0.336,-1.526,1.160,66.667,561891.000,1.000
-4.990,-15.775,-11.471,-6.151,-10.267,-21.478,-16.471,-7.318,0.022,0.984,-0.103,0.244,-1.434,1.190,66.667,561892.000,1.000
-3.193,-12.662,-9.244,-4.127,-7.536,-18.471,-10.633,-2.540,0.022,0.981,-0.104,0.183,-1.434,1.251,66.667,561893.000,1.000
-0.143,-8.464,-6.052,-1.666,-4.031,-14.136,-4.739,2.461,0.023,0.982,-0.104,0.153,-1.282,1.373,66.667,561894.000,1.000
3.127,-4.893,-3.063,0.319,-1.161,-10.722,-2.126,4.921,0.022,0.983,-0.105,0.183,-1.190,1.312,66.667,561895.000,1.000
5.419,-3.061,-1.379,1.110,0.036,-9.403,-3.740,3.672,0.024,0.984,-0.105,0.092,-1.099,1.282,66.667,561896.000,1.000
5.976,-3.100,-1.406,0.649,-0.478,-9.795,-7.736,-0.017,0.023,0.982,-0.100,0.092,-1.038,1.343,66.667,561897.000,1.000
4.867,-4.384,-2.690,-0.512,-1.892,-10.768,-11.350,-3.733,0.023,0.980,-0.102,0.153,-0.885,1.373,66.667,561898.000,1.000
2.980,-5.900,-4.207,-1.595,-3.136,-11.355,-12.874,-5.637,0.022,0.980,-0.101,0.214,-0.916,1.404,66.667,561899.000,1.000
1.504,-6.639,-4.919,-1.975,-3.329,-10.976,-11.830,-4.985,0.023,0.983,-0.104,0.244,-0.763,1.465,66.667,561900.000,1.000
1.173,-6.044,-4.364,-1.445,-2.013,-9.244,-7.935,-1.689,0.024,0.983,-0.102,0.214,-0.641,1.465,66.667,561901.000,1.000
1.860,-4.344,-2.952,-0.350,0.514,-6.229,-1.528,3.533,0.024,0.983,-0.101,0.214,-0.549,1.434,66.667,561902.000,1.000
2.763,-2.486,-1.742,0.474,2.983,-3.093,4.826,8.451,0.025,0.981,-0.101,0.153,-0.488,1.526,66.667,561903.000,1.000
3.014,-1.455,-1.659,0.249,3.965,-1.459,7.612,10.516,0.024,0.982,-0.105,0.183,-0.427,1.434,66.667,561904.000,1.000
2.318,-1.445,-2.677,-1.011,3.238,-1.767,5.984,9.477,0.023,0.982,-0.106,0.153,-0.244,1.526,66.667,561905.000,1.000
1.025,-1.826,-3.952,-2.557,1.770,-2.932,2.288,7.280,0.024,0.982,-0.105,0.214,-0.214,1.587,66.667,561906.000,1.000
-0.382,-1.991,-4.810,-3.747,0.373,-3.696,-0.862,5.298,0.024,0.981,-0.104,0.275,-0.244,1.373,66.667,561907.000,1.000
-1.667,-1.967,-5.298,-4.514,-0.958,-3.730,-2.482,3.327,0.024,0.983,-0.103,0.244,-0.183,1.282,66.667,561908.000,1.000
-2.768,-2.216,-5.859,-5.082,-2.592,-3.675,-3.117,0.824,0.021,0.983,-0.104,0.275,-0.153,1.282,66.667,561909.000,1.000
-3.682,-3.203,-6.867,-5.637,-4.814,-4.554,-4.274,-2.386,0.022,0.983,-0.105,0.244,-0.092,1.221,66.667,561910.000,1.000
-4.389,-4.990,-8.339,-6.139,-7.523,-6.762,-7.073,-5.940,0.022,0.983,-0.104,0.153,-0.031,1.221,66.667,561911.000,1.000
-4.585,-6.874,-9.645,-6.092,-9.809,-9.180,-10.611,-8.516,0.021,0.984,-0.102,0.214,-0.031,1.160,66.667,561912.000,1.000
-3.677,-7.590,-9.663,-4.760,-10.272,-9.748,-12.425,-8.345,0.021,0.984,-0.102,0.214,-0.031,1.190,66.667,561913.000,1.000
-1.457,-6.424,-7.812,-2.047,-8.382,-7.518,-10.999,-5.028,0.020,0.984,-0.104,0.244,-0.061,1.160,66.667,561914.000,1.000
1.332,-4.139,-4.884,0.966,-5.338,-3.923,-7.487,-0.530,0.021,0.984,-0.101,0.183,-0.183,1.160,66.667,561915.000,1.000
3.396,-2.477,-2.519,2.771,-3.163,-1.651,-4.706,2.299,0.020,0.984,-0.102,0.305,-0.244,1.221,66.667,561916.000,1.000
3.842,-2.659,-1.858,2.703,-3.018,-2.345,-4.453,2.207,0.019,0.984,-0.102,0.244,-0.244,1.099,66.667,561917.000,1.000
2.706,-4.477,-2.892,1.321,-4.579,-5.418,-6.084,0.123,0.019,0.986,-0.103,0.183,-0.214,1.007,66.667,561918.000,1.000
0.769,-6.730,-4.785,-0.174,-6.616,-8.707,-7.373,-2.007,0.021,0.985,-0.104,0.214,-0.305,1.129,66.667,561919.000,1.000
-1.029,-8.286,-6.554,-0.746,-7.762,-10.040,-6.294,-2.333,0.020,0.986,-0.103,0.122,-0.305,1.099,66.667,561920.000,1.000
-2.293,-8.903,-7.711,-0.198,-7.336,-8.766,-2.836,-0.257,0.019,0.987,-0.105,0.153,-0.305,1.068,66.667,561921.000,1.000
-3.421,-9.240,-8.532,0.690,-5.866,-6.224,0.748,2.954,0.020,0.988,-0.107,0.061,-0.336,1.038,66.667,561922.000,1.000
-5.164,-10.117,-9.697,0.832,-4.631,-4.495,2.181,5.312,0.021,0.987,-0.102,0.031,-0.336,1.038,66.667,561923.000,1.000
-7.936,-11.830,-11.683,-0.341,-4.726,-4.794,0.835,5.442,0.021,0.986,-0.102,-0.031,-0.366,1.129,66.667,561924.000,1.000
-11.348,-13.992,-14.308,-2.531,-6.421,-6.904,-2.744,2.942,0.019,0.986,-0.102,-0.153,-0.519,1.129,66.667,561925.000,1.000
-14.271,-15.815,-16.674,-4.769,-8.986,-9.669,-7.331,-1.297,0.019,0.985,-0.104,-0.122,-0.488,1.038,66.667,561926.000,1.000
-15.604,-16.633,-17.789,-6.094,-11.236,-12.042,-11.317,-5.432,0.019,0.984,-0.104,-0.122,-0.519,1.099,66.667,561927.000,1.000
-15.076,-16.204,-17.312,-6.181,-12.379,-13.598,-13.574,-8.072,0.022,0.983,-0.102,-0.092,-0.610,1.129,66.667,561928.000,1.000
-13.224,-14.560,-15.545,-5.253,-12.117,-14.075,-13.636,-8.745,0.022,0.980,-0.102,-0.031,-0.732,1.068,66.667,561929.000,1.000
-10.807,-11.852,-12.960,-3.597,-10.340,-13.017,-11.409,-7.331,0.022,0.979,-0.105,0.000,-0.641,1.068,66.667,561930.000,1.000
-8.428,-8.440,-9.985,-1.456,-7.279,-10.141,-7.531,-4.270,0.020,0.979,-0.108,0.031,-0.671,1.160,66.667,561931.000,1.000
-6.500,-4.940,-7.032,0.779,-3.766,-5.867,-3.216,-0.856,0.020,0.978,-0.104,0.122,-0.763,1.129,66.667,561932.000,1.000
-5.297,-2.158,-4.585,2.490,-1.093,-1.532,0.353,1.325,0.021,0.979,-0.103,0.214,-0.885,1.160,66.667,561933.000,1.000
-4.973,-0.941,-3.203,2.952,-0.583,0.901,1.603,0.780,0.020,0.978,-0.101,0.397,-0.885,1.129,66.667,561934.000,1.000
-5.410,-1.779,-3.175,1.789,-2.830,-0.127,-1.069,-3.247,0.020,0.979,-0.102,0.427,-0.793,1.099,66.667,561935.000,1.000
-6.143,-4.331,-4.164,-0.548,-7.046,-4.507,-7.380,-9.610,0.022,0.978,-0.104,0.549,-0.793,1.099,66.667,561936.000,1.000
-6.522,-7.336,-5.304,-2.944,-11.391,-10.293,-14.742,-15.713,0.021,0.977,-0.106,0.702,-0.763,1.099,66.667,561937.000,1.000
-5.994,-9.109,-5.634,-4.271,-13.997,-14.789,-19.998,-19.433,0.023,0.977,-0.105,0.763,-0.763,1.068,66.667,561938.000,1.000
-4.334,-8.350,-4.492,-3.826,-13.657,-15.729,-20.749,-19.793,0.024,0.980,-0.108,0.916,-0.793,1.099,66.667,561939.000,1.000
-1.792,-4.866,-1.797,-1.471,-10.119,-12.108,-16.003,-16.583,0.023,0.982,-0.107,0.977,-0.824,1.129,66.667,561940.000,1.000
0.868,0.186,1.717,2.150,-4.453,-4.850,-7.287,-10.765,0.023,0.983,-0.104,1.068,-0.885,1.038,66.667,561941.000,1.000
2.646,4.830,4.724,5.696,1.162,3.344,1.444,-4.586,0.022,0.983,-0.101,0.916,-0.854,1.129,66.667,561942.000,1.000
3.014,7.435,6.161,7.894,4.681,9.481,6.494,-0.192,0.022,0.985,-0.103,0.793,-0.885,1.160,66.667,561943.000,1.000
2.455,7.697,6.049,8.408,5.469,12.041,6.993,1.747,0.022,0.985,-0.104,0.793,-0.885,1.160,66.667,561944.000,1.000
2.172,6.641,5.402,7.944,4.400,11.510,4.600,2.003,0.022,0.985,-0.105,0.763,-0.946,1.190,66.667,561945.000,1.000
3.110,5.634,5.293,7.502,2.899,9.398,1.408,1.723,0.019,0.984,-0.102,0.671,-0.885,1.190,66.667,561946.000,1.000
5.299,5.427,6.138,7.697,2.112,7.247,-1.007,1.780,0.020,0.986,-0.101,0.641,-0.885,1.221,66.667,561947.000,1.000
8.004,6.015,7.726,8.667,2.703,6.390,-1.126,2.961,0.021,0.987,-0.105,0.580,-0.885,1.129,66.667,561948.000,1.000
10.211,6.971,9.480,10.123,4.633,7.525,1.921,5.627,0.022,0.987,-0.103,0.519,-0.946,1.038,66.667,561949.000,1.000
11.105,7.721,10.682,11.363,6.980,10.112,6.795,8.861,0.023,0.985,-0.104,0.458,-0.916,1.099,66.667,561950.000,1.000
10.407,7.786,10.760,11.588,8.382,12.510,10.290,10.687,0.021,0.986,-0.102,0.366,-0.885,0.977,66.667,561951.000,1.000
8.481,7.031,9.628,10.396,7.937,13.078,9.951,9.564,0.020,0.985,-0.104,0.305,-0.977,1.007,66.667,561952.000,1.000
6.186,5.927,7.888,8.166,5.930,11.521,6.239,5.832,0.021,0.985,-0.104,0.214,-0.946,0.946,66.667,561953.000,1.000
4.465,5.405,6.539,5.915,3.717,9.167,2.064,1.684,0.021,0.984,-0.101,0.153,-1.038,0.977,66.667,561954.000,1.000
3.778,6.131,6.261,4.561,2.683,7.608,0.148,-0.552,0.018,0.985,-0.104,0.122,-0.977,0.916,66.667,561955.000,1.000
3.931,7.998,7.003,4.347,3.313,7.342,1.119,0.038,0.020,0.983,-0.104,0.061,-0.977,0.916,66.667,561956.000,1.000
4.427,10.344,8.264,5.017,5.256,8.039,4.153,3.049,0.021,0.981,-0.104,0.000,-1.068,0.977,66.667,561957.000,1.000
4.817,12.361,9.474,6.136,7.677,9.419,8.072,7.145,0.022,0.981,-0.104,0.092,-1.038,0.885,66.667,561958.000,1.000
4.767,13.300,10.098,7.161,9.455,11.333,11.400,10.185,0.021,0.981,-0.104,0.061,-1.129,0.977,66.667,561959.000,1.000
4.045,12.709,9.758,7.559,9.697,13.305,12.845,10.377,0.020,0.981,-0.107,0.061,-1.099,1.007,66.667,561960.000,1.000
2.590,10.688,8.396,7.035,8.289,14.446,12.222,7.444,0.022,0.980,-0.106,0.092,-1.129,0.946,66.667,561961.000,1.000
0.602,7.856,6.227,5.566,5.818,13.901,10.115,2.445,0.021,0.980,-0.106,0.092,-1.068,0.916,66.667,561962.000,1.000
-1.507,4.995,3.562,3.255,3.050,11.334,6.975,-2.879,0.021,0.978,-0.105,0.153,-1.068,0.946,66.667,561963.000,1.000
-3.293,2.665,0.727,0.172,0.491,7.144,3.095,-6.882,0.021,0.979,-0.108,0.275,-1.099,0.946,66.667,561964.000,1.000
-4.447,1.013,-1.990,-3.663,-1.831,2.353,-1.111,-9.030,0.022,0.980,-0.108,0.275,-1.099,0.977,66.667,561965.000,1.000
-4.848,-0.123,-4.427,-8.090,-4.250,-1.943,-5.213,-9.954,0.020,0.983,-0.106,0.244,-1.007,1.068,66.667,561966.000,1.000
-4.419,-0.782,-6.309,-12.428,-6.800,-4.893,-8.631,-10.091,0.020,0.985,-0.105,0.305,-1.007,1.068,66.667,561967.000,1.000
-2.969,-0.547,-6.904,-15.356,-8.713,-5.663,-10.432,-9.037,0.019,0.984,-0.105,0.214,-1.038,1.038,66.667,561968.000,1.000
-0.415,1.042,-5.447,-15.664,-8.953,-3.677,-9.894,-6.552,0.019,0.984,-0.104,0.214,-1.038,0.946,66.667,561969.000,1.000
2.808,3.727,-2.076,-13.255,-7.227,0.504,-6.977,-3.160,0.020,0.981,-0.101,0.244,-1.129,0.885,66.667,561970.000,1.000
5.778,6.480,1.970,-9.309,-4.291,5.105,-2.232,0.207,0.018,0.982,-0.103,0.122,-1.068,0.916,66.667,561971.000,1.000
7.616,8.197,5.138,-5.542,-1.474,8.178,2.967,2.343,0.017,0.981,-0.104,0.061,-1.038,0.732,66.667,561972.000,1.000
7.876,8.224,6.384,-3.342,-0.022,8.472,6.381,2.100,0.019,0.980,-0.105,0.153,-1.099,0.732,66.667,561973.000,1.000
6.585,6.471,5.484,-3.202,-0.495,5.834,6.369,-0.545,0.019,0.980,-0.106,0.275,-1.190,0.702,66.667,561974.000,1.000
4.200,3.514,3.093,-4.527,-2.413,1.479,3.560,-3.927,0.020,0.982,-0.102,0.244,-1.221,0.732,66.667,561975.000,1.000
1.453,0.437,0.407,-6.087,-4.665,-2.540,0.140,-5.972,0.022,0.980,-0.102,0.092,-1.099,0.854,66.667,561976.000,1.000
-1.049,-1.878,-1.625,-6.943,-6.413,-4.652,-2.356,-6.091,0.023,0.977,-0.103,0.153,-1.129,0.702,66.667,561977.000,1.000
-3.070,-3.212,-2.800,-6.933,-7.455,-4.681,-3.770,-5.188,0.024,0.976,-0.102,0.366,-1.129,0.763,66.667,561978.000,1.000
-4.530,-3.792,-3.391,-6.387,-7.856,-3.721,-4.413,-4.264,0.023,0.974,-0.103,0.427,-1.099,0.763,66.667,561979.000,1.000
-5.163,-3.812,-3.545,-5.541,-7.527,-2.986,-4.179,-3.599,0.023,0.973,-0.105,0.519,-0.946,0.732,66.667,561980.000,1.000
-4.587,-3.170,-3.025,-4.257,-6.202,-2.718,-2.528,-2.695,0.023,0.973,-0.102,0.427,-0.885,0.702,66.667,561981.000,1.000
-2.776,-1.714,-1.586,-2.305,-3.848,-2.455,0.640,-0.784,0.022,0.974,-0.101,0.610,-0.732,0.702,66.667,561982.000,1.000
-0.325,0.356,0.571,0.187,-0.955,-1.962,4.362,2.306,0.021,0.977,-0.104,0.641,-0.702,0.702,66.667,561983.000,1.000
1.805,2.480,2.771,2.655,1.653,-1.482,7.101,5.672,0.023,0.979,-0.104,0.732,-0.824,0.854,66.667,561984.000,1.000
2.683,4.065,4.154,4.296,3.206,-1.325,7.759,7.706,0.022,0.983,-0.106,0.732,-0.824,0.946,66.667,561985.000,1.000
1.786,4.774,4.104,4.466,3.347,-1.408,6.433,7.149,0.021,0.982,-0.107,0.641,-0.732,1.068,66.667,561986.000,1.000
-0.689,4.630,2.652,3.151,2.383,-1.252,4.429,4.173,0.021,0.985,-0.108,0.549,-0.671,1.251,66.667,561987.000,1.000
-3.897,3.841,0.420,1.057,1.098,-0.498,3.330,0.426,0.021,0.986,-0.106,0.519,-0.641,1.251,66.667,561988.000,1.000
-6.819,2.612,-1.808,-0.787,0.234,0.672,3.758,-2.051,0.020,0.987,-0.106,0.427,-0.641,1.160,66.667,561989.000,1.000
-8.697,1.180,-3.442,-1.588,0.024,1.641,4.717,-2.346,0.019,0.990,-0.107,0.488,-0.671,1.251,66.667,561990.000,1.000
-9.273,-0.221,-4.321,-1.284,-0.013,1.613,4.124,-1.600,0.016,0.992,-0.105,0.366,-0.641,1.282,66.667,561991.000,1.000
-8.755,-1.425,-4.667,-0.473,-0.561,0.050,0.812,-1.762,0.016,0.994,-0.106,0.244,-0.702,1.129,66.667,561992.000,1.000
-7.482,-2.129,-4.616,0.351,-1.541,-2.652,-3.767,-3.200,0.011,0.995,-0.106,0.061,-0.824,1.099,66.667,561993.000,1.000
-5.609,-1.856,-3.931,1.246,-2.067,-5.197,-6.832,-4.683,0.014,0.996,-0.105,-0.153,-1.038,1.129,66.667,561994.000,1.000
-3.165,-0.384,-2.369,2.468,-1.467,-6.292,-7.055,-5.259,0.014,0.997,-0.105,-0.336,-1.099,1.129,66.667,561995.000,1.000
-0.365,1.854,-0.176,4.034,0.113,-5.374,-5.007,-4.641,0.016,0.996,-0.103,-0.488,-1.282,1.129,66.667,561996.000,1.000
2.169,3.748,1.812,5.577,1.838,-3.088,-2.033,-2.775,0.018,0.997,-0.103,-0.702,-1.312,0.977,66.667,561997.000,1.000
3.680,4.075,2.617,6.478,2.627,-1.256,0.255,-0.356,0.021,0.996,-0.105,-0.885,-1.434,1.038,66.667,561998.000,1.000
3.956,2.534,1.986,6.459,2.001,-1.532,0.750,1.340,0.021,0.993,-0.101,-1.099,-1.434,1.038,66.667,561999.000,1.000
3.590,0.156,0.782,6.011,0.648,-3.874,-0.274,1.730,0.023,0.992,-0.102,-1.160,-1.404,0.977,66.667,562000.000,1.000
3.555,-1.362,0.416,6.044,-0.034,-6.516,-1.540,1.346,0.023,0.990,-0.102,-1.251,-1.404,1.038,66.667,562001.000,1.000
4.666,-0.694,1.949,7.276,1.185,-7.122,-1.496,1.374,0.024,0.986,-0.100,-1.343,-1.343,1.160,66.667,562002.000,1.000
7.135,2.373,5.426,9.799,4.612,-4.210,1.045,2.939,0.025,0.984,-0.102,-1.312,-1.251,1.160,66.667,562003.000,1.000
10.326,6.771,9.770,12.921,9.255,1.751,5.871,6.222,0.023,0.983,-0.100,-1.282,-1.160,1.129,66.667,562004.000,1.000
13.058,10.754,13.425,15.548,13.381,8.371,11.353,10.356,0.021,0.980,-0.100,-1.190,-1.160,1.251,66.667,562005.000,1.000
14.357,12.891,15.297,16.901,15.672,12.783,15.718,14.140,0.023,0.979,-0.098,-1.038,-1.160,1.251,66.667,562006.000,1.000
14.065,12.834,15.323,16.935,15.953,13.446,17.877,16.694,0.021,0.976,-0.103,-0.916,-1.129,1.190,66.667,562007.000,1.000
12.782,11.244,14.235,16.089,14.901,10.686,17.458,17.730,0.021,0.975,-0.103,-0.702,-1.190,1.221,66.667,562008.000,1.000
11.236,9.018,12.745,14.640,13.175,5.922,14.665,17.016,0.020,0.974,-0.099,-0.427,-1.160,1.160,66.667,562009.000,1.000
9.871,6.804,11.153,12.519,10.994,0.879,10.123,13.792,0.019,0.974,-0.097,-0.214,-1.160,1.160,66.667,562010.000,1.000
9.078,5.221,9.778,9.904,8.678,-2.617,5.082,7.841,0.019,0.975,-0.098,0.000,-1.190,0.885,66.667,562011.000,1.000
9.390,4.930,9.240,7.618,7.103,-2.943,1.586,0.812,0.020,0.974,-0.099,0.153,-1.190,0.946,66.667,562012.000,1.000
11.004,6.110,9.859,6.579,7.071,0.359,1.403,-4.601,0.019,0.976,-0.100,0.244,-1.251,0.916,66.667,562013.000,1.000
13.283,8.022,11.069,6.978,8.427,5.721,4.566,-6.478,0.019,0.977,-0.100,0.519,-1.221,0.854,66.667,562014.000,1.000
15.041,9.376,11.763,8.198,10.116,10.158,9.188,-4.459,0.021,0.977,-0.098,0.641,-1.282,0.610,66.667,562015.000,1.000
15.302,9.206,11.128,9.293,10.961,11.282,12.522,0.205,0.020,0.976,-0.100,0.793,-1.343,0.580,66.667,562016.000,1.000
13.821,7.466,9.122,9.494,10.388,8.952,12.597,5.051,0.022,0.976,-0.100,0.916,-1.251,0.580,66.667,562017.000,1.000
11.128,4.967,6.409,8.565,8.719,5.179,9.445,7.614,0.022,0.977,-0.101,1.038,-1.251,0.580,66.667,562018.000,1.000
8.265,2.908,4.018,6.972,6.997,2.598,5.036,6.970,0.022,0.977,-0.103,1.221,-1.251,0.549,66.667,562019.000,1.000
6.378,2.385,2.958,5.740,6.499,2.819,2.157,4.533,0.024,0.976,-0.102,1.312,-1.282,0.519,66.667,562020.000,1.000
6.091,3.777,3.642,5.744,7.890,5.523,2.649,2.953,0.021,0.977,-0.101,1.404,-1.190,0.519,66.667,562021.000,1.000
6.952,6.182,5.381,6.851,10.400,8.636,5.837,3.670,0.020,0.978,-0.104,1.526,-1.251,0.488,66.667,562022.000,1.000
7.665,7.814,6.679,7.893,12.063,9.584,8.777,5.561,0.018,0.978,-0.106,1.587,-1.068,0.519,66.667,562023.000,1.000
7.145,7.396,6.363,7.668,11.215,7.104,8.715,6.269,0.018,0.977,-0.105,1.587,-1.190,0.488,66.667,562024.000,1.000
5.338,5.085,4.482,5.952,7.872,2.236,5.533,4.596,0.018,0.978,-0.107,1.617,-1.099,0.610,66.667,562025.000,1.000
3.062,2.068,2.100,3.541,3.619,-2.667,1.569,1.292,0.020,0.978,-0.104,1.617,-1.068,0.519,66.667,562026.000,1.000
1.328,-0.278,0.517,1.655,0.533,-5.608,-0.372,-1.680,0.019,0.981,-0.105,1.648,-1.068,0.549,66.667,562027.000,1.000
0.787,-0.926,0.617,1.274,0.132,-5.638,1.313,-2.324,0.020,0.983,-0.108,1.556,-1.129,0.641,66.667,562028.000,1.000
1.369,0.212,2.351,2.426,2.404,-3.199,5.760,-0.130,0.021,0.984,-0.107,1.526,-1.099,0.580,66.667,562029.000,1.000
2.293,2.035,4.656,4.005,5.669,-0.177,9.959,3.377,0.017,0.984,-0.104,1.556,-1.068,0.763,66.667,562030.000,1.000
2.675,3.106,6.216,4.679,7.940,1.471,11.624,6.272,0.019,0.985,-0.105,1.373,-1.099,0.824,66.667,562031.000,1.000
2.272,2.792,6.416,3.943,8.418,1.171,11.075,7.952,0.021,0.989,-0.105,1.251,-1.160,0.946,66.667,562032.000,1.000
1.629,1.435,5.580,2.257,7.559,-0.521,9.708,8.796,0.019,0.990,-0.103,1.099,-1.129,1.038,66.667,562033.000,1.000
1.635,-0.152,4.622,0.573,6.353,-2.636,8.333,9.094,0.019,0.989,-0.109,0.824,-1.129,1.038,66.667,562034.000,1.000
2.937,-1.127,4.551,-0.192,5.807,-3.986,7.471,8.886,0.017,0.990,-0.108,0.641,-1.129,1.251,66.667,562035.000,1.000
5.540,-0.925,5.981,0.389,6.553,-3.658,7.657,8.311,0.020,0.990,-0.107,0.549,-1.038,1.251,66.667,562036.000,1.000
8.768,0.494,8.740,2.040,8.468,-1.708,8.701,7.479,0.018,0.990,-0.106,0.366,-1.068,1.160,66.667,562037.000,1.000
11.528,2.551,11.787,3.841,10.561,0.818,9.081,6.013,0.016,0.990,-0.106,0.153,-1.068,1.129,66.667,562038.000,1.000
12.824,4.299,13.712,4.682,11.512,2.533,6.782,3.269,0.017,0.990,-0.107,-0.031,-1.099,1.251,66.667,562039.000,1.000
12.291,4.971,13.600,3.945,10.605,2.474,1.262,-0.662,0.018,0.989,-0.107,-0.275,-1.190,1.373,66.667,562040.000,1.000
10.379,4.401,11.548,1.869,8.146,0.573,-5.698,-4.575,0.017,0.989,-0.107,-0.305,-1.221,1.282,66.667,562041.000,1.000
8.071,2.994,8.494,-0.728,4.981,-2.465,-11.526,-7.177,0.014,0.987,-0.105,-0.397,-1.251,1.190,66.667,562042.000,1.000
6.317,1.299,5.564,-3.042,1.837,-5.796,-14.779,-8.065,0.016,0.985,-0.104,-0.427,-1.282,1.160,66.667,562043.000,1.000
5.570,-0.306,3.493,-4.556,-0.725,-8.680,-15.199,-7.274,0.018,0.983,-0.104,-0.519,-1.282,1.129,66.667,562044.000,1.000
5.651,-1.564,2.440,-5.057,-2.164,-10.346,-12.965,-4.689,0.020,0.980,-0.106,-0.580,-1.343,1.038,66.667,562045.000,1.000
5.989,-2.241,2.125,-4.614,-2.225,-10.233,-8.795,-0.609,0.022,0.979,-0.107,-0.549,-1.251,1.129,66.667,562046.000,1.000
6.153,-2.138,2.263,-3.403,-1.085,-8.376,-3.976,3.986,0.022,0.979,-0.106,-0.519,-1.373,1.221,66.667,562047.000,1.000
6.116,-1.227,2.803,-1.579,0.853,-5.370,0.507,8.190,0.023,0.981,-0.108,-0.519,-1.129,1.160,66.667,562048.000,1.000
5.975,0.186,3.691,0.532,3.048,-2.090,4.291,11.465,0.024,0.981,-0.108,-0.488,-1.038,1.221,66.667,562049.000,1.000
5.635,1.474,4.560,2.266,4.766,0.485,6.868,13.217,0.023,0.981,-0.110,-0.458,-1.038,1.221,66.667,562050.000,1.000
4.923,1.964,4.843,2.937,5.290,1.436,7.310,12.817,0.024,0.980,-0.109,-0.458,-0.977,1.312,66.667,562051.000,1.000
3.954,1.397,4.289,2.375,4.423,0.479,5.159,10.065,0.026,0.978,-0.110,-0.427,-0.946,1.343,66.667,562052.000,1.000
3.034,0.128,3.177,1.010,2.647,-1.731,1.000,5.425,0.027,0.977,-0.108,-0.427,-0.702,1.404,66.667,562053.000,1.000
2.166,-1.195,1.960,-0.545,0.761,-4.140,-3.769,0.206,0.026,0.975,-0.106,-0.275,-0.549,1.404,66.667,562054.000,1.000
1.059,-1.981,0.943,-1.762,-0.469,-5.805,-7.230,-3.518,0.024,0.977,-0.103,-0.153,-0.580,1.465,66.667,562055.000,1.000
-0.478,-1.963,0.175,-2.345,-0.672,-6.089,-7.908,-4.181,0.020,0.980,-0.103,-0.092,-0.458,1.404,66.667,562056.000,1.000
-2.420,-1.438,-0.581,-2.383,-0.123,-5.000,-5.935,-2.046,0.016,0.981,-0.103,-0.122,-0.458,1.312,66.667,562057.000,1.000
-4.578,-0.987,-1.567,-2.190,0.613,-3.171,-2.587,1.229,0.012,0.980,-0.105,-0.122,-0.397,1.190,66.667,562058.000,1.000
-6.528,-0.888,-2.705,-2.015,1.162,-1.309,0.817,3.754,0.012,0.979,-0.103,-0.061,-0.549,0.977,66.667,562059.000,1.000
-7.710,-1.003,-3.668,-1.958,1.361,0.160,3.050,4.217,0.013,0.979,-0.103,-0.092,-0.549,0.854,66.667,562060.000,1.000
-7.806,-1.124,-4.219,-2.037,1.128,1.051,3.084,2.401,0.016,0.980,-0.105,-0.153,-0.793,0.580,66.667,562061.000,1.000
-7.047,-1.319,-4.470,-2.349,0.376,1.111,0.531,-1.031,0.015,0.979,-0.105,-0.153,-0.916,0.519,66.667,562062.000,1.000
-6.092,-1.870,-4.835,-3.099,-1.009,-0.140,-4.256,-5.111,0.016,0.981,-0.104,-0.122,-0.977,0.458,66.667,562063.000,1.000
-5.466,-2.835,-5.600,-4.288,-2.882,-2.793,-10.125,-8.759,0.017,0.983,-0.107,-0.031,-1.007,0.488,66.667,562064.000,1.000
-5.127,-3.767,-6.517,-5.451,-4.542,-5.669,-14.900,-10.858,0.017,0.985,-0.105,-0.122,-1.038,0.488,66.667,562065.000,1.000
-4.743,-4.077,-7.025,-5.965,-5.047,-6.693,-15.915,-10.598,0.018,0.984,-0.106,-0.122,-1.038,0.519,66.667,562066.000,1.000
-4.283,-3.663,-6.856,-5.664,-4.038,-4.737,-11.980,-8.050,0.018,0.985,-0.105,-0.153,-0.946,0.641,66.667,562067.000,1.000
-4.090,-2.996,-6.280,-5.007,-2.197,-0.947,-5.201,-4.452,0.017,0.985,-0.106,-0.183,-1.038,0.671,66.667,562068.000,1.000
-4.394,-2.605,-5.721,-4.570,-0.678,2.222,0.336,-1.396,0.021,0.984,-0.105,-0.397,-0.916,0.854,66.667,562069.000,1.000
-4.978,-2.615,-5.324,-4.551,-0.189,3.133,2.082,0.314,0.020,0.985,-0.106,-0.458,-0.946,1.007,66.667,562070.000,1.000
-5.365,-2.790,-5.012,-4.885,-0.827,1.707,0.283,0.565,0.020,0.987,-0.105,-0.488,-1.007,1.099,66.667,562071.000,1.000
-5.153,-2.808,-4.667,-5.419,-2.306,-1.222,-3.435,-0.513,0.021,0.986,-0.106,-0.458,-1.068,1.160,66.667,562072.000,1.000
-4.142,-2.436,-4.074,-5.756,-3.835,-4.305,-7.021,-2.086,0.021,0.989,-0.107,-0.488,-1.007,1.343,66.667,562073.000,1.000
-2.401,-1.665,-3.043,-5.399,-4.365,-6.005,-8.597,-2.915,0.021,0.987,-0.104,-0.458,-1.038,1.465,66.667,562074.000,1.000
-0.227,-0.713,-1.651,-4.226,-3.486,-5.599,-7.747,-2.696,0.020,0.987,-0.103,-0.458,-0.977,1.526,66.667,562075.000,1.000
1.971,0.203,-0.212,-2.566,-1.733,-3.687,-5.448,-2.054,0.020,0.989,-0.104,-0.488,-0.977,1.709,66.667,562076.000,1.000
3.723,0.994,0.926,-0.906,0.080,-1.273,-2.299,-1.331,0.018,0.989,-0.104,-0.488,-0.946,1.740,66.667,562077.000,1.000
4.692,1.690,1.626,0.372,1.536,1.305,1.888,-0.337,0.018,0.988,-0.102,-0.671,-0.946,1.770,66.667,562078.000,1.000
4.986,2.494,2.133,1.174,2.650,4.307,6.533,0.953,0.018,0.988,-0.101,-0.702,-1.007,1.709,66.667,562079.000,1.000
4.980,3.655,2.822,1.624,3.479,7.728,9.859,2.275,0.020,0.985,-0.102,-0.702,-0.977,1.801,66.667,562080.000,1.000
4.799,5.144,3.706,1.809,3.830,10.753,10.414,3.518,0.021,0.985,-0.104,-0.702,-0.977,1.709,66.667,562081.000,1.000
4.191,6.503,4.261,1.575,3.263,12.070,7.862,4.295,0.022,0.983,-0.102,-0.763,-0.885,1.709,66.667,562082.000,1.000
2.896,7.085,3.827,0.641,1.449,10.803,2.711,3.507,0.021,0.980,-0.105,-0.702,-0.793,1.648,66.667,562083.000,1.000
0.989,6.468,2.188,-0.982,-1.294,7.257,-3.436,0.699,0.022,0.980,-0.106,-0.671,-0.824,1.678,66.667,562084.000,1.000
-1.255,4.628,-0.354,-2.876,-4.115,2.598,-8.387,-2.969,0.022,0.980,-0.105,-0.671,-0.824,1.526,66.667,562085.000,1.000
-3.612,1.802,-3.359,-4.602,-6.393,-2.128,-11.180,-6.119,0.024,0.978,-0.106,-0.610,-0.671,1.495,66.667,562086.000,1.000
-5.705,-1.462,-6.266,-5.808,-7.905,-6.119,-12.297,-8.175,0.023,0.979,-0.105,-0.427,-0.702,1.312,66.667,562087.000,1.000
-6.755,-4.147,-8.167,-5.996,-8.327,-8.299,-11.980,-8.655,0.025,0.978,-0.103,-0.305,-0.610,1.343,66.667,562088.000,1.000
-6.149,-5.288,-8.270,-4.851,-7.368,-7.755,-9.940,-7.250,0.023,0.977,-0.101,-0.244,-0.549,1.251,66.667,562089.000,1.000
-4.205,-4.732,-6.608,-2.774,-5.324,-4.848,-6.586,-4.685,0.023,0.978,-0.100,-0.092,-0.458,1.129,66.667,562090.000,1.000
-1.932,-3.003,-3.873,-0.582,-2.853,-1.123,-3.095,-2.277,0.023,0.979,-0.100,-0.061,-0.336,1.007,66.667,562091.000,1.000
-0.101,-0.602,-0.702,1.217,-0.268,2.112,-0.152,-0.747,0.021,0.978,-0.102,-0.031,-0.366,0.916,66.667,562092.000,1.000
1.124,2.138,2.495,2.559,2.462,4.557,2.388,0.072,0.021,0.977,-0.101,0.092,-0.427,1.007,66.667,562093.000,1.000
1.834,4.731,5.224,3.474,5.116,6.262,4.539,0.716,0.022,0.980,-0.102,0.214,-0.397,0.824,66.667,562094.000,1.000
2.203,6.698,7.053,4.019,7.233,7.312,5.944,1.533,0.020,0.980,-0.104,0.214,-0.458,0.885,66.667,562095.000,1.000
2.578,8.001,8.031,4.374,8.628,8.085,6.397,2.418,0.020,0.980,-0.104,0.366,-0.366,0.793,66.667,562096.000,1.000
3.209,8.855,8.481,4.663,9.409,8.801,5.941,3.131,0.018,0.980,-0.103,0.427,-0.488,0.702,66.667,562097.000,1.000
3.802,9.233,8.474,4.749,9.622,9.106,4.889,3.770,0.018,0.981,-0.102,0.458,-0.549,0.549,66.667,562098.000,1.000
3.620,8.855,7.759,4.288,9.101,8.614,3.767,4.298,0.019,0.981,-0.102,0.397,-0.519,0.610,66.667,562099.000,1.000
2.132,7.594,6.186,3.042,7.750,7.582,3.116,4.138,0.017,0.981,-0.102,0.458,-0.732,0.641,66.667,562100.000,1.000
-0.427,5.759,4.060,1.211,5.921,6.838,3.352,3.035,0.016,0.983,-0.102,0.427,-0.732,0.732,66.667,562101.000,1.000
-3.199,3.845,1.947,-0.714,4.117,6.873,4.137,1.471,0.014,0.983,-0.101,0.397,-0.793,0.702,66.667,562102.000,1.000
-5.338,2.119,0.231,-2.407,2.469,7.172,4.311,-0.066,0.014,0.984,-0.102,0.397,-0.885,0.793,66.667,562103.000,1.000
-6.461,0.625,-1.002,-3.792,0.943,6.812,3.377,-1.285,0.012,0.982,-0.101,0.488,-1.068,0.793,66.667,562104.000,1.000
-6.737,-0.623,-1.874,-4.871,-0.271,5.521,2.097,-1.852,0.013,0.981,-0.101,0.275,-1.221,0.732,66.667,562105.000,1.000
-6.757,-1.614,-2.697,-5.743,-1.053,3.806,0.998,-1.911,0.014,0.981,-0.099,0.305,-1.312,0.824,66.667,562106.000,1.000
-7.188,-2.381,-3.858,-6.645,-1.682,2.366,-0.271,-2.280,0.015,0.981,-0.098,0.427,-1.373,0.824,66.667,562107.000,1.000
-8.351,-2.919,-5.483,-7.678,-2.489,1.723,-1.642,-3.329,0.013,0.981,-0.097,0.366,-1.495,0.916,66.667,562108.000,1.000
-9.921,-3.037,-7.154,-8.507,-3.307,2.136,-2.187,-4.115,0.014,0.981,-0.102,0.366,-1.617,0.885,66.667,562109.000,1.000
-11.122,-2.555,-8.178,-8.573,-3.594,3.435,-1.371,-3.197,0.013,0.983,-0.103,0.244,-1.709,1.007,66.667,562110.000,1.000
-11.410,-1.788,-8.286,-7.726,-3.122,4.964,0.241,-0.144,0.015,0.983,-0.102,0.214,-1.648,1.129,66.667,562111.000,1.000
-10.954,-1.524,-7.935,-6.522,-2.379,6.010,1.515,3.781,0.017,0.984,-0.103,0.305,-1.740,1.099,66.667,562112.000,1.000
-10.491,-2.425,-7.940,-5.906,-2.312,6.177,1.411,6.274,0.017,0.983,-0.105,0.244,-1.923,1.038,66.667,562113.000,1.000
-10.812,-4.554,-8.869,-6.545,-3.605,5.258,-0.252,5.763,0.015,0.984,-0.103,0.275,-1.923,1.190,66.667,562114.000,1.000
-12.146,-7.315,-10.588,-8.270,-6.008,3.356,-2.213,2.841,0.017,0.985,-0.103,0.214,-2.106,1.221,66.667,562115.000,1.000
-13.880,-9.712,-12.293,-10.125,-8.467,1.171,-2.780,-0.417,0.018,0.985,-0.103,0.214,-2.014,1.221,66.667,562116.000,1.000
-15.037,-10.962,-13.153,-11.138,-10.075,-0.537,-1.917,-2.554,0.018,0.985,-0.100,0.122,-2.014,1.221,66.667,562117.000,1.000
-15.075,-11.009,-13.032,-11.085,-10.821,-1.728,-1.505,-3.761,0.019,0.984,-0.103,0.031,-2.106,1.282,66.667,562118.000,1.000
-14.167,-10.469,-12.521,-10.494,-11.363,-2.811,-3.142,-4.898,0.020,0.983,-0.104,0.000,-2.075,1.251,66.667,562119.000,1.000
-12.816,-10.109,-12.331,-10.084,-12.306,-4.009,-6.666,-6.431,0.021,0.982,-0.105,-0.153,-2.045,1.434,66.667,562120.000,1.000
-11.378,-10.265,-12.655,-10.190,-13.699,-5.263,-10.848,-8.429,0.020,0.983,-0.103,-0.061,-2.075,1.434,66.667,562121.000,1.000
-9.985,-10.625,-13.022,-10.515,-14.854,-6.210,-13.946,-10.368,0.020,0.984,-0.098,-0.092,-2.106,1.556,66.667,562122.000,1.000
-8.731,-10.538,-12.730,-10.365,-14.769,-6.270,-13.923,-10.938,0.022,0.984,-0.101,-0.092,-2.075,1.678,66.667,562123.000,1.000
-7.768,-9.689,-11.568,-9.362,-13.187,-5.379,-10.215,-9.429,0.021,0.984,-0.101,-0.122,-1.892,1.556,66.667,562124.000,1.000
-7.247,-8.515,-10.182,-7.958,-11.130,-4.425,-5.093,-7.157,0.022,0.983,-0.104,-0.122,-1.862,1.617,66.667,562125.000,1.000
-7.330,-7.912,-9.624,-7.097,-10.087,-4.515,-2.008,-6.376,0.024,0.982,-0.104,-0.244,-1.740,1.648,66.667,562126.000,1.000
-8.231,-8.622,-10.590,-7.450,-10.908,-6.118,-3.010,-8.130,0.023,0.982,-0.105,-0.214,-1.709,1.678,66.667,562127.000,1.000
-10.094,-10.815,-13.018,-9.075,-13.470,-8.957,-7.900,-11.781,0.023,0.982,-0.104,-0.275,-1.556,1.709,66.667,562128.000,1.000
-12.687,-13.953,-16.127,-11.455,-16.909,-12.315,-14.716,-15.873,0.023,0.982,-0.104,-0.275,-1.404,1.648,66.667,562129.000,1.000
-15.271,-16.952,-18.717,-13.667,-19.953,-15.355,-20.624,-18.777,0.025,0.983,-0.103,-0.153,-1.343,1.648,66.667,562130.000,1.000
-16.926,-18.630,-19.695,-14.695,-21.327,-17.176,-22.822,-18.911,0.023,0.982,-0.102,-0.183,-1.251,1.617,66.667,562131.000,1.000
-17.088,-18.254,-18.610,-13.928,-20.252,-16.917,-19.601,-15.286,0.023,0.982,-0.101,-0.122,-1.129,1.617,66.667,562132.000,1.000
-15.818,-15.906,-15.892,-11.591,-16.953,-14.339,-11.741,-8.800,0.026,0.981,-0.103,-0.183,-1.007,1.465,66.667,562133.000,1.000
-13.738,-12.467,-12.648,-8.728,-12.693,-10.194,-2.783,-2.618,0.026,0.981,-0.101,-0.153,-0.793,1.556,66.667,562134.000,1.000
-11.786,-9.237,-10.125,-6.586,-9.078,-5.857,3.216,0.032,0.027,0.982,-0.105,-0.214,-0.610,1.495,66.667,562135.000,1.000
-10.788,-7.304,-9.116,-5.821,-7.132,-2.519,4.555,-1.505,0.028,0.982,-0.104,-0.214,-0.610,1.556,66.667,562136.000,1.000
-11.012,-7.005,-9.655,-6.259,-6.930,-0.633,2.294,-5.329,0.026,0.981,-0.102,-0.183,-0.397,1.495,66.667,562137.000,1.000
-12.106,-7.926,-11.182,-7.310,-7.924,-0.106,-1.534,-9.052,0.025,0.982,-0.103,-0.092,-0.305,1.373,66.667,562138.000,1.000
-13.358,-9.233,-12.849,-8.360,-9.289,-0.588,-5.055,-11.088,0.027,0.983,-0.104,-0.092,-0.275,1.312,66.667,562139.000,1.000
-14.112,-10.096,-13.868,-8.965,-10.195,-1.508,-6.786,-10.845,0.025,0.984,-0.101,-0.183,-0.122,1.312,66.667,562140.000,1.000
-14.179,-10.210,-13.935,-9.075,-10.300,-2.423,-6.284,-8.943,0.024,0.984,-0.100,-0.061,0.031,1.312,66.667,562141.000,1.000
-13.802,-9.814,-13.248,-8.913,-9.774,-3.115,-4.222,-6.802,0.022,0.986,-0.100,-0.031,0.122,1.160,66.667,562142.000,1.000
-13.193,-9.131,-12.029,-8.461,-8.746,-3.109,-1.501,-5.267,0.021,0.987,-0.102,-0.061,0.183,1.160,66.667,562143.000,1.000
-12.332,-8.091,-10.332,-7.407,-7.162,-1.796,1.264,-3.963,0.021,0.986,-0.104,-0.122,0.244,1.038,66.667,562144.000,1.000
-11.196,-6.637,-8.322,-5.671,-5.181,0.840,3.719,-2.199,0.019,0.984,-0.100,-0.153,0.244,1.038,66.667,562145.000,1.000
-9.961,-4.957,-6.410,-3.729,-3.342,4.035,5.528,-0.195,0.020,0.986,-0.100,-0.122,0.153,1.099,66.667,562146.000,1.000
-8.901,-3.399,-5.015,-2.290,-2.244,6.740,6.122,0.936,0.019,0.983,-0.104,-0.122,0.153,1.129,66.667,562147.000,1.000
-8.193,-2.253,-4.263,-1.727,-2.063,8.167,5.309,0.527,0.018,0.984,-0.102,-0.122,0.244,1.099,66.667,562148.000,1.000
-7.814,-1.571,-3.915,-1.825,-2.395,8.208,4.003,-0.676,0.017,0.984,-0.103,-0.061,0.183,1.099,66.667,562149.000,1.000
-7.536,-1.182,-3.618,-2.061,-2.682,7.436,3.273,-1.343,0.015,0.985,-0.103,0.000,0.061,1.007,66.667,562150.000,1.000
-7.135,-0.960,-3.287,-2.157,-2.799,6.515,2.979,-1.008,0.015,0.984,-0.104,-0.061,0.000,1.038,66.667,562151.000,1.000
-6.639,-1.031,-3.224,-2.314,-3.052,5.552,2.356,-0.089,0.016,0.984,-0.103,-0.153,0.000,1.007,66.667,562152.000,1.000
-6.192,-1.507,-3.705,-2.830,-3.650,4.247,1.402,0.985,0.017,0.984,-0.100,-0.183,-0.061,1.068,66.667,562153.000,1.000
-5.734,-2.123,-4.572,-3.647,-4.456,2.572,0.750,1.856,0.017,0.982,-0.101,-0.122,-0.122,1.221,66.667,562154.000,1.000
-5.110,-2.440,-5.363,-4.402,-5.246,0.815,0.515,1.967,0.019,0.982,-0.098,0.031,-0.214,1.099,66.667,562155.000,1.000
-4.277,-2.285,-5.656,-4.681,-5.795,-0.749,0.282,1.140,0.017,0.982,-0.101,0.092,-0.397,1.190,66.667,562156.000,1.000
-3.176,-1.680,-5.121,-4.102,-5.678,-1.660,0.070,0.124,0.017,0.983,-0.101,0.092,-0.397,1.282,66.667,562157.000,1.000
-1.639,-0.613,-3.605,-2.479,-4.531,-1.308,0.286,-0.154,0.017,0.982,-0.101,0.153,-0.427,1.282,66.667,562158.000,1.000
0.447,0.913,-1.254,0.016,-2.413,0.606,1.396,0.849,0.017,0.982,-0.103,0.275,-0.458,1.373,66.667,562159.000,1.000
2.942,2.673,1.520,2.931,0.278,3.857,4.077,3.501,0.017,0.981,-0.102,0.305,-0.549,1.343,66.667,562160.000,1.000
5.362,4.043,4.022,5.511,2.683,7.343,8.010,7.054,0.018,0.980,-0.101,0.366,-0.641,1.343,66.667,562161.000,1.000
7.077,4.161,5.409,6.844,3.510,9.098,10.706,9.051,0.019,0.979,-0.103,0.458,-0.641,1.434,66.667,562162.000,1.000
7.764,2.621,5.205,6.494,1.964,7.578,9.278,7.310,0.019,0.979,-0.103,0.488,-0.671,1.434,66.667,562163.000,1.000
7.583,-0.092,3.645,4.839,-1.471,2.930,3.132,1.772,0.019,0.979,-0.102,0.519,-0.763,1.434,66.667,562164.000,1.000
6.938,-2.869,1.528,2.776,-5.309,-3.084,-5.515,-5.661,0.019,0.979,-0.103,0.580,-0.824,1.434,66.667,562165.000,1.000
6.224,-4.484,-0.144,1.291,-7.825,-7.910,-12.802,-11.945,0.019,0.980,-0.106,0.641,-0.824,1.434,66.667,562166.000,1.000
5.679,-4.157,-0.644,1.061,-7.819,-9.270,-15.006,-14.096,0.021,0.981,-0.105,0.824,-0.946,1.343,66.667,562167.000,1.000
5.147,-2.242,-0.107,1.989,-5.416,-6.705,-10.805,-11.067,0.021,0.983,-0.102,0.854,-0.946,1.312,66.667,562168.000,1.000
4.018,-0.391,0.342,3.055,-2.400,-2.594,-3.050,-5.116,0.021,0.984,-0.103,0.824,-0.946,1.312,66.667,562169.000,1.000
1.756,-0.457,-0.551,3.023,-1.135,-0.655,2.433,-0.645,0.023,0.984,-0.103,0.854,-0.946,1.343,66.667,562170.000,1.000
-1.360,-2.867,-2.922,1.597,-2.533,-2.705,1.588,-0.576,0.022,0.984,-0.104,0.885,-0.916,1.373,66.667,562171.000,1.000
-4.176,-6.119,-5.560,-0.273,-5.240,-7.108,-4.200,-3.887,0.022,0.983,-0.103,0.824,-0.946,1.404,66.667,562172.000,1.000
-5.463,-8.032,-7.008,-1.358,-7.044,-10.540,-10.068,-7.131,0.021,0.983,-0.103,0.946,-0.885,1.465,66.667,562173.000,1.000
-4.803,-7.412,-6.704,-1.195,-6.733,-10.752,-12.298,-7.649,0.024,0.985,-0.104,0.916,-0.916,1.373,66.667,562174.000,1.000
-2.757,-4.633,-5.086,-0.190,-4.561,-7.649,-10.148,-5.020,0.021,0.985,-0.104,0.763,-0.946,1.343,66.667,562175.000,1.000
-0.372,-1.003,-3.018,0.919,-1.680,-2.818,-5.136,-0.678,0.021,0.985,-0.106,0.641,-0.793,1.282,66.667,562176.000,1.000
1.491,2.131,-1.270,1.572,0.560,1.453,0.029,3.213,0.021,0.985,-0.104,0.702,-0.793,1.221,66.667,562177.000,1.000
2.552,4.004,-0.199,1.700,1.342,3.575,3.150,5.275,0.022,0.987,-0.104,0.580,-0.793,1.190,66.667,562178.000,1.000
3.049,4.679,0.370,1.702,0.802,3.659,3.937,5.577,0.021,0.987,-0.104,0.580,-0.824,1.068,66.667,562179.000,1.000
3.327,4.701,0.838,1.934,-0.374,2.732,3.227,4.700,0.021,0.988,-0.103,0.519,-0.885,1.099,66.667,562180.000,1.000
3.539,4.533,1.465,2.367,-1.509,1.396,1.822,3.084,0.021,0.988,-0.103,0.427,-0.916,1.099,66.667,562181.000,1.000
3.787,4.480,2.484,2.944,-1.900,0.005,0.674,1.752,0.021,0.988,-0.102,0.275,-0.885,1.099,66.667,562182.000,1.000
4.288,4.858,4.218,3.916,-0.897,-0.693,0.922,2.318,0.020,0.986,-0.102,0.183,-0.916,1.129,66.667,562183.000,1.000
5.236,5.979,6.853,5.613,1.729,0.250,3.402,5.557,0.020,0.988,-0.104,0.122,-0.854,1.129,66.667,562184.000,1.000
6.726,8.136,10.328,8.126,5.661,3.370,8.103,10.350,0.022,0.984,-0.101,-0.061,-0.702,1.251,66.667,562185.000,1.000
8.672,11.325,14.264,11.114,9.979,7.967,13.291,14.075,0.021,0.984,-0.102,-0.061,-0.763,1.190,66.667,562186.000,1.000
10.495,14.702,17.767,13.720,13.185,11.804,15.884,14.236,0.020,0.982,-0.103,-0.122,-0.671,1.221,66.667,562187.000,1.000
11.212,16.784,19.658,14.925,13.945,12.551,13.866,10.274,0.020,0.981,-0.103,-0.183,-0.793,1.282,66.667,562188.000,1.000
10.183,16.590,19.298,14.290,12.170,9.745,8.295,4.204,0.021,0.979,-0.103,-0.183,-0.732,1.343,66.667,562189.000,1.000
7.662,14.400,17.138,12.368,9.272,5.065,2.963,-0.254,0.021,0.974,-0.101,-0.061,-0.641,1.282,66.667,562190.000,1.000
4.612,11.465,14.399,10.300,7.154,1.024,1.550,-0.014,0.022,0.974,-0.102,0.000,-0.702,1.282,66.667,562191.000,1.000
2.167,9.103,12.263,8.928,6.725,-0.729,4.069,4.624,0.022,0.974,-0.101,0.092,-0.702,1.373,66.667,562192.000,1.000
1.218,8.044,11.357,8.366,7.438,-0.329,6.828,9.962,0.023,0.975,-0.105,0.183,-0.732,1.404,66.667,562193.000,1.000
2.251,8.473,11.868,8.436,8.432,1.117,6.620,12.497,0.023,0.979,-0.103,0.214,-0.702,1.282,66.667,562194.000,1.000
5.195,10.213,13.710,9.085,9.555,2.942,3.738,11.853,0.022,0.979,-0.106,0.488,-0.641,1.343,66.667,562195.000,1.000
9.212,12.564,16.284,10.145,10.975,4.988,0.808,10.038,0.024,0.982,-0.103,0.549,-0.610,1.373,66.667,562196.000,1.000
12.982,14.454,18.527,11.173,12.533,7.034,0.330,9.129,0.021,0.982,-0.101,0.610,-0.549,1.373,66.667,562197.000,1.000
15.447,15.084,19.592,11.820,13.862,8.861,3.231,9.944,0.021,0.982,-0.100,0.671,-0.580,1.312,66.667,562198.000,1.000
16.212,14.268,19.300,12.046,14.651,10.332,8.418,11.982,0.019,0.981,-0.102,0.641,-0.580,1.160,66.667,562199.000,1.000
15.563,12.328,18.042,12.004,14.745,11.212,13.594,14.266,0.018,0.981,-0.105,0.793,-0.580,1.099,66.667,562200.000,1.000
14.470,10.062,16.589,11.999,14.393,11.395,16.985,16.253,0.019,0.981,-0.106,0.671,-0.610,0.977,66.667,562201.000,1.000
14.190,8.626,15.827,12.416,14.346,11.438,18.472,17.943,0.021,0.982,-0.105,0.763,-0.580,0.885,66.667,562202.000,1.000
15.357,8.912,16.214,13.388,15.340,12.401,19.293,19.412,0.021,0.983,-0.104,0.793,-0.580,0.763,66.667,562203.000,1.000
17.449,10.757,17.317,14.485,17.246,14.565,20.444,20.431,0.020,0.982,-0.104,0.580,-0.610,0.854,66.667,562204.000,1.000
19.215,12.768,17.916,14.821,18.753,16.325,21.045,20.297,0.023,0.982,-0.104,0.580,-0.580,0.824,66.667,562205.000,1.000
19.593,13.218,16.830,13.619,18.268,15.223,18.962,18.122,0.024,0.979,-0.103,0.458,-0.549,0.885,66.667,562206.000,1.000
18.406,11.370,13.925,10.890,15.380,10.434,13.473,13.767,0.024,0.979,-0.103,0.488,-0.519,0.885,66.667,562207.000,1.000
16.299,7.923,10.233,7.516,11.260,3.620,6.561,8.517,0.022,0.977,-0.105,0.458,-0.488,0.977,66.667,562208.000,1.000
13.996,4.222,6.977,4.566,7.626,-2.428,1.646,4.619,0.023,0.977,-0.105,0.366,-0.366,1.007,66.667,562209.000,1.000
11.749,1.256,4.645,2.566,5.481,-5.448,1.142,3.682,0.022,0.978,-0.104,0.336,-0.458,1.038,66.667,562210.000,1.000
9.456,-0.702,2.959,1.323,4.518,-4.977,4.148,5.083,0.021,0.981,-0.105,0.336,-0.336,1.129,66.667,562211.000,1.000
7.116,-1.834,1.527,0.395,3.694,-2.676,7.005,6.576,0.021,0.981,-0.106,0.275,-0.275,1.282,66.667,562212.000,1.000
5.123,-2.309,0.439,-0.327,2.469,-0.993,6.733,6.564,0.022,0.983,-0.107,0.092,-0.244,1.373,66.667,562213.000,1.000
4.039,-2.241,0.066,-0.681,1.128,-1.474,2.807,4.765,0.021,0.982,-0.106,-0.031,-0.214,1.343,66.667,562214.000,1.000
4.171,-1.793,0.573,-0.555,0.262,-3.943,-3.315,1.757,0.019,0.983,-0.107,-0.061,-0.275,1.343,66.667,562215.000,1.000
5.511,-0.895,1.985,0.281,0.661,-6.544,-8.269,-0.647,0.020,0.983,-0.107,0.031,-0.336,1.312,66.667,562216.000,1.000
7.772,0.767,4.312,2.171,3.031,-7.047,-8.193,-0.128,0.020,0.984,-0.109,-0.092,-0.336,1.251,66.667,562217.000,1.000
10.121,3.028,7.046,4.867,6.969,-4.909,-2.353,3.632,0.017,0.985,-0.107,-0.092,-0.366,1.312,66.667,562218.000,1.000
11.168,4.873,8.910,7.206,10.708,-1.797,5.556,8.238,0.015,0.988,-0.106,-0.214,-0.458,1.282,66.667,562219.000,1.000
9.707,5.184,8.656,7.893,12.374,0.115,10.520,10.791,0.013,0.990,-0.102,-0.397,-0.549,1.190,66.667,562220.000,1.000
5.607,3.711,6.076,6.455,11.326,0.109,10.086,10.018,0.012,0.991,-0.105,-0.458,-0.763,1.190,66.667,562221.000,1.000
-0.023,1.211,2.145,3.470,8.379,-0.766,5.533,6.566,0.011,0.994,-0.104,-0.610,-0.854,1.129,66.667,562222.000,1.000
-5.469,-1.202,-1.660,0.145,5.074,-0.912,0.128,2.174,0.011,0.995,-0.100,-0.732,-1.007,1.007,66.667,562223.000,1.000
-9.281,-2.764,-4.184,-2.354,2.685,0.498,-3.508,-1.441,0.013,0.994,-0.105,-0.854,-1.221,1.038,66.667,562224.000,1.000
-10.810,-3.325,-5.034,-3.424,1.634,3.025,-4.614,-3.260,0.014,0.994,-0.102,-1.160,-1.373,1.068,66.667,562225.000,1.000
-10.329,-3.260,-4.599,-3.172,1.532,5.289,-3.689,-2.919,0.018,0.993,-0.102,-1.221,-1.465,0.977,66.667,562226.000,1.000
-8.781,-3.175,-3.723,-2.213,1.601,5.880,-1.584,-0.626,0.017,0.992,-0.104,-1.373,-1.526,0.977,66.667,562227.000,1.000
-7.111,-3.455,-3.031,-1.198,1.216,4.255,0.732,2.681,0.020,0.990,-0.103,-1.343,-1.495,1.068,66.667,562228.000,1.000
-5.542,-3.851,-2.369,-0.316,0.391,1.106,2.426,5.617,0.025,0.991,-0.105,-1.373,-1.495,1.129,66.667,562229.000,1.000
-3.579,-3.601,-1.027,0.709,-0.248,-1.936,3.409,7.081,0.026,0.991,-0.103,-1.465,-1.404,1.251,66.667,562230.000,1.000
-0.857,-2.155,1.401,2.098,-0.154,-3.315,4.057,6.670,0.025,0.989,-0.106,-1.465,-1.404,1.343,66.667,562231.000,1.000
2.151,0.200,4.425,3.574,0.500,-2.690,4.184,4.492,0.025,0.986,-0.104,-1.526,-1.373,1.251,66.667,562232.000,1.000
4.367,2.444,6.858,4.467,0.908,-1.142,2.975,0.887,0.023,0.984,-0.103,-1.526,-1.404,1.343,66.667,562233.000,1.000
4.981,3.531,7.645,4.230,0.326,-0.244,-0.007,-3.510,0.023,0.983,-0.101,-1.465,-1.312,1.434,66.667,562234.000,1.000
4.077,3.135,6.692,2.966,-1.192,-0.829,-4.032,-7.567,0.022,0.980,-0.099,-1.465,-1.312,1.404,66.667,562235.000,1.000
2.541,1.868,4.944,1.471,-2.669,-2.440,-7.216,-9.779,0.021,0.979,-0.100,-1.282,-1.312,1.434,66.667,562236.000,1.000
1.495,0.776,3.592,0.670,-2.913,-3.905,-7.512,-9.061,0.022,0.981,-0.101,-1.190,-1.282,1.282,66.667,562237.000,1.000
1.761,0.648,3.270,0.956,-1.479,-4.351,-4.430,-5.830,0.020,0.977,-0.100,-1.190,-1.312,1.343,66.667,562238.000,1.000
3.532,1.667,3.850,2.036,0.993,-3.694,0.062,-2.085,0.021,0.978,-0.100,-1.068,-1.312,1.343,66.667,562239.000,1.000
6.253,3.377,4.659,3.226,3.245,-2.517,2.829,-0.165,0.018,0.977,-0.101,-0.854,-1.160,1.251,66.667,562240.000,1.000
8.845,4.874,4.854,3.876,4.183,-1.637,2.008,-1.210,0.019,0.976,-0.103,-0.702,-1.251,1.190,66.667,562241.000,1.000
10.306,5.367,3.963,3.766,3.549,-1.577,-1.733,-4.406,0.022,0.976,-0.101,-0.549,-1.190,1.129,66.667,562242.000,1.000
10.306,4.793,2.242,3.216,2.011,-2.246,-6.020,-7.721,0.021,0.974,-0.098,-0.458,-1.251,0.854,66.667,562243.000,1.000
9.299,3.854,0.497,2.809,0.645,-2.988,-8.572,-9.454,0.021,0.975,-0.097,-0.305,-1.160,0.763,66.667,562244.000,1.000
8.127,3.456,-0.429,3.077,0.434,-2.716,-7.939,-8.829,0.021,0.977,-0.097,-0.183,-1.160,0.702,66.667,562245.000,1.000
7.463,4.122,-0.078,4.341,2.091,-0.274,-2.921,-5.366,0.021,0.977,-0.097,-0.092,-1.160,0.610,66.667,562246.000,1.000
7.456,5.649,1.308,6.494,5.644,4.448,6.728,1.245,0.021,0.975,-0.099,0.031,-1.190,0.610,66.667,562247.000,1.000
7.650,6.971,2.667,8.673,9.705,9.378,17.873,9.721,0.021,0.975,-0.100,0.031,-1.099,0.519,66.667,562248.000,1.000
7.232,6.589,2.533,9.363,11.657,11.041,24.123,16.082,0.021,0.976,-0.099,0.061,-1.129,0.519,66.667,562249.000,1.000
5.558,3.524,-0.019,7.277,9.273,7.015,20.096,15.463,0.022,0.975,-0.100,0.122,-1.007,0.580,66.667,562250.000,1.000
2.623,-1.973,-4.711,2.349,2.375,-2.334,5.410,5.786,0.021,0.974,-0.100,0.275,-1.038,0.549,66.667,562251.000,1.000
-0.875,-8.440,-10.167,-4.046,-6.856,-13.851,-14.850,-10.226,0.019,0.973,-0.100,0.427,-0.977,0.549,66.667,562252.000,1.000
-3.813,-13.679,-14.449,-9.621,-14.792,-22.859,-32.378,-26.037,0.019,0.972,-0.103,0.580,-0.916,0.580,66.667,562253.000,1.000
-5.046,-15.544,-15.739,-12.097,-17.955,-25.331,-39.351,-34.423,0.021,0.973,-0.101,0.702,-0.946,0.641,66.667,562254.000,1.000
-4.008,-13.127,-13.315,-10.403,-14.978,-20.340,-32.927,-31.634,0.022,0.974,-0.102,0.824,-0.946,0.702,66.667,562255.000,1.000
-1.358,-7.751,-8.391,-5.644,-7.879,-11.036,-17.826,-20.216,0.022,0.978,-0.102,0.854,-0.916,0.732,66.667,562256.000,1.000
1.128,-2.431,-3.628,-0.589,-0.915,-2.544,-3.195,-7.281,0.021,0.979,-0.101,0.916,-0.977,0.854,66.667,562257.000,1.000
1.724,0.191,-1.317,2.220,2.497,1.756,4.407,0.915,0.020,0.983,-0.101,0.977,-1.038,1.038,66.667,562258.000,1.000
-0.101,-0.581,-2.028,1.925,1.735,1.813,4.540,2.638,0.020,0.983,-0.103,1.007,-1.007,1.007,66.667,562259.000,1.000
-3.453,-3.563,-4.716,-0.660,-1.571,-0.498,0.520,-0.114,0.020,0.984,-0.104,0.824,-1.038,1.160,66.667,562260.000,1.000
-6.703,-6.708,-7.646,-3.916,-5.117,-3.146,-4.056,-4.135,0.021,0.985,-0.103,0.793,-1.007,1.221,66.667,562261.000,1.000
-8.495,-8.261,-9.387,-6.399,-7.217,-4.788,-6.906,-6.956,0.021,0.986,-0.103,0.671,-0.885,1.160,66.667,562262.000,1.000
-8.436,-7.620,-9.452,-7.511,-7.466,-5.156,-7.504,-7.854,0.018,0.988,-0.101,0.549,-0.885,1.129,66.667,562263.000,1.000
-7.104,-5.440,-8.214,-7.456,-6.413,-4.772,-6.378,-7.242,0.020,0.990,-0.100,0.488,-0.946,1.343,66.667,562264.000,1.000
-5.498,-2.965,-6.383,-6.721,-4.775,-4.162,-3.972,-5.369,0.021,0.990,-0.097,0.427,-0.946,1.465,66.667,562265.000,1.000
-4.426,-1.278,-4.697,-5.858,-3.246,-3.600,-0.940,-2.750,0.021,0.991,-0.100,0.305,-1.007,1.465,66.667,562266.000,1.000
-4.189,-0.927,-3.810,-5.494,-2.643,-3.328,1.123,-1.269,0.021,0.990,-0.101,0.183,-0.916,1.434,66.667,562267.000,1.000
-4.398,-1.640,-3.864,-5.902,-3.392,-3.421,0.728,-2.850,0.020,0.991,-0.103,0.031,-0.946,1.373,66.667,562268.000,1.000
-4.074,-2.345,-4.137,-6.538,-4.857,-3.533,-1.907,-7.046,0.019,0.992,-0.103,-0.092,-0.946,1.465,66.667,562269.000,1.000
-2.380,-1.978,-3.626,-6.505,-5.792,-3.220,-5.095,-11.233,0.017,0.993,-0.101,-0.244,-0.946,1.404,66.667,562270.000,1.000
0.701,-0.285,-1.938,-5.448,-5.408,-2.383,-7.093,-13.017,0.017,0.990,-0.100,-0.397,-0.946,1.282,66.667,562271.000,1.000
4.580,2.300,0.678,-3.683,-3.652,-0.964,-6.731,-11.707,0.019,0.987,-0.098,-0.519,-0.977,1.160,66.667,562272.000,1.000
8.665,5.205,3.868,-1.628,-0.794,1.379,-3.380,-7.839,0.022,0.984,-0.101,-0.732,-1.038,1.007,66.667,562273.000,1.000
12.531,7.821,7.243,0.401,2.593,4.593,2.407,-2.550,0.022,0.981,-0.104,-0.793,-1.099,1.099,66.667,562274.000,1.000
15.705,9.413,10.123,1.993,5.409,7.507,8.205,2.411,0.026,0.980,-0.102,-0.763,-0.946,1.068,66.667,562275.000,1.000
17.751,9.498,11.832,2.796,6.598,8.520,11.026,5.462,0.027,0.981,-0.103,-0.702,-0.885,0.977,66.667,562276.000,1.000
18.577,8.284,12.286,2.889,6.040,6.994,9.691,6.253,0.028,0.983,-0.103,-0.610,-0.824,1.068,66.667,562277.000,1.000
18.427,6.520,11.940,2.630,4.452,3.731,5.295,5.202,0.026,0.982,-0.105,-0.671,-0.641,1.160,66.667,562278.000,1.000
17.607,4.984,11.285,2.265,2.680,0.336,-0.043,2.682,0.026,0.982,-0.103,-0.732,-0.641,1.221,66.667,562279.000,1.000
16.310,4.060,10.542,1.842,1.351,-1.730,-4.140,-0.597,0.026,0.980,-0.104,-0.702,-0.580,1.221,66.667,562280.000,1.000
14.573,3.475,9.637,1.327,0.763,-1.941,-5.445,-3.285,0.028,0.977,-0.103,-0.702,-0.580,1.282,66.667,562281.000,1.000
12.314,2.339,8.253,0.552,0.524,-1.290,-4.540,-4.563,0.027,0.977,-0.104,-0.458,-0.580,1.434,66.667,562282.000,1.000
9.600,-0.246,6.044,-0.739,-0.443,-1.856,-4.509,-5.286,0.026,0.979,-0.104,-0.397,-0.549,1.373,66.667,562283.000,1.000
7.020,-4.132,3.208,-2.380,-2.685,-4.703,-7.588,-6.506,0.023,0.979,-0.100,-0.336,-0.366,1.404,66.667,562284.000,1.000
5.520,-7.862,0.722,-3.496,-5.262,-8.451,-12.080,-7.421,0.021,0.981,-0.099,-0.366,-0.275,1.282,66.667,562285.000,1.000
5.657,-9.780,-0.376,-3.195,-6.646,-10.531,-14.182,-6.333,0.017,0.980,-0.099,-0.183,-0.305,1.160,66.667,562286.000,1.000
7.144,-9.275,0.157,-1.377,-6.141,-9.345,-11.638,-2.788,0.016,0.979,-0.102,-0.183,-0.366,0.885,66.667,562287.000,1.000
8.953,-7.110,1.583,1.092,-4.371,-5.328,-5.351,1.835,0.014,0.977,-0.100,0.000,-0.519,0.580,66.667,562288.000,1.000
9.743,-4.960,2.558,2.812,-2.852,-0.798,1.311,5.193,0.012,0.977,-0.103,0.000,-0.763,0.366,66.667,562289.000,1.000
8.517,-4.388,1.936,2.709,-2.911,1.574,5.070,5.727,0.012,0.977,-0.101,0.061,-0.916,0.305,66.667,562290.000,1.000
5.226,-5.782,-0.458,0.722,-4.709,0.820,4.884,3.762,0.015,0.978,-0.101,0.183,-1.068,0.275,66.667,562291.000,1.000
0.724,-8.258,-3.844,-2.368,-7.403,-1.933,1.500,0.640,0.015,0.980,-0.100,0.214,-1.190,0.336,66.667,562292.000,1.000
-3.878,-10.546,-7.183,-5.539,-9.938,-4.895,-3.573,-2.426,0.018,0.980,-0.101,0.214,-1.251,0.244,66.667,562293.000,1.000
-7.820,-11.825,-9.722,-7.866,-11.474,-6.935,-8.148,-4.422,0.020,0.982,-0.101,0.244,-1.404,0.275,66.667,562294.000,1.000
-10.898,-11.972,-11.155,-8.761,-11.636,-7.849,-10.380,-4.879,0.019,0.986,-0.100,0.244,-1.343,0.275,66.667,562295.000,1.000
-13.299,-11.382,-11.631,-8.249,-10.688,-8.038,-10.103,-4.332,0.017,0.986,-0.100,0.244,-1.434,0.427,66.667,562296.000,1.000
-15.338,-10.700,-11.663,-6.949,-9.311,-8.062,-8.349,-3.518,0.018,0.987,-0.100,0.275,-1.495,0.488,66.667,562297.000,1.000
-17.325,-10.648,-11.956,-5.797,-8.285,-8.367,-6.323,-2.740,0.020,0.986,-0.101,0.214,-1.434,0.519,66.667,562298.000,1.000
-19.461,-11.743,-13.090,-5.656,-8.250,-9.052,-5.037,-2.363,0.020,0.984,-0.103,0.092,-1.495,0.641,66.667,562299.000,1.000
-21.640,-13.862,-15.101,-6.801,-9.356,-9.802,-5.006,-3.032,0.019,0.985,-0.100,0.153,-1.526,0.946,66.667,562300.000,1.000
-23.335,-16.164,-17.275,-8.605,-11.035,-10.246,-6.130,-5.047,0.018,0.987,-0.100,0.153,-1.678,1.160,66.667,562301.000,1.000
-23.764,-17.528,-18.396,-9.784,-12.086,-10.267,-7.517,-7.549,0.018,0.987,-0.100,0.214,-1.617,1.221,66.667,562302.000,1.000
-22.392,-17.219,-17.498,-9.272,-11.295,-9.873,-7.659,-8.787,0.019,0.988,-0.099,0.092,-1.617,1.373,66.667,562303.000,1.000
-19.588,-15.511,-14.821,-7.224,-8.600,-9.212,-6.255,-8.135,0.018,0.987,-0.097,0.092,-1.587,1.434,66.667,562304.000,1.000
-16.555,-13.521,-11.806,-4.984,-5.424,-8.645,-5.275,-7.121,0.020,0.984,-0.100,-0.031,-1.648,1.556,66.667,562305.000,1.000
-14.292,-12.116,-9.757,-3.747,-3.241,-8.209,-6.467,-7.286,0.018,0.983,-0.101,-0.061,-1.587,1.587,66.667,562306.000,1.000
-12.901,-11.204,-8.863,-3.554,-2.258,-7.299,-8.830,-8.060,0.020,0.983,-0.101,0.122,-1.617,1.648,66.667,562307.000,1.000
-12.014,-10.264,-8.640,-3.779,-1.836,-5.433,-9.814,-7.814,0.019,0.984,-0.102,0.122,-1.587,1.587,66.667,562308.000,1.000
-11.276,-8.985,-8.593,-3.936,-1.353,-2.819,-7.901,-5.854,0.019,0.985,-0.100,0.122,-1.587,1.678,66.667,562309.000,1.000
-10.300,-7.231,-8.213,-3.785,-0.374,0.016,-3.554,-2.717,0.020,0.986,-0.099,0.183,-1.556,1.678,66.667,562310.000,1.000
-8.656,-4.952,-7.006,-3.254,1.170,2.447,1.078,0.320,0.022,0.986,-0.097,0.153,-1.617,1.587,66.667,562311.000,1.000
-6.099,-2.325,-4.790,-2.453,2.817,3.821,3.349,1.958,0.021,0.985,-0.098,0.153,-1.587,1.556,66.667,562312.000,1.000
-2.737,0.316,-1.734,-1.433,4.097,4.037,2.332,2.113,0.022,0.983,-0.099,0.183,-1.495,1.465,66.667,562313.000,1.000
0.980,2.705,1.821,-0.033,5.066,3.790,-0.236,2.182,0.022,0.981,-0.102,0.305,-1.434,1.373,66.667,562314.000,1.000
4.424,4.673,5.379,1.839,5.995,3.929,-1.822,3.508,0.023,0.982,-0.102,0.275,-1.343,1.221,66.667,562315.000,1.000
7.050,6.115,8.303,3.933,6.902,4.887,-1.068,6.120,0.024,0.981,-0.103,0.519,-1.343,1.282,66.667,562316.000,1.000
8.602,7.041,10.050,5.752,7.585,6.523,1.981,9.050,0.024,0.980,-0.102,0.641,-1.312,1.282,66.667,562317.000,1.000
9.100,7.560,10.375,6.733,7.705,7.939,5.913,11.030,0.024,0.980,-0.103,0.702,-1.221,1.190,66.667,562318.000,1.000
8.724,7.788,9.411,6.490,6.917,7.891,8.500,11.109,0.024,0.981,-0.104,0.732,-1.190,1.129,66.667,562319.000,1.000
7.793,7.912,7.746,5.135,5.279,5.856,8.374,9.313,0.022,0.981,-0.100,0.732,-1.099,1.038,66.667,562320.000,1.000
6.679,8.162,6.172,3.234,3.304,2.420,5.729,6.400,0.024,0.980,-0.101,0.732,-1.007,1.099,66.667,562321.000,1.000
5.513,8.527,5.104,1.333,1.418,-1.308,1.474,2.879,0.022,0.980,-0.103,0.732,-0.824,1.099,66.667,562322.000,1.000
4.055,8.622,4.294,-0.372,-0.411,-4.351,-3.436,-1.218,0.023,0.983,-0.103,0.824,-0.824,1.099,66.667,562323.000,1.000
2.035,8.034,3.190,-1.858,-2.378,-6.070,-7.904,-5.665,0.018,0.983,-0.102,0.793,-0.854,0.977,66.667,562324.000,1.000
-0.384,6.854,1.576,-2.980,-4.313,-6.026,-10.586,-9.626,0.019,0.981,-0.103,0.854,-0.732,0.916,66.667,562325.000,1.000
-2.562,5.768,-0.127,-3.416,-5.571,-4.091,-10.416,-11.894,0.019,0.982,-0.100,1.007,-0.732,0.763,66.667,562326.000,1.000
-3.890,5.543,-1.184,-2.841,-5.449,-0.760,-7.248,-11.281,0.018,0.983,-0.098,0.946,-0.916,0.702,66.667,562327.000,1.000
-4.335,6.418,-1.171,-1.220,-3.684,2.957,-1.836,-7.315,0.018,0.981,-0.100,1.007,-0.854,0.702,66.667,562328.000,1.000
-4.468,7.909,-0.358,0.876,-0.827,5.877,4.127,-1.465,0.017,0.980,-0.100,1.007,-0.946,0.732,66.667,562329.000,1.000
-5.027,9.089,0.458,2.356,1.817,6.851,8.143,2.991,0.017,0.981,-0.103,1.038,-1.007,0.671,66.667,562330.000,1.000
-6.395,9.181,0.537,2.313,3.026,5.406,8.485,3.490,0.017,0.983,-0.107,1.038,-1.038,0.671,66.667,562331.000,1.000
-8.204,8.183,-0.167,0.823,2.667,2.560,5.683,0.266,0.016,0.982,-0.102,0.977,-1.251,0.671,66.667,562332.000,1.000
-9.304,7.042,-0.770,-0.924,1.850,0.467,1.871,-4.102,0.014,0.983,-0.103,1.038,-1.373,0.549,66.667,562333.000,1.000
-8.386,7.065,0.074,-1.338,2.147,0.929,-0.649,-6.510,0.015,0.980,-0.104,1.068,-1.373,0.610,66.667,562334.000,1.000
-5.014,8.868,3.113,0.415,4.411,4.128,-0.473,-5.242,0.017,0.981,-0.099,1.038,-1.373,0.580,66.667,562335.000,1.000
-0.113,11.879,7.778,3.776,8.108,8.599,2.016,-1.034,0.014,0.981,-0.102,1.038,-1.556,0.549,66.667,562336.000,1.000
4.737,15.002,12.700,7.421,11.938,12.505,5.005,3.763,0.014,0.981,-0.102,1.068,-1.556,0.549,66.667,562337.000,1.000
8.381,17.588,16.762,10.315,14.947,15.091,7.013,7.067,0.014,0.981,-0.104,1.160,-1.709,0.671,66.667,562338.000,1.000
10.424,19.493,19.407,12.046,16.816,16.785,8.057,8.198,0.015,0.981,-0.104,1.129,-1.740,0.641,66.667,562339.000,1.000
10.983,20.553,20.356,12.539,17.468,18.050,9.274,7.892,0.014,0.983,-0.101,1.129,-1.740,0.671,66.667,562340.000,1.000
10.501,20.458,19.530,11.842,16.781,18.521,11.572,7.270,0.015,0.985,-0.102,1.129,-1.740,0.763,66.667,562341.000,1.000
9.645,19.038,17.246,10.185,14.636,17.301,14.324,6.554,0.016,0.986,-0.102,1.038,-1.740,0.763,66.667,562342.000,1.000
9.040,16.496,14.321,8.126,11.269,14.022,15.817,5.299,0.017,0.986,-0.103,0.916,-1.831,0.854,66.667,562343.000,1.000
8.961,13.410,11.783,6.380,7.490,9.610,15.073,3.511,0.017,0.985,-0.103,0.946,-1.801,0.946,66.667,562344.000,1.000
9.238,10.493,10.257,5.381,4.217,5.851,12.418,1.688,0.017,0.984,-0.105,0.824,-1.740,0.977,66.667,562345.000,1.000
9.534,8.284,9.637,5.102,1.922,4.072,8.685,0.393,0.017,0.984,-0.106,0.671,-1.648,1.007,66.667,562346.000,1.000
9.710,7.055,9.381,5.250,0.584,4.225,4.763,0.082,0.018,0.983,-0.106,0.702,-1.678,1.160,66.667,562347.000,1.000
9.728,6.737,8.920,5.393,-0.151,5.087,1.418,0.686,0.020,0.981,-0.107,0.671,-1.587,1.282,66.667,562348.000,1.000
9.218,6.725,7.727,4.992,-0.906,5.061,-1.027,1.420,0.020,0.981,-0.104,0.641,-1.526,1.312,66.667,562349.000,1.000
7.460,5.971,5.350,3.595,-2.363,2.885,-2.914,1.333,0.020,0.982,-0.106,0.641,-1.587,1.343,66.667,562350.000,1.000
3.955,3.618,1.689,1.136,-4.848,-1.732,-4.942,-0.018,0.018,0.982,-0.103,0.641,-1.495,1.282,66.667,562351.000,1.000
-1.025,-0.253,-2.701,-1.893,-7.863,-7.518,-7.143,-2.171,0.017,0.983,-0.103,0.610,-1.526,1.434,66.667,562352.000,1.000
-6.358,-4.426,-6.665,-4.554,-10.086,-11.845,-8.264,-3.828,0.017,0.985,-0.103,0.549,-1.434,1.495,66.667,562353.000,1.000
-10.457,-7.149,-8.965,-5.881,-10.165,-12.187,-6.907,-3.703,0.020,0.983,-0.104,0.580,-1.373,1.495,66.667,562354.000,1.000
-12.057,-7.245,-9.005,-5.427,-7.740,-7.826,-3.185,-1.539,0.020,0.982,-0.103,0.427,-1.343,1.587,66.667,562355.000,1.000
-11.090,-4.958,-7.312,-3.603,-3.782,-0.364,1.338,1.646,0.018,0.984,-0.103,0.427,-1.312,1.526,66.667,562356.000,1.000
-8.942,-1.854,-5.317,-1.516,-0.003,7.327,5.017,4.256,0.020,0.983,-0.104,0.336,-1.190,1.404,66.667,562357.000,1.000
-7.578,0.207,-4.488,-0.312,2.146,12.593,7.009,5.342,0.021,0.982,-0.103,0.366,-1.251,1.373,66.667,562358.000,1.000
-7.974,0.390,-5.210,-0.238,2.493,14.211,7.817,5.753,0.019,0.981,-0.106,0.397,-1.160,1.343,66.667,562359.000,1.000
-9.143,-0.349,-6.166,-0.163,2.585,13.109,9.490,7.875,0.020,0.982,-0.101,0.214,-1.343,1.373,66.667,562360.000,1.000
-9.020,-0.181,-5.367,1.401,4.355,11.464,13.541,12.988,0.022,0.983,-0.099,0.214,-1.282,1.343,66.667,562361.000,1.000
-6.589,1.500,-2.299,4.460,7.810,10.485,18.276,18.933,0.021,0.983,-0.101,0.214,-1.251,1.190,66.667,562362.000,1.000
-2.816,3.426,1.425,7.318,10.881,9.740,20.107,21.764,0.021,0.983,-0.102,0.366,-1.160,1.404,66.667,562363.000,1.000
0.435,3.931,3.692,8.256,11.578,8.394,17.175,19.490,0.021,0.983,-0.102,0.427,-1.099,1.312,66.667,562364.000,1.000
1.863,2.373,3.494,6.804,9.490,6.052,10.462,13.342,0.021,0.983,-0.105,0.366,-1.007,1.343,66.667,562365.000,1.000
1.268,-0.702,1.229,3.672,5.660,2.842,2.662,6.326,0.022,0.981,-0.106,0.366,-0.885,1.251,66.667,562366.000,1.000
-0.587,-3.982,-1.715,0.214,1.864,-0.542,-3.236,1.348,0.021,0.985,-0.108,0.397,-0.885,1.251,66.667,562367.000,1.000
-2.438,-6.004,-3.717,-2.159,-0.316,-3.055,-5.362,-0.144,0.022,0.985,-0.104,0.397,-0.824,1.251,66.667,562368.000,1.000
-3.162,-5.862,-3.794,-2.628,-0.246,-3.712,-3.598,1.550,0.022,0.982,-0.102,0.488,-0.793,1.190,66.667,562369.000,1.000
-2.458,-3.699,-2.110,-1.361,1.608,-2.003,0.924,5.096,0.023,0.982,-0.104,0.427,-0.671,1.282,66.667,562370.000,1.000
-1.090,-0.664,0.090,0.558,3.917,1.486,6.303,8.781,0.022,0.983,-0.103,0.427,-0.580,1.282,66.667,562371.000,1.000
-0.306,1.728,1.180,1.693,5.068,4.975,10.205,10.919,0.022,0.984,-0.103,0.244,-0.580,1.160,66.667,562372.000,1.000
-0.901,2.473,0.155,1.083,4.061,6.547,10.866,10.499,0.020,0.986,-0.102,0.244,-0.488,1.190,66.667,562373.000,1.000
-2.824,1.400,-2.881,-1.280,1.022,5.339,8.137,7.730,0.021,0.986,-0.102,0.244,-0.519,1.221,66.667,562374.000,1.000
-5.374,-0.981,-6.890,-4.497,-2.932,1.944,3.592,4.015,0.021,0.985,-0.103,0.183,-0.427,1.099,66.667,562375.000,1.000
-7.427,-3.495,-10.217,-7.031,-6.018,-1.734,0.010,1.461,0.020,0.985,-0.104,0.275,-0.488,1.099,66.667,562376.000,1.000
-7.923,-4.652,-11.221,-7.394,-6.487,-3.402,0.195,1.910,0.017,0.985,-0.105,0.183,-0.519,1.068,66.667,562377.000,1.000
-6.690,-3.700,-9.402,-5.264,-3.874,-2.067,4.787,5.464,0.018,0.986,-0.104,0.183,-0.580,1.068,66.667,562378.000,1.000
-4.680,-1.250,-5.893,-1.859,0.456,1.081,11.087,9.990,0.017,0.985,-0.103,0.214,-0.610,1.099,66.667,562379.000,1.000
-3.156,1.418,-2.535,1.104,4.440,3.838,15.195,12.828,0.018,0.986,-0.102,0.092,-0.549,1.068,66.667,562380.000,1.000
-2.730,3.442,-0.563,2.588,6.833,4.890,15.104,12.690,0.018,0.984,-0.104,0.061,-0.580,0.977,66.667,562381.000,1.000
-3.152,4.658,-0.159,2.490,7.533,4.383,11.315,9.753,0.016,0.984,-0.104,0.000,-0.519,0.977,66.667,562382.000,1.000
-3.668,5.321,-0.703,1.388,7.088,3.172,5.819,5.256,0.017,0.983,-0.104,-0.092,-0.519,1.007,66.667,562383.000,1.000
-3.497,5.819,-1.243,0.199,6.182,2.009,0.978,1.106,0.017,0.983,-0.102,-0.061,-0.549,1.038,66.667,562384.000,1.000
-2.362,6.368,-1.129,-0.407,5.175,1.226,-1.847,-1.289,0.020,0.982,-0.102,-0.061,-0.580,1.099,66.667,562385.000,1.000
-0.809,6.829,-0.421,-0.370,4.098,0.893,-2.857,-1.783,0.019,0.982,-0.106,0.031,-0.580,1.068,66.667,562386.000,1.000
0.189,6.946,0.410,0.059,3.165,1.116,-2.731,-0.722,0.019,0.980,-0.106,0.061,-0.671,1.160,66.667,562387.000,1.000
0.050,6.682,1.057,0.762,2.932,1.984,-1.627,1.827,0.018,0.981,-0.102,0.092,-0.671,1.190,66.667,562388.000,1.000
-1.002,6.250,1.495,1.716,3.732,3.338,0.359,5.473,0.019,0.981,-0.107,0.000,-0.732,1.221,66.667,562389.000,1.000
-2.266,5.897,1.752,2.727,5.226,4.883,2.567,8.942,0.018,0.982,-0.107,0.061,-0.732,1.282,66.667,562390.000,1.000
-3.077,5.758,1.866,3.490,6.691,6.481,4.351,10.920,0.020,0.982,-0.105,0.031,-0.793,1.343,66.667,562391.000,1.000
-2.919,5.931,2.113,3.929,7.628,8.183,5.742,11.144,0.020,0.981,-0.107,0.122,-0.854,1.404,66.667,562392.000,1.000
-1.324,6.672,3.110,4.389,8.144,10.139,7.213,10.591,0.019,0.983,-0.105,0.153,-0.885,1.434,66.667,562393.000,1.000
1.872,8.335,5.437,5.381,8.850,12.594,9.207,10.833,0.018,0.982,-0.106,0.183,-0.763,1.495,66.667,562394.000,1.000
5.994,10.814,8.968,6.991,10.171,15.485,11.730,12.554,0.021,0.982,-0.104,0.153,-0.732,1.556,66.667,562395.000,1.000
9.464,13.042,12.528,8.549,11.616,17.749,13.841,14.482,0.020,0.982,-0.106,0.153,-0.793,1.526,66.667,562396.000,1.000
10.680,13.445,14.459,9.080,12.056,17.756,14.047,14.571,0.020,0.982,-0.105,0.092,-0.824,1.465,66.667,562397.000,1.000
9.095,11.097,13.701,8.080,10.776,14.785,11.561,12.100,0.020,0.982,-0.104,0.122,-0.824,1.373,66.667,562398.000,1.000
5.435,6.359,10.398,5.762,8.021,9.651,6.883,8.035,0.019,0.982,-0.106,0.214,-0.854,1.373,66.667,562399.000,1.000
1.161,0.659,5.769,2.856,4.771,4.138,1.449,4.000,0.020,0.983,-0.104,0.153,-0.916,1.343,66.667,562400.000,1.000
-2.175,-4.207,1.550,0.360,2.221,0.121,-2.843,1.484,0.018,0.982,-0.106,0.122,-0.854,1.404,66.667,562401.000,1.000
-3.534,-6.997,-0.836,-0.863,1.140,-1.375,-4.431,1.346,0.018,0.982,-0.109,0.061,-0.885,1.343,66.667,562402.000,1.000
-2.893,-7.659,-1.032,-0.634,1.347,-0.786,-3.136,3.282,0.020,0.983,-0.107,-0.061,-0.885,1.343,66.667,562403.000,1.000
-1.281,-7.230,0.080,0.305,1.772,0.325,-0.317,5.795,0.020,0.983,-0.104,-0.061,-0.885,1.373,66.667,562404.000,1.000
-0.177,-7.127,0.941,0.700,1.139,0.312,2.199,7.042,0.021,0.983,-0.099,-0.153,-0.854,1.343,66.667,562405.000,1.000
-0.650,-8.241,0.276,-0.372,-1.186,-1.499,3.237,6.113,0.021,0.985,-0.103,-0.275,-0.916,1.251,66.667,562406.000,1.000
-2.765,-10.347,-2.163,-2.889,-4.767,-4.416,2.644,3.587,0.022,0.985,-0.102,-0.275,-0.763,1.312,66.667,562407.000,1.000
-5.639,-12.376,-5.626,-6.041,-8.477,-7.083,0.822,0.571,0.022,0.986,-0.107,-0.214,-0.824,1.221,66.667,562408.000,1.000
-8.065,-13.334,-8.996,-8.910,-11.314,-8.681,-1.896,-2.480,0.021,0.984,-0.107,-0.336,-0.732,1.221,66.667,562409.000,1.000
-9.234,-12.981,-11.380,-10.910,-12.868,-9.387,-5.251,-5.544,0.021,0.986,-0.104,-0.427,-0.763,1.251,66.667,562410.000,1.000
-8.990,-11.684,-12.298,-11.768,-13.153,-9.704,-8.606,-8.043,0.021,0.984,-0.103,-0.458,-0.763,1.312,66.667,562411.000,1.000
-7.571,-9.834,-11.555,-11.340,-12.226,-9.575,-10.820,-8.812,0.021,0.982,-0.105,-0.519,-0.732,1.190,66.667,562412.000,1.000
-5.410,-7.682,-9.279,-9.716,-10.252,-8.506,-10.964,-7.557,0.021,0.981,-0.106,-0.549,-0.702,1.312,66.667,562413.000,1.000
-3.112,-5.565,-6.052,-7.407,-7.757,-6.404,-9.137,-5.684,0.023,0.981,-0.104,-0.549,-0.732,1.343,66.667,562414.000,1.000
-1.228,-3.826,-2.672,-5.098,-5.358,-3.845,-6.239,-4.814,0.022,0.980,-0.104,-0.488,-0.732,1.312,66.667,562415.000,1.000
-0.043,-2.626,0.176,-3.323,-3.445,-1.738,-3.337,-5.235,0.021,0.981,-0.104,-0.580,-0.793,1.312,66.667,562416.000,1.000
0.291,-2.151,1.861,-2.438,-2.369,-1.089,-1.396,-6.209,0.020,0.982,-0.102,-0.519,-0.702,1.251,66.667,562417.000,1.000
-0.423,-2.849,1.679,-2.667,-2.628,-2.666,-0.945,-6.976,0.022,0.982,-0.101,-0.519,-0.641,1.190,66.667,562418.000,1.000
-2.228,-5.072,-0.741,-3.975,-4.513,-6.336,-1.684,-7.234,0.021,0.981,-0.105,-0.488,-0.641,1.282,66.667,562419.000,1.000
-4.646,-8.481,-4.839,-5.976,-7.701,-10.817,-3.009,-7.257,0.020,0.984,-0.104,-0.458,-0.671,1.373,66.667,562420.000,1.000
-6.809,-12.066,-9.280,-8.153,-11.415,-14.426,-5.004,-7.802,0.021,0.983,-0.107,-0.366,-0.671,1.343,66.667,562421.000,1.000
-8.054,-14.722,-12.734,-10.079,-14.802,-16.183,-8.070,-9.408,0.020,0.981,-0.106,-0.305,-0.671,1.343,66.667,562422.000,1.000
-8.272,-15.738,-14.393,-11.370,-17.102,-16.232,-11.737,-11.646,0.021,0.981,-0.105,-0.305,-0.610,1.343,66.667,562423.000,1.000
-7.857,-15.096,-14.223,-11.808,-17.959,-15.484,-14.808,-13.561,0.020,0.983,-0.104,-0.305,-0.519,1.343,66.667,562424.000,1.000
-7.478,-13.555,-13.055,-11.671,-17.767,-14.958,-16.371,-14.639,0.020,0.983,-0.102,-0.275,-0.580,1.282,66.667,562425.000,1.000
-7.670,-12.221,-12.106,-11.620,-17.396,-15.178,-16.225,-14.998,0.019,0.985,-0.104,-0.244,-0.641,1.282,66.667,562426.000,1.000
-8.519,-11.836,-12.171,-12.233,-17.508,-15.883,-14.878,-15.062,0.018,0.983,-0.103,-0.275,-0.610,1.282,66.667,562427.000,1.000
-9.779,-12.449,-13.269,-13.681,-18.195,-16.170,-13.260,-15.243,0.017,0.982,-0.104,-0.244,-0.671,1.221,66.667,562428.000,1.000
-11.208,-13.711,-14.928,-15.649,-19.102,-15.205,-12.161,-15.678,0.017,0.982,-0.105,-0.305,-0.610,1.312,66.667,562429.000,1.000
-12.756,-15.429,-16.712,-17.537,-19.831,-13.213,-11.958,-16.153,0.017,0.982,-0.102,-0.427,-0.580,1.129,66.667,562430.000,1.000
-14.411,-17.661,-18.416,-18.787,-20.139,-11.525,-12.257,-16.080,0.018,0.983,-0.104,-0.336,-0.671,1.129,66.667,562431.000,1.000
-15.802,-20.157,-19.700,-18.945,-19.627,-11.093,-11.322,-14.491,0.020,0.984,-0.105,-0.275,-0.671,1.007,66.667,562432.000,1.000
-16.183,-22.046,-19.907,-17.711,-17.788,-11.511,-7.391,-10.752,0.023,0.985,-0.103,-0.305,-0.763,0.946,66.667,562433.000,1.000
-15.049,-22.435,-18.641,-15.306,-14.836,-11.922,-1.476,-5.889,0.024,0.984,-0.103,-0.214,-0.793,1.038,66.667,562434.000,1.000
-12.586,-21.124,-16.218,-12.520,-11.912,-12.126,2.856,-2.393,0.023,0.981,-0.099,-0.397,-0.854,1.099,66.667,562435.000,1.000
-9.426,-18.573,-13.270,-10.042,-9.989,-12.349,3.103,-1.945,0.023,0.981,-0.099,-0.397,-0.702,1.190,66.667,562436.000,1.000
-6.206,-15.473,-10.277,-8.013,-9.041,-12.535,-0.057,-3.950,0.025,0.979,-0.099,-0.427,-0.610,1.282,66.667,562437.000,1.000
-3.438,-12.538,-7.634,-6.337,-8.504,-12.321,-4.289,-6.677,0.024,0.977,-0.102,-0.397,-0.580,1.404,66.667,562438.000,1.000
-1.533,-10.459,-5.810,-5.115,-8.103,-11.645,-8.035,-9.015,0.024,0.977,-0.100,-0.366,-0.519,1.495,66.667,562439.000,1.000
-0.643,-9.640,-5.086,-4.568,-7.985,-10.949,-11.131,-10.864,0.022,0.978,-0.101,-0.305,-0.366,1.495,66.667,562440.000,1.000
-0.544,-9.934,-5.307,-4.731,-8.385,-10.691,-13.991,-12.738,0.022,0.979,-0.101,-0.214,-0.336,1.526,66.667,562441.000,1.000
-0.874,-10.789,-6.059,-5.378,-9.397,-10.946,-16.764,-15.195,0.023,0.981,-0.105,-0.244,-0.336,1.556,66.667,562442.000,1.000
-1.282,-11.438,-6.830,-6.004,-10.654,-11.234,-18.725,-17.874,0.021,0.982,-0.104,-0.092,-0.275,1.587,66.667,562443.000,1.000
-1.248,-11.002,-6.911,-5.800,-11.130,-10.610,-18.307,-18.981,0.020,0.982,-0.105,-0.153,-0.305,1.587,66.667,562444.000,1.000
-0.187,-8.842,-5.600,-4.068,-9.699,-8.218,-14.200,-16.387,0.020,0.984,-0.103,-0.275,-0.336,1.617,66.667,562445.000,1.000
2.032,-5.057,-2.782,-0.905,-6.115,-3.942,-6.732,-9.666,0.020,0.985,-0.105,-0.214,-0.366,1.495,66.667,562446.000,1.000
4.866,-0.519,0.801,2.661,-1.391,1.305,1.716,-0.885,0.019,0.986,-0.105,-0.183,-0.366,1.373,66.667,562447.000,1.000
7.528,3.632,3.983,5.327,2.822,5.847,7.849,6.668,0.016,0.987,-0.103,-0.275,-0.397,1.343,66.667,562448.000,1.000
9.573,6.592,5.934,6.403,5.296,8.139,9.550,10.534,0.015,0.988,-0.102,-0.305,-0.549,1.312,66.667,562449.000,1.000
11.111,8.160,6.577,6.222,5.902,7.819,7.271,10.376,0.010,0.988,-0.101,-0.366,-0.702,1.099,66.667,562450.000,1.000
12.594,8.701,6.442,5.790,5.457,5.971,3.472,7.727,0.011,0.990,-0.103,-0.427,-0.946,0.946,66.667,562451.000,1.000
14.344,8.825,6.169,5.934,4.957,4.161,0.648,4.486,0.011,0.992,-0.104,-0.519,-1.129,0.793,66.667,562452.000,1.000
16.201,8.891,6.050,6.674,4.860,3.118,-0.209,1.747,0.013,0.993,-0.102,-0.671,-1.190,0.732,66.667,562453.000,1.000
17.694,8.758,5.947,7.403,5.012,2.430,0.396,-0.147,0.015,0.993,-0.101,-0.793,-1.343,0.580,66.667,562454.000,1.000
18.631,8.107,5.641,7.570,5.008,1.253,1.308,-1.264,0.018,0.993,-0.100,-0.885,-1.526,0.458,66.667,562455.000,1.000
19.421,6.975,5.203,7.166,4.587,-0.879,1.567,-2.026,0.020,0.993,-0.102,-1.099,-1.617,0.427,66.667,562456.000,1.000
20.779,5.856,4.997,6.605,3.724,-3.706,0.708,-3.116,0.023,0.992,-0.102,-1.190,-1.678,0.519,66.667,562457.000,1.000
23.035,5.191,5.220,6.189,2.325,-6.514,-1.663,-5.307,0.022,0.991,-0.104,-1.282,-1.709,0.610,66.667,562458.000,1.000
25.827,4.945,5.616,5.907,0.226,-8.610,-5.563,-8.723,0.024,0.989,-0.102,-1.312,-1.617,0.702,66.667,562459.000,1.000
28.499,4.906,5.868,5.797,-2.197,-9.374,-9.574,-11.981,0.023,0.987,-0.103,-1.312,-1.648,0.763,66.667,562460.000,1.000
30.665,5.128,6.055,6.142,-3.922,-8.301,-11.409,-13.036,0.023,0.986,-0.101,-1.343,-1.617,0.885,66.667,562461.000,1.000
32.436,5.800,6.532,7.206,-4.101,-5.508,-9.883,-11.190,0.021,0.985,-0.098,-1.312,-1.526,1.007,66.667,562462.000,1.000
34.324,6.965,7.582,8.967,-2.725,-1.998,-5.744,-7.699,0.022,0.983,-0.095,-1.221,-1.434,1.221,66.667,562463.000,1.000
36.979,8.686,9.351,11.181,-0.358,1.069,-0.763,-4.470,0.021,0.979,-0.096,-1.160,-1.495,1.282,66.667,562464.000,1.000
40.820,11.192,11.934,13.570,2.437,3.202,3.340,-2.593,0.019,0.977,-0.099,-1.099,-1.465,1.282,66.667,562465.000,1.000
45.595,14.409,15.162,15.833,5.147,4.377,5.260,-1.998,0.019,0.979,-0.099,-0.946,-1.526,1.251,66.667,562466.000,1.000
50.152,17.425,18.301,17.543,7.137,4.530,4.404,-2.154,0.018,0.977,-0.095,-0.793,-1.465,1.190,66.667,562467.000,1.000
52.946,18.942,20.327,18.271,7.947,3.803,1.560,-2.849,0.020,0.978,-0.099,-0.641,-1.526,1.129,66.667,562468.000,1.000
53.088,18.458,20.734,18.010,7.873,3.056,-1.041,-3.892,0.018,0.976,-0.095,-0.458,-1.526,1.068,66.667,562469.000,1.000
50.837,16.717,19.903,17.330,7.842,3.552,-1.276,-4.474,0.017,0.977,-0.098,-0.244,-1.526,1.068,66.667,562470.000,1.000
46.978,14.732,18.411,16.776,8.330,5.680,0.809,-3.836,0.016,0.978,-0.100,-0.061,-1.587,1.068,66.667,562471.000,1.000
42.015,12.681,16.255,16.179,8.633,8.073,2.964,-2.315,0.017,0.979,-0.097,0.061,-1.556,1.038,66.667,562472.000,1.000
36.155,10.105,13.106,14.837,7.547,8.567,2.924,-1.030,0.018,0.979,-0.098,0.183,-1.495,1.007,66.667,562473.000,1.000
29.716,6.840,9.081,12.315,4.587,6.119,0.259,-0.761,0.019,0.980,-0.098,0.305,-1.587,0.946,66.667,562474.000,1.000
23.334,3.452,4.977,8.919,0.461,1.699,-3.646,-1.493,0.019,0.978,-0.098,0.336,-1.434,0.854,66.667,562475.000,1.000
17.904,1.068,1.962,5.660,-3.203,-2.202,-6.590,-2.590,0.020,0.978,-0.100,0.458,-1.404,0.824,66.667,562476.000,1.000
14.122,0.669,0.945,3.709,-4.713,-3.172,-6.865,-3.093,0.021,0.977,-0.099,0.610,-1.465,0.793,66.667,562477.000,1.000
11.748,2.071,1.755,3.467,-3.578,-0.835,-4.595,-2.386,0.021,0.976,-0.098,0.732,-1.312,0.793,66.667,562478.000,1.000
9.542,3.865,3.071,4.196,-0.821,2.960,-1.419,-0.657,0.021,0.976,-0.099,0.824,-1.312,0.885,66.667,562479.000,1.000
6.188,4.675,3.458,4.778,2.133,6.073,1.521,1.597,0.022,0.979,-0.101,0.977,-1.251,0.854,66.667,562480.000,1.000
1.161,4.075,2.282,4.542,4.418,7.509,4.315,4.101,0.021,0.979,-0.101,1.007,-1.190,0.946,66.667,562481.000,1.000
-5.165,2.364,-0.203,3.349,5.705,7.227,7.008,6.545,0.022,0.981,-0.100,0.977,-1.160,1.007,66.667,562482.000,1.000
-11.869,0.143,-3.125,1.419,6.010,5.791,8.722,8.282,0.024,0.980,-0.100,0.977,-1.068,0.854,66.667,562483.000,1.000
-17.912,-1.841,-5.419,-0.727,5.706,4.340,8.507,8.745,0.023,0.981,-0.100,0.946,-1.007,0.854,66.667,562484.000,1.000
-22.733,-3.090,-6.560,-2.586,5.197,3.789,6.392,7.824,0.023,0.982,-0.103,1.007,-1.038,0.977,66.667,562485.000,1.000
-26.635,-3.892,-7.160,-4.252,4.316,3.794,2.907,5.356,0.021,0.982,-0.101,0.977,-0.885,1.068,66.667,562486.000,1.000
-30.270,-5.034,-8.456,-6.291,2.503,3.318,-1.505,1.116,0.021,0.982,-0.103,0.885,-0.824,1.129,66.667,562487.000,1.000
-33.638,-6.728,-10.908,-8.725,-0.067,2.194,-5.506,-3.636,0.021,0.983,-0.102,0.916,-0.885,1.129,66.667,562488.000,1.000
-36.060,-8.293,-13.704,-10.728,-2.223,1.106,-6.850,-6.181,0.020,0.984,-0.101,0.793,-0.793,1.221,66.667,562489.000,1.000
-37.228,-9.181,-15.892,-11.804,-3.359,0.007,-5.243,-5.699,0.020,0.985,-0.100,0.671,-0.641,1.251,66.667,562490.000,1.000
-37.713,-9.668,-17.346,-12.526,-4.369,-2.194,-3.689,-4.853,0.020,0.987,-0.100,0.671,-0.641,1.251,66.667,562491.000,1.000
-38.257,-10.220,-18.293,-13.547,-6.307,-5.969,-5.222,-6.438,0.020,0.986,-0.103,0.488,-0.732,1.251,66.667,562492.000,1.000
-39.050,-10.725,-18.628,-14.670,-8.964,-10.188,-9.749,-10.283,0.021,0.985,-0.103,0.488,-0.702,1.312,66.667,562493.000,1.000
-39.811,-10.692,-18.129,-15.247,-11.273,-13.092,-14.944,-14.125,0.018,0.984,-0.102,0.427,-0.671,1.373,66.667,562494.000,1.000
-40.248,-9.865,-16.918,-14.926,-12.386,-13.585,-18.470,-15.849,0.018,0.986,-0.103,0.305,-0.732,1.373,66.667,562495.000,1.000
-40.337,-8.481,-15.528,-13.902,-12.149,-11.751,-18.900,-14.627,0.018,0.987,-0.104,0.244,-0.702,1.221,66.667,562496.000,1.000
-40.407,-7.221,-14.707,-12.849,-11.156,-9.021,-16.280,-11.138,0.018,0.989,-0.106,0.153,-0.732,1.160,66.667,562497.000,1.000
-40.965,-6.828,-15.027,-12.579,-10.417,-7.547,-12.418,-7.149,0.015,0.988,-0.104,0.122,-0.763,1.221,66.667,562498.000,1.000
-42.131,-7.404,-16.301,-13.347,-10.451,-8.318,-9.543,-4.313,0.015,0.989,-0.106,0.000,-0.854,1.129,66.667,562499.000,1.000
-43.259,-8.138,-17.420,-14.466,-10.622,-9.966,-8.233,-3.117,0.015,0.990,-0.104,-0.122,-0.885,0.977,66.667,562500.000,1.000
-43.377,-7.955,-17.093,-14.895,-9.686,-10.021,-7.225,-3.048,0.015,0.988,-0.099,-0.214,-0.916,1.038,66.667,562501.000,1.000
-42.029,-6.412,-14.850,-14.152,-6.965,-7.132,-5.258,-3.415,0.017,0.985,-0.097,-0.366,-1.007,1.007,66.667,562502.000,1.000
-39.560,-3.929,-11.260,-12.485,-2.822,-1.980,-2.488,-3.670,0.019,0.984,-0.099,-0.488,-1.038,1.099,66.667,562503.000,1.000
-36.777,-1.417,-7.416,-10.457,1.701,3.451,-0.259,-3.540,0.021,0.979,-0.101,-0.488,-1.129,1.038,66.667,562504.000,1.000
-34.518,0.175,-4.304,-8.666,5.383,7.114,-0.070,-3.343,0.024,0.980,-0.101,-0.427,-1.007,1.221,66.667,562505.000,1.000
-33.240,0.348,-2.318,-7.481,7.473,7.927,-2.137,-3.407,0.025,0.982,-0.105,-0.366,-0.977,1.099,66.667,562506.000,1.000
-32.707,-0.597,-1.092,-6.704,8.276,6.340,-4.426,-3.106,0.026,0.986,-0.102,-0.397,-0.885,1.190,66.667,562507.000,1.000
-32.263,-1.873,-0.007,-5.840,8.713,3.889,-4.220,-1.637,0.024,0.986,-0.103,-0.336,-0.793,1.312,66.667,562508.000,1.000
-31.568,-3.061,0.969,-4.876,9.077,1.722,-1.216,0.323,0.023,0.983,-0.106,-0.366,-0.671,1.373,66.667,562509.000,1.000
-30.840,-4.438,1.190,-4.487,8.670,-0.342,1.917,0.821,0.022,0.981,-0.105,-0.305,-0.549,1.495,66.667,562510.000,1.000
-30.288,-6.249,0.226,-5.254,6.880,-2.881,2.434,-1.259,0.027,0.980,-0.105,-0.305,-0.519,1.587,66.667,562511.000,1.000
-29.658,-8.018,-1.440,-6.960,4.163,-5.442,0.127,-4.875,0.028,0.980,-0.103,-0.153,-0.488,1.648,66.667,562512.000,1.000
-28.492,-8.878,-2.785,-8.771,1.771,-6.610,-2.677,-7.705,0.026,0.981,-0.102,-0.061,-0.458,1.709,66.667,562513.000,1.000
-26.667,-8.345,-3.059,-9.848,0.859,-5.181,-2.783,-7.724,0.023,0.980,-0.099,0.031,-0.427,1.526,66.667,562514.000,1.000
-24.605,-6.746,-2.271,-9.799,1.732,-1.213,1.316,-4.316,0.020,0.982,-0.102,0.061,-0.336,1.587,66.667,562515.000,1.000
-22.991,-4.999,-1.103,-8.812,3.700,3.909,7.886,1.317,0.016,0.980,-0.102,-0.122,-0.244,1.465,66.667,562516.000,1.000
-22.215,-3.811,-0.297,-7.284,5.843,8.651,13.733,7.128,0.013,0.980,-0.102,-0.092,-0.275,1.343,66.667,562517.000,1.000
-22.092,-3.109,-0.114,-5.426,7.841,12.413,17.235,11.812,0.010,0.980,-0.100,0.000,-0.488,1.099,66.667,562518.000,1.000
-22.192,-2.471,-0.487,-3.427,9.731,15.243,18.857,14.989,0.011,0.980,-0.099,-0.092,-0.732,0.977,66.667,562519.000,1.000
-22.270,-1.811,-1.380,-1.767,11.233,17.005,19.570,16.386,0.013,0.979,-0.101,-0.031,-0.916,0.763,66.667,562520.000,1.000
-22.218,-1.304,-2.605,-0.857,11.903,17.353,19.906,16.040,0.014,0.979,-0.101,0.031,-1.099,0.671,66.667,562521.000,1.000
-21.944,-1.071,-3.653,-0.612,11.617,16.159,19.872,14.772,0.017,0.981,-0.101,0.031,-0.916,0.549,66.667,562522.000,1.000
-21.555,-1.314,-4.162,-0.795,10.381,13.526,18.818,13.270,0.019,0.983,-0.104,0.092,-0.946,0.427,66.667,562523.000,1.000
-21.216,-2.244,-4.188,-1.344,8.215,9.839,15.968,11.320,0.020,0.983,-0.101,0.092,-0.946,0.549,66.667,562524.000,1.000
-20.669,-3.552,-3.821,-2.044,5.617,6.078,11.732,8.843,0.021,0.983,-0.102,0.092,-0.977,0.549,66.667,562525.000,1.000
-19.283,-4.393,-2.948,-2.388,3.600,3.502,7.913,6.748,0.021,0.983,-0.102,0.061,-0.824,0.580,66.667,562526.000,1.000
-16.576,-4.036,-1.429,-1.945,2.956,2.881,6.300,5.899,0.020,0.987,-0.104,-0.061,-0.946,0.732,66.667,562527.000,1.000
-12.526,-2.365,0.741,-0.630,3.717,4.049,7.159,6.014,0.020,0.987,-0.104,-0.031,-0.885,0.885,66.667,562528.000,1.000
-7.692,0.008,3.333,1.270,5.154,5.837,8.855,6.056,0.021,0.986,-0.104,-0.061,-0.916,1.038,66.667,562529.000,1.000
-3.176,2.018,5.792,3.151,6.212,6.605,9.109,5.272,0.020,0.987,-0.104,-0.092,-0.885,1.190,66.667,562530.000,1.000
-0.200,2.754,7.378,4.304,6.116,5.310,6.916,3.710,0.022,0.988,-0.103,-0.275,-0.854,1.251,66.667,562531.000,1.000
0.554,1.855,7.480,4.156,4.595,1.919,2.666,1.601,0.023,0.989,-0.103,-0.366,-0.732,1.373,66.667,562532.000,1.000
-0.681,-0.450,5.974,2.555,1.814,-2.913,-2.934,-1.198,0.021,0.989,-0.101,-0.366,-0.793,1.556,66.667,562533.000,1.000
-2.885,-3.364,3.475,0.097,-1.363,-7.825,-8.437,-4.202,0.021,0.989,-0.102,-0.427,-0.854,1.587,66.667,562534.000,1.000
-4.860,-5.771,1.064,-2.117,-3.467,-10.777,-11.225,-5.781,0.020,0.991,-0.103,-0.519,-0.793,1.648,66.667,562535.000,1.000
-5.938,-6.892,-0.528,-3.355,-3.503,-10.141,-9.657,-4.924,0.019,0.989,-0.104,-0.488,-0.671,1.617,66.667,562536.000,1.000
-6.154,-6.682,-1.359,-3.674,-1.759,-5.950,-5.049,-2.536,0.019,0.989,-0.103,-0.488,-0.763,1.709,66.667,562537.000,1.000
-5.775,-5.457,-1.765,-3.436,0.810,0.323,-0.113,-0.099,0.020,0.986,-0.103,-0.458,-0.763,1.801,66.667,562538.000,1.000
-4.851,-3.416,-1.746,-2.778,3.637,7.092,3.944,1.987,0.020,0.985,-0.102,-0.519,-0.763,1.770,66.667,562539.000,1.000
-3.257,-0.693,-1.036,-1.672,6.657,13.287,7.705,4.185,0.020,0.985,-0.101,-0.580,-0.854,1.709,66.667,562540.000,1.000
-1.008,2.392,0.452,-0.184,9.736,17.972,11.604,6.798,0.020,0.986,-0.099,-0.580,-0.793,1.648,66.667,562541.000,1.000
1.683,5.403,2.535,1.573,12.501,20.354,15.196,9.841,0.022,0.984,-0.101,-0.580,-0.885,1.617,66.667,562542.000,1.000
4.524,7.896,4.882,3.489,14.484,20.276,18.068,13.168,0.023,0.982,-0.100,-0.610,-0.854,1.465,66.667,562543.000,1.000
7.046,9.236,6.843,5.128,14.937,17.986,19.687,15.664,0.023,0.982,-0.099,-0.610,-0.885,1.465,66.667,562544.000,1.000
8.554,8.653,7.466,5.642,12.912,13.673,18.496,15.118,0.023,0.981,-0.101,-0.458,-0.763,1.343,66.667,562545.000,1.000
8.591,5.948,6.219,4.519,8.251,7.843,13.057,10.183,0.025,0.981,-0.103,-0.458,-0.824,1.373,66.667,562546.000,1.000
7.497,2.055,3.717,2.360,2.292,1.630,4.112,2.161,0.025,0.980,-0.103,-0.366,-0.732,1.251,66.667,562547.000,1.000
6.349,-1.288,1.491,0.654,-2.759,-3.666,-5.311,-5.557,0.025,0.981,-0.103,-0.183,-0.641,1.282,66.667,562548.000,1.000
6.300,-2.550,0.989,0.776,-5.073,-7.034,-11.470,-9.461,0.024,0.980,-0.100,-0.092,-0.641,1.190,66.667,562549.000,1.000
7.901,-1.291,2.720,3.111,-4.119,-8.124,-12.133,-7.873,0.023,0.981,-0.100,0.092,-0.610,1.129,66.667,562550.000,1.000
10.866,1.692,6.063,6.845,-0.877,-7.532,-8.289,-1.991,0.024,0.980,-0.099,0.183,-0.519,1.129,66.667,562551.000,1.000
14.298,4.963,9.738,10.456,2.861,-6.258,-3.312,4.843,0.023,0.981,-0.099,0.244,-0.519,0.977,66.667,562552.000,1.000
17.253,7.316,12.554,12.583,5.615,-4.777,-0.184,9.261,0.024,0.980,-0.099,0.305,-0.549,0.977,66.667,562553.000,1.000
19.307,8.372,13.988,12.752,6.896,-3.001,0.269,9.849,0.022,0.980,-0.097,0.336,-0.580,0.977,66.667,562554.000,1.000
20.675,8.512,14.265,11.540,7.133,-0.964,-0.652,7.765,0.020,0.980,-0.098,0.366,-0.610,0.854,66.667,562555.000,1.000
21.737,8.367,13.938,10.045,7.105,1.048,-0.622,5.572,0.020,0.981,-0.099,0.458,-0.610,0.916,66.667,562556.000,1.000
22.538,8.400,13.390,9.038,7.216,2.829,1.696,5.100,0.019,0.984,-0.099,0.458,-0.641,0.763,66.667,562557.000,1.000
22.776,8.714,12.647,8.469,7.108,4.104,5.035,6.089,0.018,0.983,-0.098,0.488,-0.671,0.793,66.667,562558.000,1.000
22.216,9.084,11.591,7.787,6.092,4.405,6.517,6.684,0.017,0.983,-0.097,0.488,-0.763,0.732,66.667,562559.000,1.000
21.096,9.310,10.409,6.772,4.093,3.674,4.581,5.413,0.019,0.983,-0.099,0.366,-0.763,0.732,66.667,562560.000,1.000
20.177,9.617,9.810,6.002,2.077,2.744,0.694,2.841,0.018,0.984,-0.098,0.397,-0.854,0.702,66.667,562561.000,1.000
20.342,10.626,10.706,6.470,1.501,2.910,-1.770,1.262,0.016,0.986,-0.098,0.397,-0.946,0.702,66.667,562562.000,1.000
21.936,12.691,13.414,8.649,3.111,4.745,-0.601,2.561,0.017,0.986,-0.100,0.519,-1.038,0.671,66.667,562563.000,1.000
24.255,15.092,16.983,11.747,5.967,7.133,3.032,6.226,0.018,0.985,-0.098,0.519,-1.038,0.793,66.667,562564.000,1.000
25.957,16.311,19.653,14.183,8.046,8.000,6.111,10.091,0.017,0.987,-0.098,0.366,-1.160,0.885,66.667,562565.000,1.000
26.172,15.375,20.238,14.965,8.079,6.318,7.194,12.766,0.016,0.986,-0.100,0.397,-1.251,0.824,66.667,562566.000,1.000
24.865,12.405,18.633,14.075,6.162,2.781,6.882,13.819,0.016,0.985,-0.098,0.305,-1.404,0.702,66.667,562567.000,1.000
22.305,7.987,15.187,11.777,2.766,-1.459,5.478,12.275,0.016,0.985,-0.101,0.244,-1.434,0.702,66.667,562568.000,1.000
18.899,2.878,10.500,8.462,-1.737,-5.739,2.079,7.104,0.014,0.983,-0.101,0.183,-1.526,0.702,66.667,562569.000,1.000
15.435,-1.769,5.694,5.007,-6.570,-9.508,-3.788,-0.979,0.015,0.982,-0.100,0.153,-1.526,0.763,66.667,562570.000,1.000
12.825,-4.733,2.082,2.523,-10.434,-11.889,-10.672,-9.361,0.014,0.983,-0.097,0.183,-1.617,0.732,66.667,562571.000,1.000
11.420,-5.551,0.378,1.572,-12.211,-12.084,-15.792,-15.185,0.014,0.982,-0.101,0.214,-1.709,0.763,66.667,562572.000,1.000
10.861,-4.745,0.396,1.905,-11.522,-10.013,-16.696,-16.693,0.017,0.983,-0.097,0.244,-1.770,0.793,66.667,562573.000,1.000
10.673,-3.162,1.520,2.987,-8.614,-6.264,-12.377,-13.390,0.019,0.983,-0.098,0.183,-1.709,0.854,66.667,562574.000,1.000
10.681,-1.430,3.080,4.381,-4.292,-1.815,-4.084,-6.310,0.019,0.985,-0.101,0.275,-1.709,0.977,66.667,562575.000,1.000
10.756,-0.161,4.236,5.465,-0.166,1.820,4.397,1.550,0.021,0.985,-0.097,0.214,-1.709,1.038,66.667,562576.000,1.000
10.636,-0.067,4.093,5.430,1.861,2.888,8.664,6.613,0.022,0.985,-0.097,0.031,-1.587,1.221,66.667,562577.000,1.000
10.272,-1.387,2.425,4.050,1.005,0.808,6.952,7.457,0.021,0.985,-0.098,-0.061,-1.526,1.190,66.667,562578.000,1.000
10.026,-3.472,0.061,2.151,-1.719,-2.929,1.314,5.652,0.021,0.986,-0.098,-0.031,-1.495,1.221,66.667,562579.000,1.000
10.287,-5.190,-1.704,1.016,-4.302,-5.763,-4.168,3.961,0.023,0.985,-0.099,-0.031,-1.617,1.312,66.667,562580.000,1.000
11.046,-5.748,-2.057,1.355,-5.204,-5.924,-6.258,3.982,0.023,0.984,-0.100,-0.061,-1.587,1.282,66.667,562581.000,1.000
11.854,-5.235,-1.219,2.760,-4.386,-3.626,-4.797,4.860,0.023,0.984,-0.103,-0.092,-1.373,1.343,66.667,562582.000,1.000
12.141,-4.432,-0.192,4.099,-3.089,-0.711,-2.480,4.392,0.020,0.985,-0.101,-0.244,-1.221,1.404,66.667,562583.000,1.000
11.688,-3.976,0.133,4.479,-2.489,0.987,-1.896,1.690,0.022,0.985,-0.099,-0.305,-1.282,1.434,66.667,562584.000,1.000
10.975,-3.764,-0.243,3.876,-2.678,0.869,-3.120,-1.814,0.023,0.985,-0.100,-0.336,-1.190,1.434,66.667,562585.000,1.000
11.056,-3.178,-0.468,3.016,-2.874,-0.550,-4.375,-3.916,0.022,0.985,-0.098,-0.275,-1.099,1.434,66.667,562586.000,1.000
12.837,-1.738,0.406,2.827,-2.186,-2.256,-3.884,-3.229,0.023,0.983,-0.102,-0.366,-0.946,1.312,66.667,562587.000,1.000
16.325,0.516,2.660,3.940,-0.043,-3.161,-0.448,0.595,0.022,0.984,-0.101,-0.336,-0.916,1.251,66.667,562588.000,1.000
20.483,3.014,5.677,6.279,3.496,-2.639,6.057,6.680,0.021,0.984,-0.098,-0.336,-0.885,1.190,66.667,562589.000,1.000
23.719,4.841,8.234,8.884,7.344,-1.210,13.140,12.275,0.022,0.982,-0.097,-0.397,-0.854,1.190,66.667,562590.000,1.000
24.869,5.336,9.326,10.576,9.913,-0.150,16.508,14.009,0.021,0.981,-0.095,-0.336,-0.702,1.221,66.667,562591.000,1.000
24.067,4.844,9.030,11.100,10.626,0.078,14.329,11.146,0.023,0.981,-0.098,-0.336,-0.671,1.099,66.667,562592.000,1.000
22.495,4.494,8.288,11.189,10.311,0.479,9.112,6.417,0.022,0.980,-0.102,-0.244,-0.519,1.099,66.667,562593.000,1.000
21.234,5.112,7.839,11.470,9.949,2.298,4.663,3.131,0.021,0.979,-0.100,-0.244,-0.549,1.099,66.667,562594.000,1.000
20.604,6.649,7.732,11.830,9.759,5.659,3.014,2.710,0.023,0.979,-0.099,-0.183,-0.519,1.068,66.667,562595.000,1.000
20.355,8.487,7.654,11.758,9.447,9.531,4.149,4.735,0.023,0.979,-0.100,-0.031,-0.458,0.977,66.667,562596.000,1.000
20.103,9.957,7.382,10.949,8.727,12.643,6.856,7.894,0.021,0.982,-0.098,-0.031,-0.397,1.007,66.667,562597.000,1.000
19.677,10.765,7.023,9.624,7.679,14.424,9.778,10.842,0.021,0.983,-0.099,-0.092,-0.397,0.946,66.667,562598.000,1.000
19.232,11.144,6.981,8.475,6.840,15.329,12.479,13.012,0.021,0.983,-0.097,-0.061,-0.305,0.977,66.667,562599.000,1.000
19.036,11.557,7.568,8.183,6.753,16.243,15.373,14.688,0.020,0.985,-0.097,-0.061,-0.244,0.946,66.667,562600.000,1.000
19.113,12.087,8.565,8.801,7.201,17.202,18.278,16.038,0.021,0.986,-0.099,-0.061,-0.366,0.916,66.667,562601.000,1.000
19.208,12.285,9.282,9.614,7.116,16.976,19.563,16.344,0.020,0.986,-0.097,-0.153,-0.366,1.038,66.667,562602.000,1.000
19.254,11.847,9.273,9.826,5.607,14.481,17.290,14.612,0.020,0.987,-0.097,-0.153,-0.366,1.068,66.667,562603.000,1.000
19.653,11.159,8.841,9.334,2.963,10.175,11.148,10.744,0.018,0.985,-0.099,-0.183,-0.366,1.007,66.667,562604.000,1.000
20.821,10.847,8.614,8.639,0.360,5.573,3.029,5.686,0.019,0.984,-0.101,-0.244,-0.305,0.916,66.667,562605.000,1.000
22.536,10.944,8.726,8.064,-1.306,1.769,-4.373,0.619,0.019,0.984,-0.098,-0.122,-0.366,0.946,66.667,562606.000,1.000
23.797,10.679,8.515,7.227,-2.258,-1.397,-9.600,-3.958,0.019,0.983,-0.098,-0.092,-0.488,0.946,66.667,562607.000,1.000
23.436,9.145,7.075,5.360,-3.546,-4.826,-13.106,-8.546,0.020,0.984,-0.100,-0.153,-0.488,0.977,66.667,562608.000,1.000
21.091,6.317,4.215,2.279,-5.740,-8.736,-15.780,-13.525,0.020,0.983,-0.103,-0.153,-0.549,1.068,66.667,562609.000,1.000
17.674,3.383,0.873,-1.102,-8.080,-11.841,-17.316,-17.810,0.020,0.984,-0.100,-0.244,-0.427,1.007,66.667,562610.000,1.000
14.707,1.838,-1.607,-3.434,-9.222,-12.374,-16.615,-19.432,0.020,0.985,-0.098,-0.183,-0.427,1.068,66.667,562611.000,1.000
13.123,2.196,-2.560,-4.010,-8.526,-9.812,-12.926,-17.108,0.019,0.982,-0.098,-0.153,-0.549,1.068,66.667,562612.000,1.000
12.752,3.698,-2.277,-3.097,-6.343,-5.305,-6.179,-10.978,0.019,0.985,-0.099,-0.214,-0.641,1.007,66.667,562613.000,1.000
12.760,5.013,-1.538,-1.582,-3.687,-0.941,2.273,-2.883,0.019,0.986,-0.102,-0.183,-0.702,0.977,66.667,562614.000,1.000
12.279,5.131,-1.073,-0.471,-1.834,1.288,9.071,3.955,0.020,0.984,-0.103,-0.183,-0.732,1.038,66.667,562615.000,1.000
10.841,3.983,-1.186,-0.370,-1.557,0.699,10.890,6.739,0.019,0.983,-0.100,-0.092,-0.763,1.068,66.667,562616.000,1.000
8.537,2.410,-1.689,-1.235,-2.566,-1.630,7.008,4.807,0.018,0.985,-0.100,-0.092,-0.763,0.916,66.667,562617.000,1.000
5.851,1.443,-2.211,-2.586,-3.908,-3.922,-0.651,-0.348,0.017,0.984,-0.099,-0.122,-0.793,0.824,66.667,562618.000,1.000
3.309,1.582,-2.486,-3.846,-4.644,-5.002,-8.741,-6.012,0.016,0.984,-0.102,0.000,-0.854,0.916,66.667,562619.000,1.000
1.253,2.647,-2.371,-4.503,-4.145,-4.538,-13.822,-9.457,0.019,0.983,-0.098,0.031,-0.916,0.977,66.667,562620.000,1.000
-0.095,4.186,-1.662,-4.126,-2.093,-2.548,-13.889,-9.111,0.019,0.984,-0.099,0.031,-1.007,0.977,66.667,562621.000,1.000
-0.491,5.985,-0.003,-2.363,1.562,0.924,-9.065,-4.966,0.019,0.983,-0.097,0.092,-0.946,0.854,66.667,562622.000,1.000
0.098,7.946,2.633,0.677,6.244,5.396,-1.406,1.509,0.019,0.985,-0.097,0.061,-0.977,0.977,66.667,562623.000,1.000
1.052,9.394,5.213,3.910,10.249,9.236,5.497,7.572,0.019,0.984,-0.097,-0.031,-0.916,1.007,66.667,562624.000,1.000
1.357,9.109,6.018,5.648,11.390,10.189,7.959,10.191,0.018,0.984,-0.097,0.000,-0.977,1.068,66.667,562625.000,1.000
0.532,6.558,4.156,4.947,8.822,7.368,4.802,7.992,0.017,0.985,-0.100,0.000,-1.038,1.099,66.667,562626.000,1.000
-0.956,2.696,0.465,2.455,3.986,2.344,-1.531,2.498,0.019,0.984,-0.098,0.061,-1.068,1.038,66.667,562627.000,1.000
-2.255,-0.771,-3.248,-0.202,-0.534,-2.279,-7.170,-3.045,0.018,0.984,-0.097,0.031,-1.099,1.038,66.667,562628.000,1.000
-2.836,-2.585,-5.545,-1.713,-2.896,-4.884,-9.936,-6.286,0.018,0.984,-0.097,0.061,-1.160,1.007,66.667,562629.000,1.000
-2.706,-2.399,-6.014,-1.788,-2.830,-5.232,-9.979,-7.026,0.018,0.983,-0.096,0.092,-1.221,1.099,66.667,562630.000,1.000
-2.243,-0.715,-5.191,-1.023,-1.289,-3.896,-8.341,-6.318,0.018,0.985,-0.097,0.092,-1.221,1.068,66.667,562631.000,1.000
-1.865,1.292,-4.114,-0.317,0.356,-1.854,-5.782,-5.065,0.016,0.983,-0.100,0.122,-1.312,1.129,66.667,562632.000,1.000
-1.733,2.350,-3.678,-0.268,1.083,-0.091,-2.648,-3.547,0.019,0.982,-0.099,0.183,-1.343,1.190,66.667,562633.000,1.000
-1.761,1.814,-4.135,-0.940,0.572,0.792,0.797,-1.808,0.019,0.983,-0.097,0.214,-1.312,1.129,66.667,562634.000,1.000
-1.888,-0.149,-5.161,-2.066,-0.896,0.683,4.163,-0.043,0.019,0.982,-0.102,0.153,-1.282,1.190,66.667,562635.000,1.000
-2.154,-2.843,-6.278,-3.380,-2.786,-0.058,6.787,1.319,0.019,0.982,-0.100,0.275,-1.282,1.282,66.667,562636.000,1.000
-2.448,-5.334,-7.121,-4.809,-4.686,-0.979,7.438,1.564,0.021,0.984,-0.099,0.244,-1.251,1.221,66.667,562637.000,1.000
-2.370,-6.755,-7.497,-6.415,-6.493,-2.117,4.743,0.024,0.019,0.981,-0.102,0.153,-1.251,1.312,66.667,562638.000,1.000
-1.566,-6.651,-7.380,-8.169,-8.195,-3.726,-1.293,-3.116,0.021,0.982,-0.103,0.244,-1.221,1.251,66.667,562639.000,1.000
-0.106,-5.101,-6.839,-9.751,-9.534,-5.428,-8.457,-6.546,0.021,0.980,-0.101,0.305,-1.160,1.373,66.667,562640.000,1.000
1.544,-2.556,-5.926,-10.601,-9.975,-6.204,-13.449,-8.599,0.021,0.980,-0.101,0.366,-1.160,1.343,66.667,562641.000,1.000
2.897,0.388,-4.602,-10.175,-9.027,-5.146,-13.842,-8.249,0.023,0.981,-0.100,0.397,-1.129,1.312,66.667,562642.000,1.000
3.852,3.263,-2.674,-8.204,-6.544,-1.968,-9.246,-5.484,0.024,0.983,-0.101,0.458,-1.038,1.373,66.667,562643.000,1.000
4.759,5.851,0.068,-4.895,-2.846,2.820,-1.325,-1.210,0.023,0.982,-0.102,0.549,-0.824,1.373,66.667,562644.000,1.000
5.931,7.947,3.413,-1.090,1.203,7.824,6.912,3.006,0.025,0.986,-0.101,0.641,-0.885,1.404,66.667,562645.000,1.000
7.207,9.226,6.571,2.015,4.414,11.294,12.451,5.637,0.025,0.987,-0.100,0.549,-0.916,1.434,66.667,562646.000,1.000
8.113,9.529,8.649,3.598,5.894,12.183,13.702,5.878,0.024,0.987,-0.102,0.397,-0.916,1.434,66.667,562647.000,1.000
8.198,9.000,9.134,3.509,5.375,10.570,10.794,3.505,0.022,0.987,-0.100,0.275,-0.854,1.434,66.667,562648.000,1.000
7.177,7.888,7.965,2.042,3.186,7.439,5.175,-1.104,0.021,0.986,-0.098,0.122,-0.824,1.373,66.667,562649.000,1.000
5.087,6.445,5.500,-0.174,0.221,4.392,-0.708,-6.372,0.020,0.985,-0.100,0.092,-0.732,1.404,66.667,562650.000,1.000
2.361,4.904,2.387,-2.260,-2.447,2.838,-4.453,-9.909,0.021,0.983,-0.104,0.153,-0.732,1.129,66.667,562651.000,1.000
-0.354,3.490,-0.637,-3.436,-4.129,3.024,-4.992,-10.054,0.021,0.981,-0.103,0.122,-0.610,1.007,66.667,562652.000,1.000
-2.346,2.598,-2.807,-3.335,-4.631,4.284,-2.667,-7.112,0.021,0.983,-0.103,0.122,-0.702,0.916,66.667,562653.000,1.000
-2.863,2.830,-3.343,-2.031,-4.011,6.098,1.378,-3.121,0.021,0.983,-0.101,0.061,-0.763,0.763,66.667,562654.000,1.000
-1.284,4.626,-1.715,0.167,-2.483,8.352,5.462,-0.249,0.021,0.982,-0.101,0.092,-0.793,0.641,66.667,562655.000,1.000
2.382,7.734,1.855,2.829,-0.518,10.823,7.849,0.570,0.021,0.983,-0.101,0.000,-0.671,0.671,66.667,562656.000,1.000
7.082,10.975,6.097,5.300,1.083,12.711,7.621,-0.280,0.022,0.979,-0.099,0.000,-0.580,0.549,66.667,562657.000,1.000
10.943,12.637,9.080,6.691,1.322,12.616,4.843,-1.804,0.023,0.976,-0.100,-0.092,-0.610,0.610,66.667,562658.000,1.000
12.250,11.456,9.260,6.266,-0.498,9.374,0.199,-3.168,0.022,0.974,-0.099,0.061,-0.610,0.763,66.667,562659.000,1.000
10.485,7.514,6.521,4.023,-4.074,3.224,-4.837,-4.017,0.023,0.973,-0.101,0.153,-0.458,0.702,66.667,562660.000,1.000
6.633,2.303,2.309,0.910,-7.946,-3.994,-8.169,-4.263,0.023,0.974,-0.102,0.214,-0.427,0.793,66.667,562661.000,1.000
2.488,-2.192,-1.322,-1.737,-10.432,-9.930,-8.750,-4.085,0.019,0.975,-0.101,0.336,-0.427,0.916,66.667,562662.000,1.000
-0.435,-4.585,-2.957,-3.044,-10.738,-12.932,-7.577,-4.009,0.017,0.978,-0.101,0.305,-0.397,0.916,66.667,562663.000,1.000
-1.470,-4.489,-2.287,-2.806,-9.002,-12.544,-6.040,-3.959,0.017,0.980,-0.103,0.183,-0.397,1.007,66.667,562664.000,1.000
-0.826,-2.433,0.031,-1.338,-5.934,-9.717,-4.759,-3.115,0.018,0.983,-0.103,0.275,-0.427,1.099,66.667,562665.000,1.000
0.562,0.299,2.634,0.439,-2.857,-6.581,-4.535,-1.752,0.019,0.985,-0.103,0.153,-0.549,1.129,66.667,562666.000,1.000
1.515,2.291,4.150,1.334,-1.158,-5.001,-6.017,-1.483,0.016,0.985,-0.103,0.092,-0.641,1.282,66.667,562667.000,1.000
1.383,2.916,4.161,0.901,-1.099,-5.039,-8.110,-2.839,0.015,0.985,-0.106,0.122,-0.732,1.373,66.667,562668.000,1.000
0.389,2.638,3.387,-0.136,-1.604,-5.182,-8.553,-4.334,0.013,0.988,-0.104,0.000,-0.824,1.404,66.667,562669.000,1.000
-0.822,2.317,2.784,-0.734,-1.419,-4.101,-6.294,-4.330,0.012,0.989,-0.102,-0.061,-0.946,1.465,66.667,562670.000,1.000
-1.849,2.370,2.643,-0.556,-0.170,-1.831,-2.299,-2.522,0.009,0.993,-0.100,-0.244,-1.160,1.556,66.667,562671.000,1.000
-2.738,2.549,2.538,-0.079,1.642,0.584,1.699,0.394,0.007,0.996,-0.099,-0.427,-1.312,1.556,66.667,562672.000,1.000
-3.813,2.221,1.751,-0.132,3.076,1.933,4.068,3.135,0.009,0.997,-0.099,-0.732,-1.495,1.526,66.667,562673.000,1.000
-5.348,0.872,-0.203,-1.327,3.241,1.446,3.580,4.149,0.008,0.999,-0.099,-1.007,-1.740,1.465,66.667,562674.000,1.000
-7.145,-1.299,-2.982,-3.426,2.122,-0.588,0.609,3.056,0.009,0.997,-0.101,-1.251,-1.923,1.495,66.667,562675.000,1.000
-8.414,-3.292,-5.365,-5.262,0.860,-2.754,-2.424,1.530,0.014,0.998,-0.100,-1.434,-2.167,1.434,66.667,562676.000,1.000
-8.366,-4.075,-6.154,-5.648,0.738,-3.619,-3.160,1.637,0.017,0.997,-0.100,-1.678,-2.289,1.465,66.667,562677.000,1.000
-7.101,-3.463,-5.217,-4.362,1.996,-2.910,-1.541,3.680,0.020,0.994,-0.100,-1.831,-2.350,1.495,66.667,562678.000,1.000
-5.829,-2.309,-3.645,-2.305,3.713,-1.459,0.642,6.047,0.022,0.993,-0.100,-1.984,-2.533,1.434,66.667,562679.000,1.000
-6.030,-1.863,-2.895,-0.824,4.611,-0.346,1.739,6.718,0.024,0.994,-0.100,-2.136,-2.411,1.587,66.667,562680.000,1.000
-8.286,-2.826,-3.679,-0.769,3.946,-0.252,1.191,4.851,0.024,0.992,-0.098,-2.167,-2.411,1.740,66.667,562681.000,1.000
-11.897,-4.940,-5.549,-2.010,1.879,-1.370,-0.851,1.141,0.026,0.988,-0.099,-2.197,-2.411,1.740,66.667,562682.000,1.000
-15.425,-7.330,-7.366,-3.650,-0.710,-3.470,-3.866,-2.954,0.027,0.984,-0.098,-2.075,-2.380,1.862,66.667,562683.000,1.000
-17.500,-9.060,-8.057,-4.591,-2.639,-5.858,-6.859,-5.904,0.026,0.981,-0.100,-1.953,-2.319,1.770,66.667,562684.000,1.000
-17.471,-9.557,-7.189,-4.157,-3.017,-7.583,-8.576,-6.542,0.027,0.980,-0.097,-1.862,-2.197,1.831,66.667,562685.000,1.000
-15.713,-8.861,-5.179,-2.539,-1.808,-7.999,-8.244,-4.784,0.026,0.979,-0.096,-1.678,-2.197,1.831,66.667,562686.000,1.000
-13.284,-7.491,-2.967,-0.587,0.204,-7.065,-6.149,-1.860,0.026,0.979,-0.095,-1.556,-2.106,1.709,66.667,562687.000,1.000
-11.059,-5.880,-1.269,1.043,2.230,-4.945,-3.001,0.957,0.024,0.977,-0.097,-1.282,-1.953,1.648,66.667,562688.000,1.000
-9.240,-4.000,-0.127,2.375,4.091,-1.692,0.904,3.505,0.024,0.977,-0.098,-1.190,-1.923,1.526,66.667,562689.000,1.000
-7.797,-1.800,0.690,3.600,5.778,2.142,5.046,5.910,0.023,0.976,-0.097,-1.007,-1.892,1.404,66.667,562690.000,1.000
-7.032,0.235,1.123,4.515,6.938,5.074,8.235,7.653,0.024,0.976,-0.097,-0.885,-1.709,1.282,66.667,562691.000,1.000
-7.319,1.309,0.935,4.805,7.243,5.700,9.758,8.347,0.022,0.977,-0.094,-0.610,-1.648,1.190,66.667,562692.000,1.000
-8.527,0.923,0.065,4.418,6.723,3.790,9.624,8.175,0.023,0.976,-0.096,-0.458,-1.556,1.068,66.667,562693.000,1.000
-10.070,-0.887,-1.402,3.409,5.435,0.099,7.556,6.916,0.023,0.976,-0.095,-0.275,-1.587,1.007,66.667,562694.000,1.000
-11.413,-3.615,-3.332,1.866,3.393,-4.302,3.216,3.884,0.022,0.977,-0.094,-0.031,-1.465,0.763,66.667,562695.000,1.000
-12.348,-6.392,-5.454,0.161,0.987,-8.207,-2.552,-0.661,0.024,0.978,-0.095,0.122,-1.343,0.793,66.667,562696.000,1.000
-12.968,-8.274,-7.382,-1.123,-0.946,-10.445,-7.419,-4.897,0.022,0.979,-0.095,0.153,-1.312,0.732,66.667,562697.000,1.000
-13.521,-8.720,-8.824,-1.617,-1.591,-10.429,-8.528,-6.406,0.022,0.979,-0.095,0.153,-1.221,0.610,66.667,562698.000,1.000
-14.268,-7.911,-9.746,-1.416,-0.699,-8.575,-4.284,-3.755,0.021,0.979,-0.094,0.183,-1.160,0.519,66.667,562699.000,1.000
-15.407,-6.675,-10.435,-1.048,1.028,-6.106,3.671,1.955,0.019,0.980,-0.096,0.275,-1.129,0.427,66.667,562700.000,1.000
-17.017,-5.956,-11.341,-1.218,2.186,-4.247,10.590,7.059,0.019,0.980,-0.095,0.305,-1.160,0.458,66.667,562701.000,1.000
-18.919,-6.196,-12.661,-2.339,1.713,-3.597,12.038,7.999,0.020,0.981,-0.098,0.275,-1.160,0.519,66.667,562702.000,1.000
-20.506,-7.078,-13.986,-4.097,-0.209,-4.164,7.282,4.266,0.021,0.981,-0.097,0.275,-1.129,0.549,66.667,562703.000,1.000
-20.687,-7.512,-14.167,-5.267,-2.037,-5.111,-0.224,-1.089,0.021,0.980,-0.095,0.336,-1.221,0.549,66.667,562704.000,1.000
-18.320,-6.049,-11.764,-4.246,-1.678,-4.530,-5.043,-3.546,0.020,0.980,-0.095,0.275,-1.221,0.519,66.667,562705.000,1.000
-13.254,-2.091,-6.385,-0.478,1.733,-1.020,-3.783,-0.883,0.016,0.979,-0.099,0.214,-1.129,0.549,66.667,562706.000,1.000
-6.932,3.154,0.446,4.699,6.749,4.369,2.284,4.843,0.017,0.980,-0.097,0.275,-1.221,0.732,66.667,562707.000,1.000
-1.686,7.360,6.143,8.974,10.726,8.790,8.964,9.598,0.016,0.980,-0.099,0.214,-1.282,0.824,66.667,562708.000,1.000
0.544,8.586,8.603,10.515,11.624,9.765,12.284,10.535,0.014,0.983,-0.101,0.214,-1.251,0.885,66.667,562709.000,1.000
-0.958,6.187,7.085,8.694,8.885,6.460,10.141,7.162,0.013,0.984,-0.101,0.122,-1.312,0.977,66.667,562710.000,1.000
-5.347,1.136,2.521,4.382,3.834,0.242,3.861,1.794,0.015,0.983,-0.099,0.092,-1.434,1.007,66.667,562711.000,1.000
-10.533,-4.257,-2.778,-0.291,-0.651,-5.470,-1.515,-1.270,0.016,0.985,-0.097,0.031,-1.465,1.129,66.667,562712.000,1.000
-14.417,-7.712,-6.515,-3.321,-2.117,-7.375,-1.477,0.662,0.016,0.986,-0.096,-0.092,-1.495,1.129,66.667,562713.000,1.000
-16.244,-8.685,-8.078,-4.384,-0.709,-5.225,3.018,5.698,0.016,0.987,-0.098,-0.183,-1.678,1.251,66.667,562714.000,1.000
-16.747,-8.569,-8.676,-4.794,1.110,-2.007,6.759,9.192,0.017,0.986,-0.101,-0.244,-1.709,1.404,66.667,562715.000,1.000
-17.098,-9.140,-9.833,-5.928,1.010,-0.910,5.851,8.319,0.017,0.985,-0.102,-0.336,-1.648,1.404,66.667,562716.000,1.000
-18.009,-11.126,-12.145,-8.052,-1.442,-2.695,0.547,3.996,0.017,0.987,-0.097,-0.427,-1.678,1.526,66.667,562717.000,1.000
-19.633,-14.135,-15.303,-10.547,-5.106,-5.948,-6.159,-0.943,0.017,0.990,-0.097,-0.488,-1.770,1.587,66.667,562718.000,1.000
-21.692,-17.227,-18.557,-12.613,-8.402,-8.777,-10.936,-4.136,0.016,0.989,-0.098,-0.549,-1.770,1.648,66.667,562719.000,1.000
-23.477,-19.394,-21.010,-13.692,-10.237,-10.102,-12.130,-4.827,0.016,0.990,-0.099,-0.580,-1.831,1.678,66.667,562720.000,1.000
-24.076,-19.988,-21.959,-13.674,-10.519,-10.068,-10.811,-3.961,0.017,0.991,-0.097,-0.549,-1.892,1.740,66.667,562721.000,1.000
-22.840,-18.974,-21.159,-12.831,-9.840,-9.382,-9.298,-3.022,0.016,0.991,-0.095,-0.580,-1.953,1.892,66.667,562722.000,1.000
-19.777,-16.753,-18.771,-11.435,-8.663,-8.271,-8.506,-2.489,0.015,0.990,-0.092,-0.671,-1.953,1.801,66.667,562723.000,1.000
-15.543,-13.761,-15.193,-9.577,-6.998,-6.258,-7.417,-1.755,0.018,0.986,-0.092,-0.824,-1.892,1.770,66.667,562724.000,1.000
-11.128,-10.363,-11.031,-7.388,-4.832,-2.954,-4.858,-0.262,0.020,0.982,-0.094,-0.885,-2.014,1.862,66.667,562725.000,1.000
-7.543,-7.178,-7.175,-5.344,-2.736,0.877,-1.291,1.541,0.021,0.981,-0.094,-0.854,-1.953,1.831,66.667,562726.000,1.000
-5.610,-5.194,-4.667,-4.273,-1.951,3.283,1.007,2.013,0.024,0.979,-0.098,-0.793,-1.892,1.770,66.667,562727.000,1.000
-5.602,-5.132,-4.097,-4.836,-3.513,2.688,-0.233,-0.591,0.023,0.980,-0.099,-0.763,-1.923,1.770,66.667,562728.000,1.000
-6.921,-6.698,-5.010,-6.838,-7.095,-0.615,-4.909,-6.172,0.024,0.979,-0.098,-0.549,-1.862,1.709,66.667,562729.000,1.000
-8.303,-8.690,-6.073,-9.112,-10.924,-4.818,-10.164,-12.169,0.026,0.983,-0.098,-0.488,-1.770,1.709,66.667,562730.000,1.000
-8.562,-9.782,-5.972,-10.205,-12.962,-7.952,-12.470,-15.212,0.026,0.982,-0.098,-0.397,-1.617,1.770,66.667,562731.000,1.000
-7.283,-9.232,-4.249,-9.277,-12.224,-8.787,-10.191,-13.592,0.026,0.981,-0.100,-0.275,-1.556,1.648,66.667,562732.000,1.000
-5.024,-7.213,-1.562,-6.680,-9.351,-7.289,-4.809,-8.734,0.030,0.982,-0.099,-0.305,-1.404,1.892,66.667,562733.000,1.000
-2.989,-4.710,0.709,-3.788,-6.101,-4.523,0.499,-4.175,0.029,0.982,-0.101,-0.214,-1.251,1.953,66.667,562734.000,1.000
-2.301,-2.921,1.324,-2.056,-4.032,-1.697,3.840,-2.511,0.024,0.982,-0.096,-0.183,-1.068,1.862,66.667,562735.000,1.000
-3.388,-2.652,-0.171,-2.188,-3.658,0.590,5.306,-3.768,0.021,0.982,-0.093,-0.275,-0.916,1.709,66.667,562736.000,1.000
-5.858,-3.943,-3.257,-3.919,-4.500,2.279,5.458,-6.186,0.020,0.984,-0.093,-0.336,-0.885,1.556,66.667,562737.000,1.000
-8.592,-5.839,-6.483,-6.111,-5.340,3.740,5.079,-7.332,0.017,0.983,-0.092,-0.366,-0.916,1.251,66.667,562738.000,1.000
-10.303,-6.936,-8.171,-7.438,-4.985,5.522,5.080,-5.692,0.016,0.981,-0.098,-0.336,-0.854,1.038,66.667,562739.000,1.000
-10.500,-6.641,-7.712,-7.495,-3.491,7.313,4.856,-2.477,0.015,0.979,-0.099,-0.336,-0.854,0.793,66.667,562740.000,1.000
-9.707,-5.515,-5.862,-6.946,-2.087,7.709,2.622,-0.629,0.015,0.977,-0.096,-0.366,-0.916,0.702,66.667,562741.000,1.000
-8.734,-4.443,-3.774,-6.559,-1.688,5.706,-1.708,-1.536,0.016,0.977,-0.095,-0.183,-1.007,0.671,66.667,562742.000,1.000
-8.097,-4.063,-2.219,-6.553,-2.213,1.478,-6.153,-3.844,0.017,0.978,-0.097,-0.031,-1.099,0.641,66.667,562743.000,1.000
-8.012,-4.820,-1.561,-6.789,-3.227,-4.289,-9.227,-5.495,0.017,0.979,-0.097,0.031,-1.129,0.580,66.667,562744.000,1.000
-8.496,-6.777,-1.823,-7.130,-4.452,-10.463,-10.948,-5.948,0.019,0.982,-0.094,0.153,-1.068,0.702,66.667,562745.000,1.000
-9.222,-9.173,-2.526,-7.403,-5.508,-15.059,-11.626,-6.104,0.021,0.986,-0.095,0.214,-1.068,0.580,66.667,562746.000,1.000
-9.402,-10.445,-2.661,-7.176,-5.659,-15.866,-11.063,-6.742,0.021,0.986,-0.095,0.153,-1.160,0.793,66.667,562747.000,1.000
-8.306,-9.201,-1.351,-6.045,-4.318,-11.935,-9.125,-7.807,0.021,0.987,-0.094,0.061,-1.160,0.793,66.667,562748.000,1.000
-6.039,-5.429,1.311,-4.157,-1.738,-4.551,-6.222,-8.610,0.020,0.990,-0.096,0.061,-1.038,0.916,66.667,562749.000,1.000
-3.388,-0.421,4.491,-1.949,1.402,3.687,-2.528,-7.756,0.018,0.989,-0.095,0.061,-1.129,1.007,66.667,562750.000,1.000
-0.989,4.411,7.564,0.466,4.853,10.680,2.525,-3.739,0.018,0.989,-0.096,-0.031,-1.099,1.160,66.667,562751.000,1.000
0.868,8.081,10.222,3.016,8.452,15.249,8.908,3.172,0.020,0.988,-0.091,-0.061,-1.007,1.190,66.667,562752.000,1.000
1.901,9.794,11.961,5.042,11.292,16.621,14.748,10.066,0.019,0.989,-0.091,-0.061,-0.977,1.343,66.667,562753.000,1.000
1.920,9.147,12.282,5.711,12.234,14.906,17.626,13.430,0.020,0.989,-0.093,-0.153,-1.068,1.495,66.667,562754.000,1.000
1.243,6.778,11.451,5.077,11.214,11.676,16.749,12.110,0.021,0.989,-0.094,-0.244,-1.068,1.617,66.667,562755.000,1.000
0.670,4.242,10.497,4.122,9.342,9.000,13.117,7.693,0.019,0.987,-0.094,-0.275,-1.099,1.556,66.667,562756.000,1.000
0.854,2.960,10.323,3.734,7.815,8.032,8.381,2.655,0.019,0.985,-0.097,-0.275,-1.129,1.526,66.667,562757.000,1.000
1.844,3.404,11.065,4.053,7.216,8.809,4.357,-0.965,0.020,0.987,-0.098,-0.244,-1.160,1.648,66.667,562758.000,1.000
3.147,5.074,12.157,4.606,7.497,10.770,2.669,-1.931,0.021,0.986,-0.093,-0.244,-1.160,1.587,66.667,562759.000,1.000
4.056,6.930,12.737,4.747,8.101,13.069,3.761,-0.054,0.021,0.984,-0.094,-0.153,-1.099,1.587,66.667,562760.000,1.000
4.096,7.987,12.229,4.200,8.310,14.804,6.576,3.815,0.022,0.985,-0.090,-0.061,-1.038,1.617,66.667,562761.000,1.000
3.420,7.798,10.744,3.321,7.688,15.206,9.390,8.183,0.022,0.985,-0.091,-0.061,-1.038,1.556,66.667,562762.000,1.000
2.643,6.465,8.832,2.653,6.090,13.602,10.516,11.310,0.021,0.983,-0.093,-0.061,-1.038,1.495,66.667,562763.000,1.000
2.137,4.315,6.854,2.284,3.468,9.582,8.703,11.730,0.023,0.983,-0.095,-0.061,-0.977,1.343,66.667,562764.000,1.000
1.720,1.746,4.831,1.850,0.054,3.765,3.938,9.111,0.023,0.983,-0.095,-0.061,-1.038,1.312,66.667,562765.000,1.000
1.075,-0.658,2.833,1.017,-3.401,-1.846,-2.081,4.526,0.021,0.981,-0.094,0.061,-0.946,1.343,66.667,562766.000,1.000
0.098,-2.310,1.077,-0.338,-6.107,-5.183,-7.223,-0.447,0.021,0.978,-0.095,0.214,-0.977,1.221,66.667,562767.000,1.000
-1.101,-3.061,-0.383,-2.220,-7.907,-5.949,-10.657,-4.602,0.021,0.979,-0.094,0.275,-0.946,1.129,66.667,562768.000,1.000
-2.228,-3.283,-1.720,-4.439,-9.146,-5.619,-12.714,-7.210,0.020,0.979,-0.093,0.336,-0.854,0.977,66.667,562769.000,1.000
-3.040,-3.651,-3.188,-6.626,-10.204,-5.960,-13.768,-8.119,0.020,0.980,-0.094,0.397,-0.824,0.885,66.667,562770.000,1.000
-3.546,-4.752,-4.951,-8.458,-11.274,-7.827,-13.882,-7.768,0.021,0.984,-0.094,0.610,-0.916,0.793,66.667,562771.000,1.000
-3.481,-6.309,-6.584,-9.472,-12.024,-10.520,-12.878,-6.628,0.021,0.985,-0.094,0.610,-0.854,0.580,66.667,562772.000,1.000
-1.818,-6.877,-6.829,-8.877,-11.484,-11.933,-10.521,-4.772,0.021,0.986,-0.094,0.580,-0.977,0.580,66.667,562773.000,1.000
2.347,-5.062,-4.621,-6.225,-8.936,-10.197,-7.077,-2.264,0.020,0.984,-0.095,0.580,-0.885,0.519,66.667,562774.000,1.000
8.489,-1.061,-0.392,-2.263,-4.948,-5.507,-3.479,0.424,0.020,0.984,-0.096,0.610,-0.854,0.397,66.667,562775.000,1.000
14.663,3.319,3.993,1.269,-1.161,-0.043,-0.616,2.661,0.019,0.983,-0.095,0.671,-0.977,0.397,66.667,562776.000,1.000
18.642,5.852,6.417,2.581,0.739,3.615,1.177,3.996,0.019,0.985,-0.094,0.702,-0.946,0.366,66.667,562777.000,1.000
19.169,5.175,5.712,0.756,-0.140,3.968,1.756,4.094,0.018,0.988,-0.096,0.671,-0.946,0.366,66.667,562778.000,1.000
16.812,1.697,2.379,-3.651,-3.398,1.370,0.889,2.627,0.018,0.985,-0.095,0.580,-0.977,0.366,66.667,562779.000,1.000
13.699,-2.573,-1.667,-8.765,-7.440,-2.366,-1.151,-0.278,0.018,0.985,-0.094,0.641,-1.068,0.427,66.667,562780.000,1.000
11.962,-5.573,-4.479,-12.501,-10.409,-5.483,-3.087,-3.513,0.017,0.985,-0.093,0.519,-1.129,0.366,66.667,562781.000,1.000
12.206,-6.656,-5.392,-13.771,-11.429,-7.429,-3.658,-5.743,0.016,0.981,-0.097,0.549,-1.129,0.305,66.667,562782.000,1.000
13.369,-6.556,-5.127,-12.848,-11.044,-8.637,-3.255,-6.667,0.014,0.981,-0.098,0.580,-1.221,0.397,66.667,562783.000,1.000
13.951,-6.169,-4.732,-10.697,-10.293,-9.394,-3.240,-6.585,0.014,0.981,-0.093,0.671,-1.190,0.427,66.667,562784.000,1.000
13.516,-5.487,-4.369,-7.926,-9.310,-9.082,-3.510,-4.963,0.013,0.982,-0.094,0.702,-1.373,0.366,66.667,562785.000,1.000
12.826,-3.952,-3.428,-4.734,-7.479,-7.078,-2.849,-1.055,0.011,0.981,-0.095,0.671,-1.434,0.336,66.667,562786.000,1.000
12.440,-1.752,-1.842,-1.797,-4.854,-4.052,-1.413,4.180,0.012,0.980,-0.096,0.671,-1.526,0.244,66.667,562787.000,1.000
12.062,0.154,-0.362,-0.148,-2.266,-1.255,-0.282,8.536,0.013,0.982,-0.098,0.702,-1.587,0.397,66.667,562788.000,1.000
11.348,1.192,0.478,-0.115,-0.292,0.797,0.492,10.384,0.014,0.980,-0.099,0.671,-1.678,0.458,66.667,562789.000,1.000
10.380,1.522,0.792,-1.162,0.858,1.963,1.184,9.095,0.014,0.983,-0.095,0.610,-1.801,0.641,66.667,562790.000,1.000
9.468,1.648,1.037,-2.380,1.160,1.996,1.224,5.116,0.014,0.982,-0.095,0.580,-1.831,0.458,66.667,562791.000,1.000
8.902,2.159,1.736,-2.831,1.043,1.062,0.075,0.159,0.014,0.981,-0.094,0.580,-1.953,0.732,66.667,562792.000,1.000
8.537,3.263,2.996,-2.075,1.133,-0.290,-1.816,-3.663,0.015,0.983,-0.094,0.580,-1.923,0.671,66.667,562793.000,1.000
7.670,4.446,4.249,-0.530,1.612,-1.872,-3.475,-5.037,0.016,0.983,-0.096,0.641,-1.862,0.610,66.667,562794.000,1.000
5.838,5.153,4.879,1.014,2.305,-3.591,-4.026,-3.838,0.016,0.982,-0.096,0.610,-1.923,0.641,66.667,562795.000,1.000
3.587,5.742,5.014,2.199,3.256,-4.452,-2.977,-0.900,0.017,0.982,-0.096,0.610,-1.984,0.671,66.667,562796.000,1.000
2.075,7.215,5.395,3.262,4.718,-2.919,-0.650,2.396,0.017,0.983,-0.094,0.549,-1.953,0.732,66.667,562797.000,1.000
1.929,10.006,6.537,4.525,6.710,1.551,2.057,4.905,0.016,0.983,-0.095,0.549,-1.984,0.854,66.667,562798.000,1.000
2.808,13.453,8.305,5.990,8.918,7.881,4.623,6.513,0.018,0.981,-0.100,0.519,-1.923,0.916,66.667,562799.000,1.000
3.976,16.334,10.150,7.406,10.820,13.893,6.763,7.702,0.019,0.982,-0.098,0.427,-1.831,1.007,66.667,562800.000,1.000
4.665,17.429,11.240,8.237,11.558,17.037,7.399,8.196,0.023,0.984,-0.097,0.519,-1.892,0.946,66.667,562801.000,1.000
4.138,15.915,10.630,7.755,10.255,15.751,5.428,6.971,0.023,0.984,-0.095,0.427,-1.678,0.977,66.667,562802.000,1.000
2.434,12.214,8.250,5.975,7.232,11.043,1.888,4.188,0.022,0.982,-0.098,0.366,-1.617,1.068,66.667,562803.000,1.000
0.892,8.187,5.495,4.169,4.371,5.992,-0.402,1.963,0.022,0.984,-0.098,0.366,-1.465,1.068,66.667,562804.000,1.000
1.058,5.730,4.085,3.694,3.467,2.963,-0.032,2.171,0.021,0.982,-0.098,0.427,-1.404,1.099,66.667,562805.000,1.000
3.230,5.334,4.555,4.727,4.652,1.876,1.711,4.512,0.021,0.982,-0.096,0.458,-1.160,1.190,66.667,562806.000,1.000
6.429,6.204,6.230,6.516,6.795,1.394,3.169,7.386,0.020,0.983,-0.097,0.397,-1.190,1.251,66.667,562807.000,1.000
9.459,7.380,8.235,8.329,8.813,0.881,4.323,9.547,0.021,0.982,-0.100,0.427,-1.160,1.251,66.667,562808.000,1.000
11.604,8.311,10.033,9.744,10.128,0.621,5.703,10.363,0.021,0.983,-0.101,0.397,-0.946,1.221,66.667,562809.000,1.000
12.484,8.540,11.144,10.309,10.252,0.666,6.558,9.382,0.022,0.983,-0.099,0.519,-0.854,1.282,66.667,562810.000,1.000
12.047,7.731,11.213,9.697,8.845,0.506,5.611,6.389,0.023,0.981,-0.100,0.458,-0.702,1.221,66.667,562811.000,1.000
10.864,6.192,10.519,8.279,6.331,-0.155,3.063,1.958,0.021,0.982,-0.094,0.427,-0.580,1.160,66.667,562812.000,1.000
9.804,4.719,9.803,6.947,3.767,-1.140,0.430,-2.501,0.021,0.982,-0.097,0.366,-0.488,1.129,66.667,562813.000,1.000
9.389,3.904,9.587,6.397,2.009,-2.081,-1.195,-5.648,0.022,0.983,-0.096,0.336,-0.397,1.099,66.667,562814.000,1.000
9.677,3.894,9.978,6.874,1.427,-2.341,-1.495,-6.877,0.023,0.985,-0.097,0.336,-0.336,1.221,66.667,562815.000,1.000
10.250,4.377,10.692,8.185,1.987,-1.356,-0.417,-6.246,0.021,0.986,-0.097,0.305,-0.122,1.312,66.667,562816.000,1.000
10.141,4.495,10.961,9.505,3.026,0.350,1.299,-4.679,0.021,0.984,-0.099,0.305,0.000,1.099,66.667,562817.000,1.000
8.476,3.406,10.007,9.796,3.598,1.333,2.179,-3.575,0.021,0.983,-0.101,0.336,0.092,1.190,66.667,562818.000,1.000
5.458,1.309,7.987,9.007,3.713,1.060,2.106,-3.033,0.020,0.986,-0.101,0.214,0.122,1.099,66.667,562819.000,1.000
2.117,-0.643,5.868,8.214,4.426,0.702,3.012,-1.554,0.020,0.986,-0.099,0.305,0.244,0.977,66.667,562820.000,1.000
-0.853,-1.690,4.196,8.191,6.208,1.391,5.995,1.486,0.020,0.985,-0.101,0.305,0.214,1.068,66.667,562821.000,1.000
-3.124,-1.859,2.941,8.798,8.380,2.923,9.573,4.645,0.020,0.985,-0.100,0.244,0.244,0.977,66.667,562822.000,1.000
-3.974,-1.018,2.470,9.866,10.480,4.887,12.177,6.555,0.019,0.985,-0.099,0.214,0.336,0.916,66.667,562823.000,1.000
-2.879,1.147,3.350,11.457,12.787,7.568,14.419,7.573,0.018,0.985,-0.098,0.214,0.397,0.946,66.667,562824.000,1.000
-0.727,4.013,5.120,13.061,15.149,11.037,17.441,8.432,0.018,0.985,-0.095,0.153,0.336,0.946,66.667,562825.000,1.000
0.681,6.009,6.279,13.538,16.390,14.373,20.391,8.504,0.018,0.984,-0.099,0.092,0.397,0.977,66.667,562826.000,1.000
0.342,5.983,5.721,12.208,15.354,16.162,20.873,6.433,0.018,0.983,-0.102,0.153,0.458,0.946,66.667,562827.000,1.000
-1.413,3.981,3.520,9.511,11.984,15.456,17.228,1.906,0.016,0.981,-0.097,0.153,0.336,0.916,66.667,562828.000,1.000
-3.871,0.683,0.296,6.400,7.123,12.163,9.762,-3.997,0.016,0.981,-0.098,0.214,0.244,0.885,66.667,562829.000,1.000
-6.679,-3.269,-3.463,3.553,1.913,6.943,0.737,-9.480,0.016,0.983,-0.098,0.244,0.244,0.793,66.667,562830.000,1.000
-9.544,-7.113,-7.169,1.416,-2.278,1.320,-6.092,-12.355,0.014,0.981,-0.099,0.366,0.214,0.885,66.667,562831.000,1.000
-11.738,-9.759,-9.846,0.554,-4.050,-2.549,-7.208,-10.845,0.015,0.981,-0.099,0.336,0.153,0.885,66.667,562832.000,1.000
-12.517,-10.470,-10.777,1.233,-3.059,-3.393,-2.441,-5.581,0.015,0.981,-0.096,0.458,0.061,0.885,66.667,562833.000,1.000
-11.933,-9.582,-10.273,2.764,-0.610,-1.951,4.328,0.105,0.013,0.981,-0.097,0.488,0.000,1.099,66.667,562834.000,1.000
-10.726,-8.007,-9.266,3.975,1.544,0.135,8.945,3.146,0.016,0.979,-0.098,0.580,-0.092,1.160,66.667,562835.000,1.000
-9.691,-6.499,-8.498,4.023,2.398,1.841,10.145,2.762,0.014,0.979,-0.102,0.702,-0.214,1.343,66.667,562836.000,1.000
-9.582,-5.793,-8.539,2.399,1.461,2.682,8.586,-0.637,0.013,0.981,-0.097,0.763,-0.244,1.221,66.667,562837.000,1.000
-10.943,-6.621,-9.788,-0.967,-1.507,2.018,5.009,-6.414,0.015,0.983,-0.098,0.854,-0.275,1.282,66.667,562838.000,1.000
-13.487,-9.103,-12.005,-5.257,-6.106,-0.927,-0.051,-13.465,0.011,0.984,-0.095,0.916,-0.549,1.526,66.667,562839.000,1.000
-15.943,-12.349,-14.213,-8.971,-11.200,-6.140,-5.784,-20.204,0.012,0.984,-0.097,0.977,-0.732,1.526,66.667,562840.000,1.000
-16.651,-14.704,-15.126,-10.627,-15.170,-11.969,-10.570,-24.679,0.014,0.982,-0.099,0.916,-0.793,1.404,66.667,562841.000,1.000
-14.375,-14.484,-13.675,-9.306,-16.352,-15.686,-12.242,-24.857,0.013,0.982,-0.099,0.885,-0.885,1.465,66.667,562842.000,1.000
-9.175,-11.126,-9.724,-5.212,-13.951,-15.360,-9.610,-19.918,0.012,0.983,-0.098,0.977,-1.068,1.404,66.667,562843.000,1.000
-2.768,-5.897,-4.582,0.067,-8.939,-11.332,-3.742,-11.510,0.012,0.981,-0.096,0.885,-1.129,1.373,66.667,562844.000,1.000
2.516,-0.994,-0.230,4.483,-3.470,-5.777,2.778,-2.899,0.012,0.982,-0.098,1.007,-1.251,1.343,66.667,562845.000,1.000
5.127,1.977,1.973,6.826,0.597,-1.054,7.586,3.268,0.016,0.983,-0.100,1.099,-1.282,1.495,66.667,562846.000,1.000
4.546,2.322,1.565,6.877,2.225,1.202,9.209,5.974,0.016,0.982,-0.099,1.099,-1.312,1.495,66.667,562847.000,1.000
1.189,0.099,-1.142,5.005,1.156,0.313,7.171,5.412,0.017,0.983,-0.098,1.099,-1.312,1.404,66.667,562848.000,1.000
-3.424,-3.660,-4.882,2.061,-1.861,-3.108,2.296,2.357,0.019,0.986,-0.096,1.099,-1.373,1.373,66.667,562849.000,1.000
-7.178,-7.134,-7.863,-0.875,-5.311,-7.336,-3.677,-2.408,0.019,0.990,-0.094,1.068,-1.495,1.495,66.667,562850.000,1.000
-8.271,-8.407,-8.611,-2.739,-7.481,-10.142,-8.484,-7.766,0.016,0.991,-0.094,0.946,-1.556,1.495,66.667,562851.000,1.000
-5.789,-6.139,-6.415,-2.535,-6.834,-9.437,-9.313,-11.356,0.017,0.991,-0.096,0.793,-1.587,1.404,66.667,562852.000,1.000
-0.377,-0.576,-1.835,-0.117,-3.024,-4.701,-4.508,-10.819,0.016,0.988,-0.099,0.549,-1.556,1.343,66.667,562853.000,1.000
5.456,5.810,2.954,2.947,2.040,1.658,3.891,-6.504,0.017,0.985,-0.098,0.336,-1.434,1.129,66.667,562854.000,1.000
8.645,9.636,5.313,4.339,5.232,5.626,10.962,-1.522,0.018,0.980,-0.100,0.275,-1.556,1.099,66.667,562855.000,1.000
7.922,9.241,4.301,3.165,4.916,5.052,13.091,1.281,0.022,0.974,-0.101,0.305,-1.526,0.854,66.667,562856.000,1.000
4.560,5.734,1.326,0.620,2.102,1.244,10.381,1.557,0.022,0.975,-0.101,0.366,-1.404,0.854,66.667,562857.000,1.000
0.498,1.233,-1.758,-1.772,-1.342,-3.190,4.751,0.321,0.024,0.976,-0.097,0.366,-1.373,0.854,66.667,562858.000,1.000
-3.385,-3.001,-4.344,-3.661,-4.571,-6.775,-2.317,-2.116,0.028,0.974,-0.098,0.427,-1.221,0.854,66.667,562859.000,1.000
-6.614,-6.183,-6.302,-5.114,-7.199,-8.834,-9.008,-5.588,0.027,0.974,-0.097,0.427,-1.129,0.885,66.667,562860.000,1.000
-8.147,-7.224,-6.824,-5.573,-8.262,-8.638,-12.517,-8.646,0.025,0.976,-0.099,0.519,-0.916,0.977,66.667,562861.000,1.000
-7.045,-5.399,-5.000,-4.354,-6.895,-6.132,-11.193,-9.552,0.025,0.977,-0.103,0.580,-0.793,0.977,66.667,562862.000,1.000
-3.661,-1.310,-1.061,-1.623,-3.458,-2.502,-6.312,-8.202,0.026,0.977,-0.103,0.488,-0.702,1.068,66.667,562863.000,1.000
0.166,3.196,3.345,1.407,0.502,0.600,-0.940,-6.097,0.025,0.975,-0.101,0.519,-0.580,1.160,66.667,562864.000,1.000
2.153,6.081,6.145,3.203,3.259,2.004,2.145,-4.860,0.022,0.978,-0.103,0.519,-0.397,1.099,66.667,562865.000,1.000
0.893,6.087,6.072,2.861,3.782,1.164,1.598,-5.187,0.023,0.979,-0.101,0.641,-0.397,1.190,66.667,562866.000,1.000
-3.482,3.121,3.210,0.540,2.031,-1.921,-2.016,-6.767,0.023,0.984,-0.104,0.641,-0.275,1.190,66.667,562867.000,1.000
-9.095,-1.415,-0.914,-2.439,-0.854,-6.101,-6.192,-8.519,0.021,0.984,-0.100,0.549,-0.153,1.221,66.667,562868.000,1.000
-12.937,-4.907,-3.862,-4.066,-2.781,-8.872,-7.572,-8.920,0.020,0.986,-0.103,0.580,-0.183,1.373,66.667,562869.000,1.000
-12.794,-5.242,-3.875,-3.009,-2.042,-7.986,-4.269,-6.902,0.020,0.988,-0.104,0.427,-0.061,1.312,66.667,562870.000,1.000
-8.959,-2.489,-1.252,0.215,1.232,-3.367,2.526,-2.878,0.019,0.991,-0.101,0.397,-0.153,1.373,66.667,562871.000,1.000
-4.020,1.310,1.881,3.493,5.113,2.909,9.441,1.342,0.017,0.993,-0.102,0.244,-0.244,1.404,66.667,562872.000,1.000
-0.966,3.832,3.178,4.674,7.368,8.125,13.392,3.942,0.017,0.996,-0.104,0.061,-0.183,1.251,66.667,562873.000,1.000
-0.998,4.204,1.905,3.345,7.239,10.700,13.745,4.758,0.017,0.997,-0.101,-0.031,-0.214,1.312,66.667,562874.000,1.000
-2.803,3.451,-0.539,1.195,5.983,11.133,12.655,5.602,0.016,0.998,-0.099,-0.275,-0.214,1.251,66.667,562875.000,1.000
-4.093,3.127,-2.169,0.279,5.350,10.995,12.671,8.268,0.016,1.000,-0.098,-0.549,-0.366,1.160,66.667,562876.000,1.000
-3.564,3.695,-2.252,1.165,5.721,11.057,13.886,12.232,0.015,1.002,-0.100,-0.885,-0.427,1.251,66.667,562877.000,1.000
-1.232,4.561,-1.394,3.019,6.211,11.044,14.391,15.224,0.015,1.001,-0.099,-1.221,-0.519,1.129,66.667,562878.000,1.000
2.504,5.265,-0.313,4.947,6.170,10.709,13.038,15.907,0.015,0.999,-0.098,-1.434,-0.641,0.946,66.667,562879.000,1.000
7.425,5.976,0.877,6.704,5.808,10.154,10.341,14.814,0.017,1.000,-0.095,-1.648,-0.793,0.977,66.667,562880.000,1.000
13.024,6.882,2.287,8.355,5.685,9.507,7.692,13.321,0.017,0.997,-0.100,-1.984,-0.916,0.946,66.667,562881.000,1.000
18.203,7.734,3.778,9.877,6.267,8.935,6.987,13.031,0.021,0.994,-0.097,-2.075,-0.824,0.946,66.667,562882.000,1.000
21.986,8.156,5.004,11.036,7.542,8.398,9.073,14.601,0.021,0.994,-0.092,-2.136,-0.946,1.099,66.667,562883.000,1.000
24.249,7.981,5.606,11.388,8.585,7.132,11.678,16.166,0.024,0.990,-0.094,-2.136,-0.977,1.068,66.667,562884.000,1.000
25.539,7.220,5.360,10.575,8.070,4.168,10.812,14.627,0.026,0.988,-0.094,-2.228,-0.854,1.190,66.667,562885.000,1.000
26.679,6.274,4.497,8.856,5.603,-0.306,4.599,8.827,0.025,0.985,-0.096,-2.228,-0.763,1.129,66.667,562886.000,1.000
28.643,6.150,3.885,7.265,2.327,-4.621,-4.963,0.635,0.021,0.983,-0.096,-2.197,-0.732,1.312,66.667,562887.000,1.000
32.006,7.713,4.411,6.945,-0.027,-7.000,-13.621,-6.569,0.021,0.979,-0.095,-2.106,-0.702,1.404,66.667,562888.000,1.000
36.279,10.667,6.112,8.201,-0.540,-6.782,-17.724,-10.075,0.018,0.975,-0.093,-1.862,-0.671,1.312,66.667,562889.000,1.000
40.146,13.674,8.114,10.270,0.403,-4.506,-16.347,-9.357,0.019,0.976,-0.094,-1.709,-0.854,1.373,66.667,562890.000,1.000
42.320,15.240,9.259,11.938,1.599,-1.713,-11.684,-6.164,0.019,0.976,-0.094,-1.465,-0.885,1.343,66.667,562891.000,1.000
42.426,14.822,9.037,12.587,2.152,0.049,-7.058,-2.822,0.018,0.978,-0.091,-1.129,-0.854,1.282,66.667,562892.000,1.000
41.472,13.587,8.331,12.898,2.528,0.888,-3.980,-0.088,0.017,0.974,-0.089,-0.977,-0.824,1.099,66.667,562893.000,1.000
40.954,13.447,8.733,14.145,4.054,2.216,-1.607,2.970,0.017,0.976,-0.091,-0.763,-0.916,0.977,66.667,562894.000,1.000
41.190,14.989,10.737,16.599,7.135,4.447,0.971,6.917,0.018,0.977,-0.093,-0.580,-0.977,0.854,66.667,562895.000,1.000
41.065,16.963,13.184,19.082,10.548,6.276,3.040,10.636,0.017,0.978,-0.094,-0.397,-1.007,0.946,66.667,562896.000,1.000
