EEG 1,EEG 2,EEG 3,EEG 4,EEG 5,EEG 6,EEG 7,EEG 8,Accelerometer X,Accelerometer Y,Accelerometer Z,Gyroscope X,Gyroscope Y,Gyroscope Z,Battery Level,Counter,Validation Indicator
-3.701,-4.391,-4.903,-5.811,-8.973,-10.050,-10.878,-11.357,-0.009,0.977,-0.129,-0.580,-0.183,1.312,66.667,839969.000,1.000
-4.136,-4.713,-5.843,-6.769,-9.930,-10.331,-13.480,-13.419,-0.008,0.975,-0.133,-0.519,-0.214,1.404,66.667,839970.000,1.000
-3.643,-3.557,-5.183,-6.327,-8.902,-7.878,-13.924,-14.112,-0.007,0.975,-0.130,-0.458,-0.366,1.312,66.667,839971.000,1.000
-2.127,-0.888,-2.830,-4.266,-5.998,-3.150,-11.642,-12.588,-0.007,0.979,-0.127,-0.397,-0.488,1.343,66.667,839972.000,1.000
0.095,2.639,0.522,-1.244,-2.257,2.175,-7.337,-9.186,-0.005,0.980,-0.130,-0.336,-0.671,1.526,66.667,839973.000,1.000
2.457,5.966,3.748,1.632,0.867,6.099,-2.703,-5.339,-0.005,0.982,-0.132,-0.336,-0.641,1.556,66.667,839974.000,1.000
4.358,8.103,5.791,3.392,2.193,7.261,0.442,-2.791,-0.006,0.983,-0.130,-0.305,-0.610,1.617,66.667,839975.000,1.000
5.546,8.673,6.249,3.733,1.535,5.649,1.248,-2.458,-0.007,0.984,-0.129,-0.366,-0.671,1.770,66.667,839976.000,1.000
6.254,8.080,5.560,3.163,-0.177,2.576,0.272,-3.801,-0.005,0.985,-0.130,-0.549,-0.793,1.923,66.667,839977.000,1.000
6.698,6.971,4.444,2.466,-1.733,-0.368,-1.380,-5.411,-0.006,0.981,-0.130,-0.732,-0.977,1.801,66.667,839978.000,1.000
6.604,5.625,3.244,2.016,-2.529,-2.264,-2.960,-6.180,-0.007,0.981,-0.131,-0.793,-0.916,1.770,66.667,839979.000,1.000
5.688,4.135,2.103,1.825,-2.511,-2.703,-3.875,-5.849,-0.005,0.980,-0.131,-0.793,-1.099,1.831,66.667,839980.000,1.000
4.459,2.898,1.519,2.041,-1.637,-1.477,-3.474,-4.664,-0.003,0.983,-0.128,-0.824,-1.007,1.801,66.667,839981.000,1.000
3.967,2.395,2.092,2.889,0.065,0.935,-1.597,-2.932,-0.001,0.986,-0.127,-0.793,-1.129,1.801,66.667,839982.000,1.000
4.859,2.670,3.776,4.198,2.121,3.187,1.070,-1.035,0.001,0.984,-0.127,-0.916,-1.129,1.678,66.667,839983.000,1.000
6.939,3.335,5.750,5.384,3.687,3.945,3.350,0.436,0.002,0.983,-0.127,-1.068,-1.007,1.770,66.667,839984.000,1.000
9.398,3.878,7.000,5.877,4.024,2.765,4.085,0.902,0.006,0.981,-0.128,-1.221,-0.885,1.801,66.667,839985.000,1.000
11.323,3.864,6.977,5.506,2.950,0.046,2.567,0.335,0.007,0.977,-0.129,-1.312,-0.793,1.831,66.667,839986.000,1.000
12.166,3.131,5.859,4.559,0.998,-3.332,-0.920,-0.589,0.008,0.973,-0.129,-1.312,-0.671,1.923,66.667,839987.000,1.000
11.892,1.954,4.305,3.528,-0.797,-6.089,-4.876,-0.938,0.008,0.971,-0.129,-1.282,-0.580,1.892,66.667,839988.000,1.000
10.834,0.975,2.970,2.801,-1.396,-6.906,-7.268,-0.072,0.007,0.973,-0.130,-1.129,-0.366,1.831,66.667,839989.000,1.000
9.379,0.721,2.104,2.441,-0.421,-5.495,-7.081,1.833,0.009,0.976,-0.132,-1.038,-0.244,1.862,66.667,839990.000,1.000
7.749,1.106,1.480,2.178,1.487,-3.148,-5.319,3.622,0.008,0.980,-0.132,-1.038,-0.153,1.831,66.667,839991.000,1.000
6.038,1.575,0.744,1.690,3.150,-1.658,-3.940,4.017,0.008,0.981,-0.132,-0.916,0.000,1.923,66.667,839992.000,1.000
4.398,1.715,-0.198,0.904,3.722,-1.767,-3.970,2.761,0.007,0.987,-0.131,-0.946,0.092,1.801,66.667,839993.000,1.000
3.064,1.561,-1.154,-0.043,3.126,-2.800,-4.890,0.712,0.006,0.986,-0.133,-1.007,0.153,1.801,66.667,839994.000,1.000
2.196,1.421,-1.858,-0.999,1.851,-3.442,-5.443,-1.010,0.004,0.987,-0.132,-1.068,0.183,1.862,66.667,839995.000,1.000
1.784,1.525,-2.106,-1.871,0.520,-2.711,-4.717,-1.877,0.001,0.986,-0.134,-1.099,0.366,1.740,66.667,839996.000,1.000
1.749,1.892,-1.729,-2.520,-0.433,-0.544,-2.682,-2.152,-0.003,0.990,-0.134,-1.221,0.305,1.617,66.667,839997.000,1.000
2.131,2.457,-0.540,-2.650,-0.816,2.231,-0.238,-2.432,-0.005,0.989,-0.133,-1.190,0.275,1.343,66.667,839998.000,1.000
3.096,3.248,1.606,-1.896,-0.534,4.615,1.411,-2.954,-0.010,0.990,-0.130,-1.282,0.183,1.038,66.667,839999.000,1.000
4.752,4.388,4.628,-0.065,0.499,6.184,1.808,-3.276,-0.011,0.991,-0.133,-1.404,0.092,0.732,66.667,840000.000,1.000
7.089,5.996,8.211,2.746,2.323,7.175,1.560,-2.667,-0.011,0.991,-0.132,-1.495,-0.183,0.488,66.667,840001.000,1.000
9.949,8.051,11.928,6.177,4.770,8.032,1.580,-0.806,-0.011,0.990,-0.133,-1.434,-0.336,0.214,66.667,840002.000,1.000
12.921,10.244,15.301,9.643,7.360,8.934,2.200,1.895,-0.012,0.990,-0.136,-1.495,-0.397,-0.061,66.667,840003.000,1.000
15.488,12.116,17.954,12.578,9.529,9.774,3.221,4.715,-0.010,0.988,-0.132,-1.495,-0.610,-0.031,66.667,840004.000,1.000
17.327,13.366,19.768,14.737,10.997,10.542,4.556,7.174,-0.009,0.985,-0.135,-1.404,-0.763,-0.183,66.667,840005.000,1.000
18.352,13.950,20.776,16.129,11.797,11.670,6.386,8.943,-0.008,0.982,-0.139,-1.373,-0.824,-0.336,66.667,840006.000,1.000
18.574,14.057,21.017,16.778,12.036,13.731,8.550,9.421,-0.008,0.981,-0.134,-1.099,-0.854,-0.336,66.667,840007.000,1.000
18.126,13.919,20.593,16.731,11.680,16.180,9.871,7.979,-0.009,0.980,-0.133,-0.916,-0.946,-0.336,66.667,840008.000,1.000
17.332,13.568,19.735,16.196,10.658,16.928,8.741,4.778,-0.012,0.978,-0.135,-0.702,-1.099,-0.275,66.667,840009.000,1.000
16.544,12.910,18.723,15.499,9.187,14.187,4.786,1.026,-0.010,0.975,-0.134,-0.488,-1.129,-0.183,66.667,840010.000,1.000
15.882,11.937,17.682,14.872,7.812,8.350,-0.537,-1.760,-0.011,0.973,-0.134,-0.183,-1.160,-0.031,66.667,840011.000,1.000
15.234,10.787,16.567,14.403,7.142,1.820,-4.802,-2.549,-0.013,0.973,-0.136,0.122,-1.404,0.183,66.667,840012.000,1.000
14.585,9.739,15.434,14.176,7.649,-2.459,-5.836,-1.092,-0.014,0.975,-0.134,0.488,-1.495,0.244,66.667,840013.000,1.000
14.136,9.160,14.583,14.248,9.456,-2.558,-2.917,2.002,-0.013,0.974,-0.134,0.763,-1.556,0.397,66.667,840014.000,1.000
13.963,9.217,14.218,14.387,12.047,1.385,2.422,5.363,-0.012,0.977,-0.133,0.977,-1.617,0.458,66.667,840015.000,1.000
13.773,9.643,14.120,14.060,14.373,7.291,7.189,7.557,-0.014,0.977,-0.130,1.221,-1.801,0.610,66.667,840016.000,1.000
13.195,9.988,13.883,12.950,15.606,12.608,9.214,8.139,-0.013,0.980,-0.133,1.373,-1.923,0.763,66.667,840017.000,1.000
12.271,10.055,13.400,11.382,15.784,15.958,8.631,7.825,-0.012,0.982,-0.133,1.526,-1.984,0.793,66.667,840018.000,1.000
11.417,9.937,12.884,10.038,15.576,17.612,7.289,7.554,-0.010,0.983,-0.132,1.648,-1.953,0.793,66.667,840019.000,1.000
10.908,9.718,12.437,9.289,15.478,18.560,7.073,7.703,-0.011,0.985,-0.132,1.678,-2.014,0.732,66.667,840020.000,1.000
10.543,9.260,11.760,8.889,15.286,19.218,8.479,8.035,-0.010,0.985,-0.132,1.617,-2.106,0.824,66.667,840021.000,1.000
9.821,8.228,10.321,8.195,14.267,19.071,10.417,7.959,-0.009,0.985,-0.131,1.556,-2.106,0.977,66.667,840022.000,1.000
8.408,6.378,7.864,6.750,11.888,17.461,11.273,7.005,-0.008,0.986,-0.132,1.495,-2.136,0.916,66.667,840023.000,1.000
6.438,3.912,4.797,4.789,8.440,14.410,10.209,5.340,-0.009,0.984,-0.131,1.404,-2.106,0.916,66.667,840024.000,1.000
4.329,1.468,1.973,3.114,4.915,10.631,7.642,3.691,-0.008,0.981,-0.131,1.312,-2.075,1.007,66.667,840025.000,1.000
2.407,-0.319,0.093,2.464,2.427,7.103,4.959,2.926,-0.006,0.978,-0.133,1.251,-2.136,0.946,66.667,840026.000,1.000
0.741,-1.244,-0.735,2.978,1.606,4.600,3.655,3.620,-0.005,0.975,-0.135,1.160,-2.106,0.916,66.667,840027.000,1.000
-0.698,-1.638,-0.994,4.069,2.110,3.235,3.892,5.335,-0.007,0.973,-0.136,1.251,-1.923,0.854,66.667,840028.000,1.000
-1.718,-1.959,-1.263,4.852,2.840,2.622,4.271,6.602,-0.006,0.970,-0.136,1.282,-1.862,0.732,66.667,840029.000,1.000
-1.803,-2.250,-1.605,4.904,2.958,2.603,3.635,6.366,-0.007,0.968,-0.137,1.312,-1.862,0.732,66.667,840030.000,1.000
-0.578,-2.186,-1.610,4.483,2.448,3.146,2.210,5.023,-0.008,0.967,-0.134,1.312,-1.709,0.610,66.667,840031.000,1.000
1.533,-1.622,-1.104,3.973,1.624,3.541,0.748,3.656,-0.008,0.965,-0.134,1.465,-1.617,0.519,66.667,840032.000,1.000
3.247,-0.877,-0.594,3.412,0.635,2.713,-0.390,2.862,-0.004,0.963,-0.136,1.587,-1.709,0.427,66.667,840033.000,1.000
3.178,-0.524,-0.943,2.579,-0.479,0.437,-1.167,2.511,-0.004,0.962,-0.134,1.709,-1.587,0.305,66.667,840034.000,1.000
0.843,-0.887,-2.585,1.383,-1.554,-2.322,-1.575,2.172,-0.005,0.964,-0.134,1.923,-1.495,0.305,66.667,840035.000,1.000
-2.841,-1.624,-4.968,0.149,-2.154,-4.039,-1.502,1.616,-0.005,0.968,-0.131,2.045,-1.495,0.275,66.667,840036.000,1.000
-6.151,-1.888,-6.843,-0.519,-1.715,-3.538,-0.662,1.074,-0.007,0.969,-0.132,2.106,-1.434,0.244,66.667,840037.000,1.000
-7.675,-1.002,-7.089,-0.162,0.126,-0.631,1.444,1.190,-0.006,0.974,-0.135,1.984,-1.465,0.305,66.667,840038.000,1.000
-6.898,1.152,-5.233,1.293,3.292,3.995,5.206,2.653,-0.004,0.974,-0.133,1.862,-1.434,0.366,66.667,840039.000,1.000
-4.132,4.227,-1.570,3.510,7.132,9.190,10.023,5.475,-0.008,0.977,-0.134,1.770,-1.495,0.397,66.667,840040.000,1.000
-0.358,7.451,2.821,5.793,10.446,13.523,13.946,8.546,-0.009,0.979,-0.131,1.526,-1.434,0.397,66.667,840041.000,1.000
2.940,9.661,6.277,7.232,11.908,15.608,14.856,10.185,-0.009,0.979,-0.129,1.251,-1.495,0.336,66.667,840042.000,1.000
4.251,9.702,7.198,7.032,10.743,14.618,11.896,9.297,-0.012,0.977,-0.129,1.099,-1.495,0.458,66.667,840043.000,1.000
2.737,7.014,4.820,4.895,7.164,10.511,5.807,6.051,-0.015,0.975,-0.125,0.916,-1.648,0.488,66.667,840044.000,1.000
-1.310,2.036,-0.334,1.238,2.350,4.148,-1.453,1.650,-0.016,0.972,-0.127,0.610,-1.770,0.610,66.667,840045.000,1.000
-6.483,-3.770,-6.530,-2.847,-1.912,-2.490,-7.325,-2.255,-0.017,0.970,-0.126,0.458,-1.923,0.580,66.667,840046.000,1.000
-10.772,-8.307,-11.405,-5.892,-3.826,-6.641,-9.439,-4.047,-0.016,0.968,-0.125,0.366,-2.167,0.702,66.667,840047.000,1.000
-12.483,-9.730,-12.991,-6.673,-2.423,-6.204,-6.706,-2.783,-0.015,0.969,-0.125,0.183,-2.197,0.610,66.667,840048.000,1.000
-11.158,-7.573,-10.834,-4.982,1.676,-1.581,-0.284,1.170,-0.014,0.971,-0.126,0.214,-2.350,0.732,66.667,840049.000,1.000
-7.832,-3.238,-6.362,-1.900,6.317,4.055,6.565,6.131,-0.013,0.971,-0.128,0.061,-2.472,0.946,66.667,840050.000,1.000
-4.336,0.816,-2.011,0.824,9.024,6.865,10.273,9.995,-0.013,0.975,-0.129,-0.061,-2.625,1.099,66.667,840051.000,1.000
-2.195,2.638,0.287,1.823,8.540,5.022,9.268,11.394,-0.012,0.977,-0.129,-0.214,-2.655,1.160,66.667,840052.000,1.000
-1.877,1.912,0.087,0.795,5.531,-0.203,4.837,10.283,-0.010,0.979,-0.129,-0.488,-2.686,1.373,66.667,840053.000,1.000
-2.870,-0.192,-1.759,-1.588,1.915,-5.610,0.016,7.741,-0.007,0.978,-0.130,-0.641,-2.747,1.556,66.667,840054.000,1.000
-4.344,-2.150,-4.027,-4.293,-0.644,-8.567,-2.639,5.082,-0.005,0.978,-0.128,-0.671,-2.838,1.862,66.667,840055.000,1.000
-5.552,-2.994,-5.726,-6.422,-1.679,-8.604,-2.800,2.962,-0.007,0.979,-0.126,-0.732,-2.869,2.136,66.667,840056.000,1.000
-5.898,-2.505,-6.265,-7.426,-1.727,-6.966,-2.116,1.328,-0.007,0.980,-0.125,-0.885,-2.930,2.228,66.667,840057.000,1.000
-5.159,-1.168,-5.644,-7.252,-1.647,-5.347,-2.538,0.002,-0.008,0.978,-0.122,-1.038,-2.869,2.228,66.667,840058.000,1.000
-3.674,0.082,-4.448,-6.348,-2.010,-4.728,-4.703,-0.939,-0.010,0.977,-0.122,-1.221,-2.930,2.228,66.667,840059.000,1.000
-2.195,0.407,-3.509,-5.447,-2.883,-4.855,-7.490,-1.249,-0.012,0.975,-0.123,-1.373,-2.930,2.045,66.667,840060.000,1.000
-1.480,-0.564,-3.524,-5.244,-4.102,-5.111,-9.243,-0.829,-0.012,0.974,-0.123,-1.556,-2.960,1.984,66.667,840061.000,1.000
-1.913,-2.674,-4.752,-6.066,-5.577,-5.728,-9.430,0.015,-0.011,0.971,-0.123,-1.648,-3.113,1.831,66.667,840062.000,1.000
-3.254,-5.261,-6.787,-7.665,-7.175,-7.392,-8.858,0.710,-0.010,0.969,-0.121,-1.770,-3.235,1.770,66.667,840063.000,1.000
-4.676,-7.337,-8.635,-9.250,-8.491,-10.000,-8.450,0.932,-0.007,0.967,-0.121,-1.709,-3.418,1.648,66.667,840064.000,1.000
-5.110,-8.049,-9.220,-9.878,-9.008,-12.505,-8.323,0.731,-0.004,0.969,-0.122,-1.678,-3.418,1.495,66.667,840065.000,1.000
-3.849,-7.201,-8.067,-9.050,-8.545,-13.764,-8.014,0.166,-0.002,0.971,-0.118,-1.740,-3.387,1.373,66.667,840066.000,1.000
-1.178,-5.465,-5.764,-7.162,-7.608,-13.386,-7.353,-0.930,-0.001,0.971,-0.120,-1.678,-3.326,1.312,66.667,840067.000,1.000
1.558,-4.092,-3.766,-5.350,-7.269,-12.148,-7.071,-2.806,0.000,0.974,-0.121,-1.770,-3.296,1.343,66.667,840068.000,1.000
2.792,-4.079,-3.363,-4.660,-8.334,-11.492,-8.167,-5.314,0.001,0.976,-0.117,-1.862,-3.204,1.465,66.667,840069.000,1.000
1.872,-5.391,-4.701,-5.271,-10.549,-12.273,-10.615,-7.604,0.002,0.975,-0.115,-2.106,-3.174,1.373,66.667,840070.000,1.000
-0.516,-6.983,-6.766,-6.520,-12.735,-13.950,-13.161,-8.653,0.002,0.976,-0.115,-2.228,-3.082,1.373,66.667,840071.000,1.000
-2.869,-7.565,-8.143,-7.476,-13.616,-14.954,-14.303,-7.990,0.003,0.976,-0.113,-2.289,-2.930,1.495,66.667,840072.000,1.000
-3.794,-6.438,-7.831,-7.477,-12.589,-13.973,-13.444,-5.967,0.001,0.977,-0.114,-2.380,-2.808,1.617,66.667,840073.000,1.000
-2.717,-3.922,-5.746,-6.423,-10.110,-11.169,-11.437,-3.643,0.002,0.976,-0.116,-2.289,-2.686,1.587,66.667,840074.000,1.000
-0.144,-1.203,-2.783,-4.812,-7.441,-8.194,-9.974,-2.164,0.001,0.977,-0.115,-2.350,-2.594,1.740,66.667,840075.000,1.000
2.628,0.425,-0.257,-3.386,-5.789,-6.773,-10.085,-1.957,0.001,0.979,-0.111,-2.625,-2.533,1.801,66.667,840076.000,1.000
4.326,0.511,0.969,-2.606,-5.498,-7.229,-11.161,-2.602,0.003,0.981,-0.112,-2.747,-2.502,1.862,66.667,840077.000,1.000
4.520,-0.278,0.948,-2.375,-5.991,-8.441,-11.647,-3.432,0.002,0.980,-0.111,-2.808,-2.441,1.923,66.667,840078.000,1.000
3.650,-0.845,0.340,-2.236,-6.364,-8.942,-10.524,-3.998,0.000,0.979,-0.111,-3.021,-2.350,2.045,66.667,840079.000,1.000
2.313,-0.588,-0.253,-1.782,-6.037,-7.983,-8.062,-4.126,-0.001,0.979,-0.111,-3.143,-2.319,2.014,66.667,840080.000,1.000
0.723,0.241,-0.641,-0.916,-5.024,-5.952,-5.483,-3.852,0.001,0.975,-0.111,-3.204,-2.319,1.953,66.667,840081.000,1.000
-1.075,0.990,-0.864,0.253,-3.689,-3.794,-3.792,-3.174,-0.001,0.974,-0.108,-3.326,-2.228,2.136,66.667,840082.000,1.000
-2.743,1.339,-0.779,1.668,-2.246,-1.967,-2.793,-1.740,-0.002,0.974,-0.107,-3.326,-2.136,2.014,66.667,840083.000,1.000
-3.700,1.519,-0.085,3.253,-0.724,-0.334,-1.514,0.719,-0.001,0.973,-0.104,-3.510,-2.228,1.984,66.667,840084.000,1.000
-3.575,1.924,1.254,4.644,0.691,1.123,0.577,3.630,0.000,0.975,-0.105,-3.540,-2.228,2.106,66.667,840085.000,1.000
-2.386,2.817,2.961,5.384,1.778,2.371,3.222,5.900,0.001,0.976,-0.105,-3.510,-2.167,2.197,66.667,840086.000,1.000
-0.481,4.227,4.715,5.330,2.599,3.706,5.715,6.853,0.001,0.975,-0.104,-3.632,-2.228,2.167,66.667,840087.000,1.000
1.578,5.864,6.248,4.683,3.315,5.194,7.121,6.531,0.001,0.974,-0.102,-3.723,-2.258,2.045,66.667,840088.000,1.000
3.381,7.414,7.511,3.950,4.141,6.462,6.998,5.665,0.002,0.974,-0.105,-3.784,-2.319,2.167,66.667,840089.000,1.000
4.935,8.936,8.810,3.901,5.531,7.517,6.083,5.424,0.001,0.973,-0.104,-3.754,-2.319,2.258,66.667,840090.000,1.000
6.407,10.583,10.436,5.091,7.789,8.713,5.520,6.586,0.003,0.974,-0.107,-3.723,-2.228,2.228,66.667,840091.000,1.000
7.683,11.981,12.133,7.260,10.408,9.697,5.662,8.878,0.004,0.973,-0.106,-3.723,-2.228,2.197,66.667,840092.000,1.000
8.305,12.277,13.139,9.365,12.209,9.453,6.022,11.192,0.003,0.972,-0.105,-3.784,-2.136,2.350,66.667,840093.000,1.000
7.781,10.877,12.779,10.254,12.198,7.553,5.954,12.234,0.005,0.975,-0.100,-3.754,-2.136,2.411,66.667,840094.000,1.000
5.956,8.042,10.961,9.347,10.194,4.647,4.985,11.146,0.005,0.974,-0.102,-3.693,-2.075,2.411,66.667,840095.000,1.000
3.164,4.731,8.203,6.843,6.812,1.735,2.854,7.958,0.008,0.976,-0.102,-3.693,-1.984,2.380,66.667,840096.000,1.000
0.114,2.006,5.311,3.543,3.066,-0.470,-0.103,3.609,0.007,0.975,-0.103,-3.662,-1.923,2.411,66.667,840097.000,1.000
-2.379,0.543,3.032,0.484,-0.086,-1.645,-2.818,-0.568,0.007,0.976,-0.104,-3.540,-1.831,2.533,66.667,840098.000,1.000
-3.710,0.424,1.797,-1.495,-2.108,-1.827,-4.225,-3.507,0.009,0.979,-0.105,-3.387,-1.709,2.502,66.667,840099.000,1.000
-3.743,1.273,1.631,-2.065,-2.955,-1.214,-3.940,-4.746,0.007,0.979,-0.103,-3.448,-1.648,2.502,66.667,840100.000,1.000
-2.836,2.540,2.186,-1.489,-2.878,0.014,-2.283,-4.442,0.008,0.980,-0.103,-3.418,-1.556,2.502,66.667,840101.000,1.000
-1.629,3.654,2.842,-0.437,-2.248,1.610,0.035,-3.219,0.006,0.983,-0.104,-3.265,-1.434,2.472,66.667,840102.000,1.000
-0.655,4.199,3.045,0.458,-1.342,3.237,2.332,-1.694,0.005,0.984,-0.105,-3.326,-1.251,2.502,66.667,840103.000,1.000
-0.063,4.105,2.678,0.989,-0.222,4.727,4.332,-0.089,0.009,0.985,-0.104,-3.235,-1.190,2.563,66.667,840104.000,1.000
0.338,3.617,2.069,1.270,1.084,6.090,5.998,1.348,0.009,0.985,-0.106,-3.265,-1.068,2.655,66.667,840105.000,1.000
0.887,3.056,1.722,1.446,2.396,7.221,7.089,1.923,0.008,0.985,-0.107,-3.265,-1.038,2.563,66.667,840106.000,1.000
1.881,2.640,2.034,1.644,3.473,7.829,7.313,0.996,0.009,0.984,-0.106,-3.082,-0.946,2.502,66.667,840107.000,1.000
3.434,2.445,3.083,2.037,4.160,7.749,6.786,-1.341,0.009,0.984,-0.104,-2.991,-0.854,2.533,66.667,840108.000,1.000
5.327,2.408,4.533,2.730,4.463,7.158,6.091,-4.119,0.010,0.983,-0.104,-2.808,-0.732,2.380,66.667,840109.000,1.000
6.891,2.276,5.691,3.546,4.503,6.401,5.841,-5.916,0.010,0.981,-0.104,-2.716,-0.641,2.350,66.667,840110.000,1.000
7.305,1.759,5.879,4.088,4.447,5.720,6.121,-5.688,0.010,0.983,-0.105,-2.655,-0.519,2.319,66.667,840111.000,1.000
6.206,0.927,4.960,4.060,4.425,5.280,6.489,-3.557,0.010,0.982,-0.106,-2.563,-0.549,2.350,66.667,840112.000,1.000
3.857,0.271,3.422,3.404,4.393,5.216,6.391,-0.894,0.008,0.982,-0.107,-2.472,-0.397,2.289,66.667,840113.000,1.000
0.848,0.279,1.995,2.246,4.129,5.385,5.429,0.619,0.007,0.981,-0.108,-2.289,-0.366,2.136,66.667,840114.000,1.000
-2.080,1.169,1.348,0.987,3.544,5.417,3.589,0.223,0.007,0.981,-0.106,-2.106,-0.244,2.136,66.667,840115.000,1.000
-4.053,2.977,1.978,0.349,3.010,5.415,1.571,-1.456,0.008,0.981,-0.104,-1.984,-0.183,2.167,66.667,840116.000,1.000
-4.364,5.549,4.035,1.019,3.212,6.104,0.644,-3.000,0.008,0.980,-0.105,-1.740,-0.183,2.136,66.667,840117.000,1.000
-2.915,8.354,7.120,3.099,4.566,7.869,1.797,-3.250,0.008,0.979,-0.106,-1.587,-0.092,2.106,66.667,840118.000,1.000
-0.348,10.505,10.372,5.921,6.790,10.068,5.010,-2.004,0.007,0.980,-0.106,-1.343,0.000,2.045,66.667,840119.000,1.000
2.358,11.181,12.903,8.451,8.988,11.473,9.051,0.044,0.009,0.982,-0.109,-1.221,0.092,1.923,66.667,840120.000,1.000
4.456,10.111,14.229,9.874,10.136,11.138,11.932,1.841,0.010,0.981,-0.109,-1.007,0.153,1.953,66.667,840121.000,1.000
5.486,7.658,14.216,9.796,9.479,8.858,11.977,2.468,0.009,0.980,-0.111,-0.824,0.244,1.984,66.667,840122.000,1.000
5.152,4.591,12.901,8.215,6.757,5.026,8.571,1.392,0.008,0.979,-0.112,-0.671,0.397,1.923,66.667,840123.000,1.000
3.738,2.007,10.765,5.728,2.613,0.524,2.428,-1.173,0.008,0.981,-0.111,-0.366,0.397,1.862,66.667,840124.000,1.000
2.312,1.077,8.876,3.480,-1.348,-3.355,-4.378,-4.123,0.008,0.979,-0.111,-0.092,0.427,1.831,66.667,840125.000,1.000
1.875,2.220,8.162,2.401,-3.497,-5.532,-9.270,-6.192,0.008,0.979,-0.112,-0.031,0.488,1.648,66.667,840126.000,1.000
2.427,4.598,8.600,2.513,-3.321,-5.776,-10.655,-6.913,0.008,0.979,-0.114,0.153,0.610,1.709,66.667,840127.000,1.000
3.011,6.579,9.251,3.095,-1.618,-4.748,-8.914,-6.731,0.007,0.979,-0.115,0.366,0.610,1.770,66.667,840128.000,1.000
2.437,6.636,8.885,3.274,0.152,-3.620,-6.039,-6.431,0.006,0.980,-0.117,0.580,0.580,1.740,66.667,840129.000,1.000
0.130,4.128,6.773,2.556,0.828,-3.285,-4.026,-6.535,0.006,0.981,-0.116,0.793,0.641,1.709,66.667,840130.000,1.000
-3.212,-0.274,3.374,1.198,0.308,-3.676,-3.396,-6.882,0.008,0.982,-0.116,0.946,0.671,1.770,66.667,840131.000,1.000
-5.791,-4.853,0.234,0.144,-0.424,-3.890,-3.104,-6.655,0.007,0.985,-0.115,1.129,0.793,1.770,66.667,840132.000,1.000
-5.894,-7.840,-1.076,0.300,-0.129,-2.958,-1.803,-5.111,0.007,0.986,-0.115,1.129,0.732,1.648,66.667,840133.000,1.000
-3.173,-8.513,-0.161,1.661,1.553,-0.733,0.794,-2.460,0.008,0.986,-0.114,1.282,0.671,1.740,66.667,840134.000,1.000
1.062,-7.528,1.924,3.180,3.673,1.753,3.709,0.060,0.009,0.985,-0.115,1.343,0.702,1.801,66.667,840135.000,1.000
4.800,-6.140,3.553,3.639,4.790,3.015,5.641,1.125,0.010,0.984,-0.122,1.404,0.793,1.709,66.667,840136.000,1.000
6.773,-4.990,3.855,2.731,4.323,2.450,6.079,0.447,0.009,0.984,-0.121,1.587,0.854,1.678,66.667,840137.000,1.000
7.133,-3.644,3.296,1.320,3.102,0.977,5.647,-0.994,0.008,0.983,-0.121,1.617,0.793,1.648,66.667,840138.000,1.000
6.830,-1.368,2.954,0.580,2.520,0.239,5.435,-1.875,0.007,0.984,-0.125,1.740,0.793,1.587,66.667,840139.000,1.000
6.520,1.788,3.237,0.894,3.199,1.063,5.974,-1.653,0.008,0.984,-0.124,1.862,0.885,1.526,66.667,840140.000,1.000
6.205,4.887,3.533,1.684,4.581,2.874,6.918,-0.722,0.008,0.984,-0.123,1.923,0.854,1.404,66.667,840141.000,1.000
5.631,6.933,3.012,2.167,5.671,4.619,7.701,0.294,0.006,0.984,-0.123,2.045,0.885,1.465,66.667,840142.000,1.000
4.726,7.536,1.433,2.037,5.856,5.824,8.132,1.041,0.008,0.986,-0.121,1.984,0.977,1.343,66.667,840143.000,1.000
3.780,6.910,-0.753,1.552,5.168,6.648,8.424,1.486,0.009,0.986,-0.125,1.984,1.068,1.312,66.667,840144.000,1.000
3.296,5.588,-2.703,1.250,4.098,7.284,8.845,1.812,0.010,0.984,-0.126,1.923,1.068,1.251,66.667,840145.000,1.000
3.556,4.125,-3.667,1.501,3.113,7.499,9.057,2.031,0.009,0.983,-0.126,2.045,1.099,1.251,66.667,840146.000,1.000
4.237,2.805,-3.512,2.126,2.174,6.617,8.039,1.745,0.009,0.982,-0.128,2.075,1.129,1.099,66.667,840147.000,1.000
4.509,1.553,-2.865,2.488,0.887,4.114,5.213,0.646,0.008,0.982,-0.128,2.075,1.190,1.007,66.667,840148.000,1.000
3.562,0.210,-2.627,1.989,-0.891,0.465,1.421,-1.089,0.007,0.981,-0.129,2.167,1.160,0.977,66.667,840149.000,1.000
0.977,-1.250,-3.425,0.432,-2.852,-2.965,-1.738,-3.116,0.005,0.983,-0.127,2.258,1.221,0.885,66.667,840150.000,1.000
-3.117,-2.789,-5.374,-1.947,-4.576,-5.116,-3.320,-5.129,0.006,0.981,-0.127,2.228,1.160,0.854,66.667,840151.000,1.000
-7.949,-4.358,-8.058,-4.593,-5.828,-5.997,-3.493,-6.703,0.006,0.982,-0.129,2.319,1.160,0.732,66.667,840152.000,1.000
-12.388,-5.933,-10.794,-6.938,-6.671,-6.356,-3.106,-7.519,0.003,0.980,-0.129,2.167,1.007,0.641,66.667,840153.000,1.000
-15.616,-7.608,-13.073,-8.716,-7.420,-7.000,-3.166,-7.701,0.002,0.981,-0.128,2.228,1.038,0.458,66.667,840154.000,1.000
-17.497,-9.477,-14.683,-9.929,-8.386,-8.372,-4.415,-7.723,0.002,0.980,-0.129,2.319,0.977,0.458,66.667,840155.000,1.000
-18.331,-11.418,-15.538,-10.580,-9.603,-10.513,-6.916,-8.048,0.001,0.980,-0.133,2.350,0.854,0.397,66.667,840156.000,1.000
-18.389,-12.994,-15.499,-10.490,-10.690,-13.114,-9.823,-8.714,0.000,0.979,-0.132,2.472,0.732,0.488,66.667,840157.000,1.000
-17.589,-13.457,-14.244,-9.274,-10.824,-15.334,-11.625,-9.016,0.000,0.978,-0.131,2.411,0.610,0.336,66.667,840158.000,1.000
-15.683,-12.120,-11.519,-6.679,-9.169,-15.917,-11.060,-8.021,-0.001,0.979,-0.130,2.502,0.488,0.275,66.667,840159.000,1.000
-12.839,-9.018,-7.656,-3.112,-5.661,-14.039,-8.034,-5.613,-0.003,0.980,-0.130,2.594,0.397,0.397,66.667,840160.000,1.000
-9.835,-5.142,-3.661,0.367,-1.191,-10.030,-3.597,-2.582,-0.002,0.981,-0.132,2.594,0.153,0.336,66.667,840161.000,1.000
-7.799,-2.089,-0.835,2.522,2.798,-5.375,0.701,0.018,-0.003,0.982,-0.131,2.594,0.031,0.214,66.667,840162.000,1.000
-7.818,-1.423,-0.340,2.342,4.763,-2.119,3.169,1.027,-0.003,0.987,-0.133,2.625,-0.122,0.183,66.667,840163.000,1.000
-10.291,-3.769,-2.567,-0.463,3.775,-1.667,2.656,-0.448,-0.005,0.984,-0.128,2.441,-0.336,0.275,66.667,840164.000,1.000
-14.296,-8.084,-6.527,-4.873,0.353,-3.654,-0.329,-3.967,-0.007,0.984,-0.129,2.380,-0.519,0.336,66.667,840165.000,1.000
-17.869,-12.073,-10.193,-8.828,-3.638,-6.083,-3.518,-7.571,-0.007,0.982,-0.130,2.350,-0.732,0.336,66.667,840166.000,1.000
-19.392,-13.744,-11.911,-10.633,-6.325,-6.860,-4.492,-9.256,-0.006,0.981,-0.128,2.289,-0.946,0.397,66.667,840167.000,1.000
-18.631,-12.663,-11.433,-10.051,-7.070,-5.365,-2.589,-8.473,-0.007,0.981,-0.132,2.228,-1.099,0.305,66.667,840168.000,1.000
-16.394,-9.789,-9.593,-7.945,-6.418,-2.593,0.765,-6.061,-0.006,0.981,-0.130,2.136,-1.434,0.366,66.667,840169.000,1.000
-13.630,-6.481,-7.399,-5.287,-5.208,-0.033,3.446,-3.156,-0.006,0.982,-0.130,2.045,-1.709,0.488,66.667,840170.000,1.000
-11.014,-3.817,-5.574,-2.708,-3.979,1.302,4.245,-0.460,-0.006,0.983,-0.131,2.014,-1.923,0.519,66.667,840171.000,1.000
-8.924,-2.432,-4.518,-0.640,-3.048,1.048,3.241,1.661,-0.007,0.985,-0.131,1.862,-2.075,0.488,66.667,840172.000,1.000
-7.361,-2.438,-4.248,0.604,-2.712,-0.665,1.032,2.866,-0.007,0.984,-0.132,1.831,-2.106,0.519,66.667,840173.000,1.000
-5.846,-3.321,-4.255,1.053,-3.085,-3.201,-1.626,3.033,-0.007,0.986,-0.130,1.648,-2.258,0.641,66.667,840174.000,1.000
-3.737,-4.186,-3.723,1.159,-3.883,-5.598,-3.530,2.567,-0.007,0.985,-0.130,1.526,-2.472,0.610,66.667,840175.000,1.000
-0.834,-4.400,-2.171,1.459,-4.623,-7.081,-3.434,2.119,-0.009,0.982,-0.131,1.404,-2.686,0.610,66.667,840176.000,1.000
2.362,-4.026,0.060,2.133,-5.080,-7.490,-1.352,1.940,-0.010,0.983,-0.128,1.221,-2.838,0.549,66.667,840177.000,1.000
4.869,-3.744,1.885,2.813,-5.610,-7.522,0.693,1.414,-0.009,0.982,-0.130,1.038,-3.113,0.549,66.667,840178.000,1.000
5.732,-4.343,2.118,2.814,-6.889,-8.362,0.118,-0.536,-0.010,0.981,-0.131,0.946,-3.235,0.427,66.667,840179.000,1.000
4.620,-6.064,0.302,1.691,-9.174,-10.545,-3.770,-4.245,-0.009,0.980,-0.129,0.793,-3.387,0.427,66.667,840180.000,1.000
2.102,-8.415,-2.954,-0.424,-11.957,-13.438,-9.435,-8.824,-0.007,0.980,-0.131,0.671,-3.479,0.366,66.667,840181.000,1.000
-0.651,-10.513,-6.358,-2.911,-14.298,-15.876,-14.673,-12.896,-0.003,0.979,-0.131,0.580,-3.632,0.275,66.667,840182.000,1.000
-2.460,-11.473,-8.520,-4.865,-15.219,-16.751,-17.707,-15.286,-0.001,0.974,-0.129,0.519,-3.693,0.366,66.667,840183.000,1.000
-2.693,-10.821,-8.578,-5.514,-14.162,-15.448,-17.643,-15.271,0.000,0.970,-0.128,0.366,-3.784,0.336,66.667,840184.000,1.000
-1.562,-8.895,-6.717,-4.789,-11.538,-12.559,-15.084,-13.000,0.001,0.966,-0.129,0.244,-3.723,0.488,66.667,840185.000,1.000
0.082,-6.718,-4.070,-3.409,-8.654,-9.778,-11.984,-9.673,0.003,0.963,-0.132,0.427,-3.601,0.549,66.667,840186.000,1.000
1.238,-5.380,-2.039,-2.377,-6.877,-8.541,-10.166,-6.920,0.005,0.964,-0.133,0.610,-3.387,0.671,66.667,840187.000,1.000
1.245,-5.460,-1.539,-2.344,-6.826,-8.995,-9.955,-5.792,0.002,0.965,-0.133,0.854,-3.326,0.702,66.667,840188.000,1.000
0.159,-6.749,-2.559,-3.229,-8.100,-10.196,-10.241,-6.166,0.003,0.971,-0.134,0.946,-3.265,0.732,66.667,840189.000,1.000
-1.326,-8.410,-4.308,-4.383,-9.637,-10.881,-9.662,-7.033,0.004,0.975,-0.133,1.068,-3.204,0.824,66.667,840190.000,1.000
-2.437,-9.544,-5.851,-5.139,-10.397,-10.128,-7.807,-7.296,0.003,0.979,-0.130,0.977,-3.082,0.916,66.667,840191.000,1.000
-2.892,-9.705,-6.707,-5.274,-9.945,-7.860,-5.372,-6.413,0.003,0.982,-0.131,0.702,-2.960,1.068,66.667,840192.000,1.000
-3.016,-9.083,-7.031,-5.075,-8.578,-4.962,-3.257,-4.509,0.001,0.982,-0.133,0.610,-2.930,1.190,66.667,840193.000,1.000
-3.401,-8.319,-7.337,-5.050,-6.983,-2.635,-1.596,-2.126,-0.002,0.983,-0.130,0.458,-2.777,1.160,66.667,840194.000,1.000
-4.406,-8.034,-7.993,-5.513,-5.805,-1.565,0.067,0.031,-0.002,0.985,-0.129,0.336,-2.716,1.038,66.667,840195.000,1.000
-5.885,-8.384,-8.899,-6.387,-5.377,-1.542,1.812,1.305,-0.006,0.986,-0.130,0.061,-2.777,0.977,66.667,840196.000,1.000
-7.364,-9.040,-9.681,-7.356,-5.674,-1.705,3.118,1.288,-0.010,0.989,-0.130,-0.092,-2.747,0.977,66.667,840197.000,1.000
-8.450,-9.664,-10.168,-8.173,-6.516,-1.474,3.353,-0.030,-0.012,0.988,-0.124,-0.397,-2.777,0.671,66.667,840198.000,1.000
-9.055,-10.294,-10.568,-8.783,-7.794,-1.247,2.100,-2.195,-0.013,0.986,-0.125,-0.702,-2.808,0.549,66.667,840199.000,1.000
-9.270,-11.140,-11.168,-9.231,-9.383,-1.804,-0.437,-4.351,-0.014,0.988,-0.122,-1.007,-2.991,0.366,66.667,840200.000,1.000
-9.092,-12.102,-11.948,-9.534,-10.932,-3.204,-3.137,-5.636,-0.013,0.989,-0.124,-1.221,-2.991,0.244,66.667,840201.000,1.000
-8.301,-12.647,-12.501,-9.616,-11.960,-4.734,-4.661,-5.806,-0.010,0.987,-0.125,-1.526,-3.174,0.031,66.667,840202.000,1.000
-6.606,-12.101,-12.279,-9.301,-12.142,-5.705,-4.516,-5.297,-0.010,0.987,-0.124,-1.709,-3.357,-0.031,66.667,840203.000,1.000
-4.042,-10.108,-11.027,-8.467,-11.459,-5.899,-3.184,-4.624,-0.009,0.988,-0.124,-1.801,-3.296,0.061,66.667,840204.000,1.000
-1.270,-6.999,-9.114,-7.316,-10.257,-5.510,-1.643,-4.188,-0.007,0.990,-0.121,-1.953,-3.296,0.122,66.667,840205.000,1.000
0.709,-3.705,-7.294,-6.295,-9.044,-4.875,-0.804,-4.346,-0.005,0.991,-0.122,-2.045,-3.235,0.275,66.667,840206.000,1.000
1.283,-1.162,-6.038,-5.639,-8.067,-4.213,-0.884,-5.017,-0.003,0.992,-0.122,-2.289,-3.143,0.458,66.667,840207.000,1.000
0.695,0.267,-5.204,-5.146,-7.154,-3.496,-1.272,-5.513,-0.003,0.994,-0.123,-2.625,-3.082,0.549,66.667,840208.000,1.000
-0.083,0.941,-4.241,-4.378,-5.906,-2.487,-0.955,-4.996,-0.004,0.994,-0.122,-2.808,-3.113,0.732,66.667,840209.000,1.000
0.154,1.594,-2.648,-2.973,-4.077,-1.181,0.677,-3.098,-0.004,0.994,-0.120,-3.082,-3.021,0.946,66.667,840210.000,1.000
2.154,2.687,-0.366,-0.881,-1.874,-0.212,3.238,-0.122,-0.004,0.991,-0.119,-3.265,-2.899,1.190,66.667,840211.000,1.000
5.723,4.139,2.192,1.591,0.241,-0.207,5.911,3.322,-0.005,0.990,-0.117,-3.479,-2.899,1.373,66.667,840212.000,1.000
9.878,5.610,4.485,3.935,1.975,-0.782,8.110,6.524,-0.004,0.988,-0.117,-3.632,-2.777,1.434,66.667,840213.000,1.000
13.470,6.820,6.149,5.639,3.263,-0.805,9.239,8.657,-0.006,0.986,-0.115,-3.693,-2.716,1.526,66.667,840214.000,1.000
15.693,7.575,7.025,6.394,4.115,0.351,8.734,9.174,-0.007,0.984,-0.118,-3.754,-2.808,1.740,66.667,840215.000,1.000
16.254,7.706,7.091,6.226,4.556,2.248,6.710,8.258,-0.008,0.984,-0.117,-3.876,-2.747,1.801,66.667,840216.000,1.000
15.352,7.140,6.490,5.483,4.721,4.059,4.229,6.790,-0.009,0.984,-0.114,-3.998,-2.747,1.831,66.667,840217.000,1.000
13.606,6.082,5.620,4.750,4.935,5.362,2.751,6.001,-0.008,0.985,-0.114,-3.967,-2.869,1.953,66.667,840218.000,1.000
11.843,5.070,5.036,4.655,5.597,6.299,3.318,6.825,-0.008,0.984,-0.111,-3.967,-2.838,1.923,66.667,840219.000,1.000
10.629,4.710,5.047,5.464,6.897,7.393,6.021,9.210,-0.009,0.982,-0.112,-4.089,-2.747,2.075,66.667,840220.000,1.000
9.872,5.123,5.346,6.730,8.517,8.866,9.731,11.990,-0.008,0.981,-0.110,-4.028,-2.686,2.045,66.667,840221.000,1.000
8.945,5.639,5.100,7.436,9.598,9.905,12.389,13.494,-0.008,0.978,-0.110,-4.089,-2.594,2.045,66.667,840222.000,1.000
7.312,5.280,3.645,6.715,9.331,9.135,12.245,12.558,-0.007,0.971,-0.108,-3.937,-2.655,2.075,66.667,840223.000,1.000
5.056,3.625,1.150,4.593,7.743,6.058,9.179,9.366,-0.006,0.969,-0.112,-3.815,-2.594,2.075,66.667,840224.000,1.000
2.756,1.070,-1.504,1.935,5.607,1.603,4.476,5.123,-0.006,0.969,-0.111,-3.632,-2.655,2.075,66.667,840225.000,1.000
1.054,-1.550,-3.376,-0.246,3.697,-2.577,-0.398,0.921,-0.005,0.966,-0.114,-3.387,-2.625,2.106,66.667,840226.000,1.000
0.429,-3.306,-3.867,-1.269,2.553,-4.869,-4.098,-2.497,-0.005,0.964,-0.111,-3.174,-2.502,2.045,66.667,840227.000,1.000
1.079,-3.476,-2.861,-0.917,2.593,-4.392,-5.440,-4.335,-0.002,0.965,-0.111,-2.991,-2.350,2.014,66.667,840228.000,1.000
2.791,-1.963,-0.796,0.487,3.841,-1.683,-4.153,-4.158,-0.001,0.964,-0.110,-2.686,-2.319,2.136,66.667,840229.000,1.000
5.029,0.688,1.593,2.314,5.814,1.696,-0.969,-2.333,-0.001,0.965,-0.112,-2.350,-2.258,2.136,66.667,840230.000,1.000
7.304,3.748,3.789,4.136,7.956,4.452,3.154,0.456,0.002,0.966,-0.114,-2.167,-2.136,2.258,66.667,840231.000,1.000
9.445,6.709,5.745,5.933,9.950,6.215,7.164,3.749,0.001,0.966,-0.110,-1.831,-1.984,2.228,66.667,840232.000,1.000
11.469,9.277,7.649,7.787,11.609,7.371,9.812,7.189,0.002,0.966,-0.112,-1.678,-1.740,2.258,66.667,840233.000,1.000
13.169,11.119,9.440,9.455,12.650,8.582,10.322,10.189,0.003,0.967,-0.112,-1.495,-1.587,2.289,66.667,840234.000,1.000
13.971,11.800,10.588,10.376,12.654,10.029,8.817,12.058,0.006,0.969,-0.109,-1.312,-1.526,2.258,66.667,840235.000,1.000
13.397,11.144,10.535,10.186,11.441,11.008,5.982,12.588,0.005,0.969,-0.111,-1.099,-1.282,2.350,66.667,840236.000,1.000
11.558,9.524,9.262,9.107,9.429,10.570,2.832,12.273,0.003,0.971,-0.110,-1.007,-1.160,2.258,66.667,840237.000,1.000
8.981,7.586,7.219,7.653,7.409,8.467,0.436,11.740,0.003,0.972,-0.113,-0.854,-0.977,2.289,66.667,840238.000,1.000
6.092,5.789,4.830,6.119,5.934,5.388,-0.650,11.216,0.003,0.972,-0.114,-0.610,-0.885,2.441,66.667,840239.000,1.000
3.117,4.364,2.349,4.495,5.030,2.559,-0.649,10.574,0.003,0.977,-0.113,-0.549,-0.732,2.441,66.667,840240.000,1.000
0.464,3.556,0.187,2.838,4.479,1.115,-0.177,9.767,0.003,0.980,-0.110,-0.488,-0.641,2.441,66.667,840241.000,1.000
-1.125,3.690,-0.943,1.543,4.260,1.554,0.486,9.086,0.000,0.983,-0.109,-0.488,-0.610,2.380,66.667,840242.000,1.000
-1.083,4.870,-0.511,1.059,4.530,3.428,1.451,8.770,-0.001,0.982,-0.110,-0.549,-0.549,2.258,66.667,840243.000,1.000
0.310,6.576,1.159,1.309,5.115,5.367,2.466,8.437,-0.003,0.981,-0.106,-0.671,-0.549,2.136,66.667,840244.000,1.000
1.966,7.835,2.930,1.608,5.357,5.852,2.611,7.181,-0.004,0.979,-0.107,-0.793,-0.641,2.167,66.667,840245.000,1.000
2.826,8.021,3.731,1.297,4.768,4.581,1.293,4.462,-0.004,0.980,-0.109,-0.885,-0.519,2.106,66.667,840246.000,1.000
2.568,7.407,3.356,0.382,3.685,2.872,-0.740,0.912,-0.003,0.980,-0.111,-0.916,-0.549,2.045,66.667,840247.000,1.000
1.589,6.767,2.423,-0.517,2.974,2.222,-2.080,-2.002,0.000,0.982,-0.111,-0.885,-0.458,2.014,66.667,840248.000,1.000
0.596,6.642,1.749,-0.727,3.237,2.899,-2.007,-3.102,-0.001,0.983,-0.110,-0.946,-0.397,1.923,66.667,840249.000,1.000
0.153,7.067,1.776,-0.015,4.434,4.214,-0.658,-2.175,0.000,0.984,-0.113,-0.916,-0.336,1.831,66.667,840250.000,1.000
0.324,7.694,2.355,1.261,5.991,5.490,1.497,0.065,0.001,0.986,-0.114,-0.977,-0.305,1.801,66.667,840251.000,1.000
0.706,8.061,2.966,2.463,7.142,6.407,3.922,2.446,0.003,0.984,-0.115,-1.038,-0.336,1.801,66.667,840252.000,1.000
0.858,7.892,3.187,3.163,7.387,6.890,6.061,4.086,0.005,0.985,-0.116,-1.038,-0.153,1.923,66.667,840253.000,1.000
0.605,7.236,2.947,3.343,6.779,6.981,7.335,4.871,0.007,0.987,-0.116,-1.129,-0.061,2.014,66.667,840254.000,1.000
-0.074,6.267,2.302,3.076,5.668,6.610,7.019,5.110,0.007,0.987,-0.115,-1.129,0.031,2.136,66.667,840255.000,1.000
-1.165,5.077,1.224,2.292,4.316,5.502,4.626,5.018,0.004,0.988,-0.115,-1.099,0.061,2.167,66.667,840256.000,1.000
-2.410,3.849,-0.152,1.071,2.978,3.716,0.936,4.829,0.001,0.986,-0.113,-1.190,0.153,2.136,66.667,840257.000,1.000
-3.193,3.007,-1.313,-0.103,2.076,2.122,-1.977,4.946,-0.001,0.984,-0.113,-1.251,0.153,2.228,66.667,840258.000,1.000
-2.825,2.939,-1.618,-0.625,2.032,1.863,-2.223,5.662,-0.005,0.981,-0.110,-1.404,0.183,2.106,66.667,840259.000,1.000
-0.948,3.684,-0.731,-0.217,2.982,3.382,0.581,6.915,-0.005,0.982,-0.110,-1.404,0.153,1.953,66.667,840260.000,1.000
2.208,4.866,1.128,0.889,4.590,6.009,5.107,8.217,-0.003,0.982,-0.113,-1.404,0.000,1.801,66.667,840261.000,1.000
5.759,5.823,3.184,2.034,6.026,8.279,8.965,8.629,-0.003,0.981,-0.114,-1.495,-0.092,1.801,66.667,840262.000,1.000
8.493,5.936,4.476,2.494,6.397,8.808,9.976,7.212,-0.005,0.978,-0.112,-1.434,-0.183,1.740,66.667,840263.000,1.000
9.530,5.060,4.487,1.984,5.454,7.365,7.742,4.003,-0.005,0.979,-0.114,-1.373,-0.244,1.648,66.667,840264.000,1.000
8.770,3.625,3.460,0.870,3.778,5.149,3.947,0.260,-0.004,0.977,-0.116,-1.190,-0.305,1.587,66.667,840265.000,1.000
6.668,2.225,2.057,-0.173,2.229,3.688,0.835,-2.459,-0.003,0.978,-0.117,-1.160,-0.427,1.434,66.667,840266.000,1.000
3.855,1.211,0.848,-0.618,1.406,3.548,-0.314,-3.148,-0.003,0.980,-0.116,-1.129,-0.519,1.373,66.667,840267.000,1.000
1.160,0.754,0.212,-0.226,1.584,4.255,0.551,-1.586,0.000,0.981,-0.113,-1.099,-0.580,1.465,66.667,840268.000,1.000
-0.464,0.986,0.391,0.956,2.791,5.167,2.896,1.580,-0.001,0.981,-0.111,-1.007,-0.671,1.404,66.667,840269.000,1.000
-0.517,1.813,1.312,2.540,4.723,5.996,6.106,4.957,-0.001,0.981,-0.113,-1.160,-0.610,1.404,66.667,840270.000,1.000
0.639,2.769,2.480,3.874,6.677,6.610,9.213,7.000,0.001,0.979,-0.113,-1.099,-0.549,1.556,66.667,840271.000,1.000
2.050,3.255,3.185,4.326,7.744,6.735,10.704,6.754,0.002,0.980,-0.114,-1.160,-0.519,1.587,66.667,840272.000,1.000
2.809,2.902,2.870,3.549,7.192,5.985,9.225,4.237,0.003,0.978,-0.116,-1.160,-0.519,1.740,66.667,840273.000,1.000
2.536,1.802,1.472,1.667,4.896,4.189,4.531,0.381,0.003,0.979,-0.115,-1.129,-0.458,1.862,66.667,840274.000,1.000
1.504,0.526,-0.397,-0.639,1.636,1.789,-2.010,-3.286,0.004,0.979,-0.113,-1.007,-0.488,1.892,66.667,840275.000,1.000
0.319,-0.202,-1.708,-2.351,-1.116,-0.070,-7.717,-5.214,0.003,0.982,-0.111,-0.946,-0.519,2.014,66.667,840276.000,1.000
-0.619,-0.071,-1.781,-2.779,-2.127,-0.170,-10.080,-4.746,0.003,0.984,-0.110,-0.977,-0.397,2.167,66.667,840277.000,1.000
-1.441,0.485,-0.913,-2.120,-1.368,1.648,-8.632,-2.752,0.003,0.982,-0.112,-0.885,-0.366,2.258,66.667,840278.000,1.000
-2.588,0.593,-0.113,-1.237,0.089,3.957,-5.217,-0.935,0.003,0.980,-0.111,-0.824,-0.366,2.228,66.667,840279.000,1.000
-4.279,-0.272,-0.164,-0.807,1.166,4.767,-2.269,-0.311,0.005,0.982,-0.110,-0.916,-0.336,2.289,66.667,840280.000,1.000
-6.202,-1.759,-0.994,-0.823,1.642,3.327,-0.988,-0.568,0.006,0.981,-0.112,-0.916,-0.305,2.380,66.667,840281.000,1.000
-7.764,-2.956,-1.957,-0.917,1.914,0.731,-1.033,-0.868,0.005,0.981,-0.113,-0.916,-0.183,2.380,66.667,840282.000,1.000
-8.567,-3.219,-2.530,-0.925,2.267,-1.156,-1.472,-0.796,0.005,0.981,-0.114,-0.977,-0.153,2.289,66.667,840283.000,1.000
-8.613,-2.651,-2.669,-0.984,2.561,-1.227,-1.705,-0.475,0.004,0.982,-0.111,-0.946,-0.183,2.380,66.667,840284.000,1.000
-8.133,-1.853,-2.622,-1.262,2.480,0.152,-1.727,-0.186,0.004,0.981,-0.111,-0.916,-0.122,2.380,66.667,840285.000,1.000
-7.278,-1.249,-2.568,-1.735,1.970,1.825,-1.652,-0.026,0.004,0.979,-0.111,-0.885,-0.061,2.350,66.667,840286.000,1.000
-6.224,-0.853,-2.601,-2.261,1.303,3.058,-1.206,0.206,0.004,0.978,-0.111,-0.885,0.000,2.319,66.667,840287.000,1.000
-5.571,-0.691,-3.003,-2.847,0.666,3.739,-0.180,0.690,0.007,0.979,-0.109,-0.946,0.000,2.350,66.667,840288.000,1.000
-6.199,-1.089,-4.216,-3.694,-0.133,3.736,0.850,1.182,0.006,0.978,-0.109,-0.854,0.000,2.380,66.667,840289.000,1.000
-8.554,-2.391,-6.474,-4.995,-1.473,2.701,0.814,1.026,0.006,0.978,-0.110,-0.793,0.000,2.319,66.667,840290.000,1.000
-12.093,-4.468,-9.523,-6.707,-3.421,0.620,-0.680,-0.198,0.007,0.975,-0.111,-0.793,0.061,2.167,66.667,840291.000,1.000
-15.431,-6.562,-12.649,-8.437,-5.425,-1.744,-2.581,-1.977,0.007,0.976,-0.112,-0.732,0.092,2.167,66.667,840292.000,1.000
-17.070,-7.629,-14.955,-9.561,-6.567,-3.220,-3.212,-3.186,0.006,0.979,-0.113,-0.610,0.153,2.106,66.667,840293.000,1.000
-16.171,-6.861,-15.690,-9.513,-6.123,-2.946,-1.936,-3.201,0.004,0.979,-0.112,-0.488,0.122,2.075,66.667,840294.000,1.000
-12.972,-4.127,-14.618,-8.123,-4.001,-0.741,0.337,-2.345,0.005,0.979,-0.113,-0.427,0.183,2.014,66.667,840295.000,1.000
-8.800,-0.318,-12.408,-5.906,-0.892,2.796,2.117,-1.381,0.007,0.982,-0.112,-0.397,0.275,1.953,66.667,840296.000,1.000
-5.539,2.872,-10.499,-3.946,1.943,6.339,2.442,-0.892,0.006,0.979,-0.112,-0.397,0.336,2.014,66.667,840297.000,1.000
-4.589,3.910,-10.218,-3.263,3.332,8.309,1.280,-1.050,0.004,0.980,-0.111,-0.397,0.244,1.953,66.667,840298.000,1.000
-6.105,2.378,-11.934,-4.217,2.823,7.763,-0.656,-1.765,0.005,0.982,-0.113,-0.336,0.275,1.892,66.667,840299.000,1.000
-9.146,-0.937,-14.997,-6.420,0.799,5.118,-2.410,-2.878,0.006,0.982,-0.114,-0.427,0.244,1.770,66.667,840300.000,1.000
-12.351,-4.672,-18.307,-9.058,-1.947,1.765,-3.435,-4.239,0.005,0.982,-0.110,-0.366,0.305,1.770,66.667,840301.000,1.000
-14.570,-7.622,-20.943,-11.354,-4.824,-1.246,-4.106,-5.810,0.006,0.984,-0.113,-0.397,0.214,1.740,66.667,840302.000,1.000
-15.198,-9.131,-22.419,-12.803,-7.535,-3.707,-5.235,-7.485,0.004,0.984,-0.112,-0.397,0.183,1.709,66.667,840303.000,1.000
-14.328,-9.174,-22.689,-13.182,-9.671,-5.456,-6.686,-8.649,0.005,0.984,-0.111,-0.519,0.214,1.709,66.667,840304.000,1.000
-12.649,-8.282,-22.098,-12.578,-10.699,-5.976,-7.180,-8.449,0.004,0.985,-0.111,-0.610,0.244,1.709,66.667,840305.000,1.000
-10.975,-7.214,-21.114,-11.411,-10.420,-5.127,-5.962,-6.824,0.002,0.984,-0.110,-0.641,0.214,1.709,66.667,840306.000,1.000
-9.778,-6.517,-19.965,-10.226,-9.221,-3.814,-3.964,-4.853,0.003,0.984,-0.113,-0.671,0.122,1.770,66.667,840307.000,1.000
-9.020,-6.279,-18.488,-9.289,-7.702,-3.446,-2.758,-3.648,0.001,0.984,-0.110,-0.702,0.153,1.617,66.667,840308.000,1.000
-8.235,-6.114,-16.321,-8.405,-6.154,-4.526,-2.697,-3.207,0.003,0.982,-0.108,-0.732,0.061,1.617,66.667,840309.000,1.000
-6.860,-5.508,-13.333,-7.254,-4.598,-6.284,-2.832,-2.892,0.003,0.983,-0.108,-0.763,0.000,1.587,66.667,840310.000,1.000
-4.700,-4.407,-9.980,-5.936,-3.279,-7.850,-2.536,-2.624,0.004,0.982,-0.110,-0.732,-0.092,1.587,66.667,840311.000,1.000
-2.136,-3.280,-7.129,-4.983,-2.710,-8.907,-2.243,-2.934,0.004,0.981,-0.109,-0.732,-0.061,1.556,66.667,840312.000,1.000
0.256,-2.485,-5.319,-4.735,-3.063,-9.142,-2.506,-4.055,0.001,0.982,-0.110,-0.702,-0.122,1.587,66.667,840313.000,1.000
2.176,-1.874,-4.314,-4.887,-3.851,-8.126,-3.064,-5.543,0.000,0.983,-0.109,-0.671,-0.244,1.556,66.667,840314.000,1.000
3.748,-1.048,-3.344,-4.668,-4.291,-5.861,-3.117,-6.659,-0.001,0.983,-0.109,-0.763,-0.397,1.556,66.667,840315.000,1.000
5.289,0.244,-1.715,-3.378,-3.751,-2.822,-2.202,-6.770,-0.001,0.984,-0.111,-0.702,-0.488,1.495,66.667,840316.000,1.000
6.716,1.736,0.474,-1.078,-2.208,0.324,-0.731,-5.777,0.000,0.983,-0.112,-0.793,-0.580,1.465,66.667,840317.000,1.000
7.297,2.596,2.173,1.199,-0.466,2.750,0.172,-4.388,0.000,0.982,-0.108,-0.793,-0.671,1.465,66.667,840318.000,1.000
6.325,2.093,2.316,2.263,0.439,3.735,-0.424,-3.577,0.000,0.979,-0.108,-0.702,-0.732,1.465,66.667,840319.000,1.000
3.976,0.337,0.916,1.747,0.166,3.241,-2.340,-3.695,0.000,0.981,-0.111,-0.763,-0.824,1.465,66.667,840320.000,1.000
1.370,-1.708,-0.872,0.304,-0.679,2.089,-4.371,-4.296,0.001,0.981,-0.113,-0.916,-0.854,1.495,66.667,840321.000,1.000
-0.276,-2.988,-1.758,-1.061,-1.236,1.339,-5.324,-4.837,0.001,0.981,-0.111,-0.854,-0.916,1.404,66.667,840322.000,1.000
-0.582,-3.141,-1.370,-1.806,-1.224,1.365,-5.017,-5.358,0.003,0.981,-0.110,-0.854,-1.068,1.526,66.667,840323.000,1.000
-0.020,-2.465,-0.308,-1.955,-0.943,1.744,-4.127,-6.084,0.003,0.981,-0.110,-0.916,-1.068,1.617,66.667,840324.000,1.000
0.761,-1.363,0.591,-1.679,-0.729,1.930,-3.424,-6.763,0.006,0.980,-0.107,-0.946,-1.038,1.587,66.667,840325.000,1.000
1.424,-0.103,0.888,-1.045,-0.646,1.652,-3.476,-6.862,0.005,0.980,-0.110,-0.885,-0.977,1.617,66.667,840326.000,1.000
1.989,1.150,0.706,-0.022,-0.451,0.937,-4.332,-6.034,0.004,0.979,-0.110,-0.793,-1.038,1.678,66.667,840327.000,1.000
2.628,2.267,0.480,1.393,0.224,0.228,-5.299,-4.323,0.004,0.979,-0.109,-0.732,-1.068,1.709,66.667,840328.000,1.000
3.421,3.068,0.506,2.953,1.421,-0.001,-5.688,-2.343,0.004,0.977,-0.109,-0.732,-1.160,1.862,66.667,840329.000,1.000
4.272,3.254,0.764,4.171,2.629,-0.164,-5.775,-1.082,0.004,0.979,-0.109,-0.702,-1.190,1.923,66.667,840330.000,1.000
4.966,2.532,1.090,4.688,3.170,-1.530,-6.479,-1.036,0.004,0.979,-0.108,-0.732,-1.038,2.045,66.667,840331.000,1.000
5.345,0.965,1.437,4.617,2.857,-4.761,-8.075,-1.651,0.005,0.978,-0.109,-0.610,-1.068,2.106,66.667,840332.000,1.000
5.563,-0.710,2.028,4.460,2.200,-8.827,-9.701,-1.864,0.005,0.978,-0.110,-0.641,-1.129,2.197,66.667,840333.000,1.000
6.016,-1.414,3.144,4.616,1.887,-11.651,-10.109,-0.990,0.004,0.979,-0.108,-0.671,-1.068,2.289,66.667,840334.000,1.000
6.996,-0.460,4.832,5.111,2.229,-11.579,-8.428,1.043,0.003,0.979,-0.109,-0.671,-1.099,2.319,66.667,840335.000,1.000
8.575,2.108,6.967,5.904,3.200,-8.272,-4.625,3.875,0.004,0.978,-0.110,-0.732,-1.160,2.350,66.667,840336.000,1.000
10.629,5.588,9.315,7.065,4.535,-2.875,-0.007,6.707,0.003,0.979,-0.107,-0.641,-1.160,2.319,66.667,840337.000,1.000
12.780,8.874,11.479,8.566,5.765,2.639,3.280,8.538,0.005,0.982,-0.108,-0.610,-1.190,2.472,66.667,840338.000,1.000
14.586,11.113,13.194,10.279,6.662,6.905,4.147,8.989,0.003,0.983,-0.108,-0.702,-1.160,2.441,66.667,840339.000,1.000
15.686,12.134,14.449,12.026,7.396,9.831,3.409,8.546,0.004,0.984,-0.105,-0.671,-1.190,2.472,66.667,840340.000,1.000
15.666,12.108,15.046,13.374,8.003,11.705,2.438,7.755,0.004,0.984,-0.103,-0.671,-1.129,2.502,66.667,840341.000,1.000
14.069,11.048,14.443,13.674,8.102,12.228,1.808,6.668,0.006,0.984,-0.106,-0.763,-1.160,2.594,66.667,840342.000,1.000
10.846,8.874,12.320,12.570,7.290,10.821,1.259,5.138,0.007,0.982,-0.104,-0.916,-1.160,2.563,66.667,840343.000,1.000
6.794,5.860,9.180,10.454,5.649,7.556,0.349,3.362,0.008,0.982,-0.105,-1.038,-1.038,2.625,66.667,840344.000,1.000
3.308,2.775,6.217,8.320,3.809,3.399,-0.854,2.106,0.006,0.982,-0.106,-1.129,-0.977,2.655,66.667,840345.000,1.000
1.562,0.537,4.568,7.115,2.578,-0.244,-1.475,2.340,0.006,0.981,-0.107,-1.129,-0.946,2.686,66.667,840346.000,1.000
1.890,-0.174,4.693,7.204,2.458,-2.051,-0.492,4.411,0.007,0.980,-0.107,-1.160,-0.977,2.716,66.667,840347.000,1.000
3.798,0.886,6.321,8.338,3.433,-1.284,2.125,7.553,0.008,0.978,-0.109,-1.190,-1.068,2.563,66.667,840348.000,1.000
6.280,3.380,8.663,9.897,5.059,1.866,5.286,10.273,0.008,0.980,-0.111,-1.160,-1.007,2.655,66.667,840349.000,1.000
8.140,6.256,10.582,11.074,6.574,6.146,7.548,11.156,0.010,0.980,-0.110,-1.068,-1.007,2.502,66.667,840350.000,1.000
8.452,8.048,11.006,11.133,7.093,9.515,7.798,9.590,0.008,0.982,-0.107,-1.160,-0.854,2.441,66.667,840351.000,1.000
7.107,7.776,9.592,9.844,6.181,10.367,5.990,6.178,0.011,0.984,-0.104,-1.221,-0.671,2.563,66.667,840352.000,1.000
4.847,5.582,6.933,7.645,4.261,8.648,3.347,2.477,0.011,0.983,-0.107,-1.221,-0.641,2.625,66.667,840353.000,1.000
2.605,2.421,3.958,5.273,2.179,5.323,1.380,0.065,0.010,0.983,-0.106,-1.251,-0.641,2.594,66.667,840354.000,1.000
0.891,-0.625,1.285,3.276,0.504,1.319,0.772,-0.391,0.009,0.985,-0.106,-1.343,-0.641,2.563,66.667,840355.000,1.000
-0.239,-2.710,-0.851,1.810,-0.638,-2.535,1.131,0.643,0.009,0.984,-0.108,-1.251,-0.671,2.441,66.667,840356.000,1.000
-0.819,-3.252,-2.282,0.786,-1.246,-5.275,1.611,2.123,0.010,0.984,-0.109,-1.251,-0.732,2.472,66.667,840357.000,1.000
-0.672,-1.853,-2.605,0.240,-1.026,-5.850,1.930,3.306,0.007,0.982,-0.108,-1.251,-0.702,2.411,66.667,840358.000,1.000
0.440,1.533,-1.351,0.430,0.553,-3.426,2.683,4.136,0.007,0.984,-0.105,-1.251,-0.641,2.319,66.667,840359.000,1.000
2.338,6.191,1.395,1.396,3.520,1.901,4.398,4.798,0.006,0.983,-0.107,-1.282,-0.671,2.289,66.667,840360.000,1.000
4.366,10.740,4.835,2.723,7.003,8.641,6.764,5.267,0.005,0.982,-0.103,-1.221,-0.732,2.197,66.667,840361.000,1.000
5.884,13.922,8.027,3.931,9.817,14.467,9.100,5.543,0.006,0.983,-0.102,-1.343,-0.732,2.075,66.667,840362.000,1.000
6.605,15.133,10.354,4.845,11.267,17.456,11.042,5.900,0.006,0.984,-0.105,-1.251,-0.732,1.984,66.667,840363.000,1.000
6.461,14.339,11.482,5.457,11.312,17.102,12.450,6.425,0.004,0.984,-0.105,-1.251,-0.885,1.953,66.667,840364.000,1.000
5.427,11.892,11.321,5.704,10.351,14.424,13.185,6.635,0.004,0.984,-0.105,-1.251,-0.885,1.862,66.667,840365.000,1.000
3.613,8.454,10.227,5.570,9.049,11.136,13.280,6.022,0.006,0.985,-0.107,-1.312,-0.977,1.862,66.667,840366.000,1.000
1.369,4.844,8.969,5.238,8.054,8.604,13.017,4.684,0.005,0.986,-0.104,-1.282,-1.007,1.862,66.667,840367.000,1.000
-0.812,1.766,8.279,4.970,7.644,7.374,12.798,3.254,0.004,0.985,-0.104,-1.373,-0.977,1.862,66.667,840368.000,1.000
-2.581,-0.495,8.329,4.782,7.499,7.088,12.832,2.303,0.006,0.985,-0.103,-1.404,-1.068,1.923,66.667,840369.000,1.000
-3.988,-2.247,8.584,4.243,6.747,6.486,12.479,1.706,0.006,0.983,-0.103,-1.434,-1.068,1.984,66.667,840370.000,1.000
-5.277,-4.020,8.345,2.877,4.600,4.161,10.403,0.756,0.006,0.982,-0.103,-1.343,-1.221,1.862,66.667,840371.000,1.000
-6.359,-5.896,7.560,0.846,1.202,-0.162,6.161,-0.841,0.005,0.979,-0.104,-1.434,-1.129,1.801,66.667,840372.000,1.000
-6.705,-7.360,6.958,-0.973,-2.388,-5.470,1.042,-2.393,0.006,0.980,-0.102,-1.282,-1.099,1.862,66.667,840373.000,1.000
-5.957,-7.878,7.238,-1.792,-5.143,-10.541,-3.262,-3.003,0.008,0.978,-0.106,-1.251,-1.129,1.892,66.667,840374.000,1.000
-4.350,-7.242,8.460,-1.495,-6.639,-14.416,-5.934,-2.521,0.009,0.975,-0.104,-1.038,-1.251,1.984,66.667,840375.000,1.000
-2.199,-5.193,10.494,-0.244,-6.614,-15.942,-6.621,-1.291,0.009,0.973,-0.104,-0.977,-1.221,1.923,66.667,840376.000,1.000
0.469,-1.503,13.317,1.852,-4.879,-14.192,-5.054,0.296,0.010,0.975,-0.106,-0.885,-1.251,2.075,66.667,840377.000,1.000
3.330,3.077,16.399,4.268,-2.094,-9.833,-1.946,1.492,0.010,0.977,-0.103,-0.732,-1.190,2.136,66.667,840378.000,1.000
5.373,6.669,18.443,5.867,0.101,-5.274,0.650,1.297,0.010,0.980,-0.101,-0.763,-1.221,2.075,66.667,840379.000,1.000
5.456,7.523,18.208,5.622,0.236,-3.103,0.664,-0.625,0.007,0.980,-0.103,-0.732,-1.221,2.197,66.667,840380.000,1.000
3.182,5.323,15.508,3.437,-1.820,-4.255,-2.337,-3.523,0.007,0.979,-0.104,-0.641,-1.221,2.167,66.667,840381.000,1.000
-0.674,1.461,11.502,0.341,-4.688,-7.240,-6.585,-6.090,0.007,0.979,-0.104,-0.702,-1.160,2.228,66.667,840382.000,1.000
-4.486,-1.823,8.111,-2.058,-6.418,-9.312,-9.298,-7.221,0.005,0.978,-0.102,-0.488,-1.221,2.075,66.667,840383.000,1.000
-6.796,-2.999,6.795,-2.600,-5.967,-8.823,-8.895,-6.578,0.004,0.979,-0.105,-0.397,-1.221,2.014,66.667,840384.000,1.000
-7.105,-2.117,7.750,-1.210,-3.807,-6.133,-5.928,-4.667,0.005,0.980,-0.104,-0.305,-1.343,1.862,66.667,840385.000,1.000
-5.703,-0.278,10.214,1.382,-1.216,-2.693,-2.122,-2.352,0.006,0.981,-0.104,-0.275,-1.312,1.953,66.667,840386.000,1.000
-3.335,1.265,13.034,4.117,0.512,-0.134,0.756,-0.492,0.009,0.980,-0.104,-0.244,-1.495,1.892,66.667,840387.000,1.000
-0.983,1.708,15.081,5.944,0.532,0.483,1.560,0.252,0.008,0.983,-0.103,-0.427,-1.312,1.953,66.667,840388.000,1.000
0.741,1.140,15.842,6.378,-1.029,-0.558,0.450,-0.041,0.012,0.980,-0.104,-0.397,-1.282,1.984,66.667,840389.000,1.000
1.985,0.337,15.604,5.766,-3.157,-2.112,-1.150,-0.355,0.016,0.975,-0.101,-0.366,-1.282,2.045,66.667,840390.000,1.000
3.105,-0.139,14.834,4.728,-4.906,-3.505,-1.736,0.376,0.014,0.973,-0.103,-0.275,-1.282,2.075,66.667,840391.000,1.000
4.061,-0.422,13.641,3.506,-6.132,-4.842,-1.088,2.004,0.014,0.972,-0.103,-0.275,-1.129,2.075,66.667,840392.000,1.000
4.611,-0.990,11.954,1.977,-7.375,-6.570,-0.712,2.962,0.014,0.972,-0.106,-0.122,-1.038,2.106,66.667,840393.000,1.000
4.811,-2.129,9.981,0.126,-9.220,-9.219,-2.572,1.583,0.015,0.975,-0.108,0.092,-0.916,2.045,66.667,840394.000,1.000
5.233,-3.523,8.477,-1.563,-11.566,-12.761,-7.111,-2.367,0.014,0.977,-0.106,0.214,-0.854,2.167,66.667,840395.000,1.000
6.680,-4.197,8.502,-2.252,-13.460,-15.927,-12.554,-7.420,0.014,0.981,-0.105,0.244,-0.793,2.075,66.667,840396.000,1.000
9.386,-3.279,10.511,-1.582,-13.935,-16.990,-16.200,-11.454,0.016,0.983,-0.107,0.183,-0.732,2.258,66.667,840397.000,1.000
12.388,-1.074,13.573,-0.310,-13.113,-15.559,-16.564,-13.135,0.016,0.982,-0.103,0.061,-0.641,2.319,66.667,840398.000,1.000
14.127,1.031,15.897,0.227,-12.120,-12.988,-14.239,-12.620,0.016,0.984,-0.107,0.000,-0.519,2.411,66.667,840399.000,1.000
13.898,1.978,16.358,-0.578,-11.837,-10.867,-10.848,-11.040,0.014,0.983,-0.108,-0.061,-0.427,2.319,66.667,840400.000,1.000
12.421,1.871,15.277,-2.080,-12.100,-9.790,-7.719,-9.382,0.013,0.983,-0.107,-0.153,-0.397,2.319,66.667,840401.000,1.000
10.739,1.199,13.568,-3.288,-12.328,-9.695,-5.520,-8.002,0.010,0.981,-0.107,-0.244,-0.397,2.350,66.667,840402.000,1.000
9.083,-0.035,11.645,-3.965,-12.432,-10.495,-4.499,-7.030,0.006,0.980,-0.107,-0.153,-0.427,2.258,66.667,840403.000,1.000
7.179,-1.903,9.530,-4.559,-12.710,-11.872,-4.477,-6.581,0.004,0.981,-0.107,-0.122,-0.488,2.319,66.667,840404.000,1.000
5.111,-3.908,7.504,-5.400,-13.194,-12.987,-4.811,-6.531,0.002,0.980,-0.107,-0.122,-0.610,2.045,66.667,840405.000,1.000
3.332,-5.384,6.050,-6.436,-13.596,-12.914,-4.812,-6.594,0.002,0.980,-0.106,-0.061,-0.824,2.045,66.667,840406.000,1.000
2.166,-6.093,5.393,-7.402,-13.567,-11.116,-3.942,-6.438,0.002,0.981,-0.104,0.031,-0.916,1.831,66.667,840407.000,1.000
1.695,-6.080,5.428,-7.876,-12.749,-7.440,-1.589,-5.532,0.002,0.983,-0.107,0.092,-1.160,1.770,66.667,840408.000,1.000
1.639,-5.592,5.685,-7.636,-11.182,-2.637,2.252,-3.646,0.002,0.985,-0.108,0.153,-1.373,1.892,66.667,840409.000,1.000
1.288,-5.270,5.355,-7.069,-9.739,1.049,5.796,-1.692,0.003,0.984,-0.104,0.092,-1.495,2.014,66.667,840410.000,1.000
0.113,-5.575,4.007,-6.715,-9.355,1.493,6.546,-1.131,0.002,0.987,-0.103,0.183,-1.709,2.106,66.667,840411.000,1.000
-1.670,-6.038,2.183,-6.557,-9.830,-0.765,4.113,-2.279,0.005,0.990,-0.101,0.214,-1.923,2.014,66.667,840412.000,1.000
-3.382,-5.629,0.971,-6.086,-9.898,-2.896,0.711,-3.898,0.001,0.991,-0.101,0.214,-1.892,1.984,66.667,840413.000,1.000
-4.505,-3.756,1.148,-4.841,-8.390,-2.576,-1.053,-4.420,0.002,0.993,-0.101,0.092,-2.197,2.167,66.667,840414.000,1.000
-5.155,-0.876,2.564,-2.889,-5.254,0.313,-0.029,-3.103,0.001,0.993,-0.099,0.000,-2.380,2.258,66.667,840415.000,1.000
-6.108,1.562,4.045,-1.042,-1.837,3.932,2.924,-0.550,0.002,0.992,-0.099,-0.061,-2.502,2.350,66.667,840416.000,1.000
-8.098,2.035,4.131,-0.421,-0.127,5.785,5.291,1.335,0.001,0.992,-0.098,-0.092,-2.625,2.441,66.667,840417.000,1.000
-10.856,0.206,2.375,-1.394,-1.152,4.487,4.702,0.682,0.001,0.991,-0.097,-0.153,-2.808,2.533,66.667,840418.000,1.000
-13.097,-2.654,-0.132,-3.017,-3.913,0.978,1.239,-2.403,0.007,0.990,-0.095,-0.183,-3.082,2.686,66.667,840419.000,1.000
-13.474,-4.491,-1.571,-3.688,-6.037,-1.919,-2.282,-5.622,0.014,0.995,-0.094,-0.153,-3.204,2.808,66.667,840420.000,1.000
-11.469,-3.769,-0.674,-2.267,-5.496,-1.426,-2.568,-6.314,0.016,0.998,-0.093,-0.275,-3.174,2.899,66.667,840421.000,1.000
-7.693,-0.471,2.478,1.231,-2.029,2.980,1.435,-3.474,0.014,1.004,-0.093,-0.519,-3.143,3.021,66.667,840422.000,1.000
-3.692,3.726,6.471,5.586,2.675,9.027,7.637,1.527,0.011,1.005,-0.092,-0.824,-3.113,3.021,66.667,840423.000,1.000
-1.261,6.431,9.376,9.019,6.137,13.330,12.333,5.975,0.010,1.002,-0.093,-1.190,-3.174,2.991,66.667,840424.000,1.000
-1.426,6.123,9.918,10.308,6.728,13.521,12.790,7.796,0.011,0.997,-0.095,-1.617,-3.143,3.021,66.667,840425.000,1.000
-3.778,3.110,8.225,9.506,4.609,9.433,9.005,6.902,0.013,0.989,-0.097,-1.862,-3.082,3.113,66.667,840426.000,1.000
-6.564,-0.626,5.772,7.805,1.486,3.101,3.617,4.988,0.015,0.983,-0.098,-1.831,-3.174,3.082,66.667,840427.000,1.000
-7.367,-2.353,4.770,6.935,-0.306,-2.183,0.312,4.280,0.017,0.979,-0.099,-1.801,-3.082,3.143,66.667,840428.000,1.000
-4.403,-0.144,6.918,8.185,0.959,-3.526,1.725,6.167,0.018,0.976,-0.101,-1.770,-3.082,3.174,66.667,840429.000,1.000
1.903,5.427,11.838,11.206,4.944,-0.574,7.275,10.005,0.016,0.973,-0.101,-1.709,-2.899,3.296,66.667,840430.000,1.000
8.773,11.207,16.889,13.924,9.011,3.765,12.726,13.024,0.015,0.970,-0.101,-1.617,-2.808,3.326,66.667,840431.000,1.000
12.944,13.499,18.902,14.061,9.977,5.253,13.037,12.129,0.014,0.966,-0.102,-1.373,-2.777,3.296,66.667,840432.000,1.000
12.716,10.224,16.100,10.666,6.141,0.998,5.892,5.995,0.012,0.961,-0.103,-0.977,-2.625,3.174,66.667,840433.000,1.000
8.598,1.848,8.881,4.476,-1.859,-8.725,-7.023,-4.130,0.011,0.957,-0.104,-0.732,-2.563,2.991,66.667,840434.000,1.000
2.592,-8.958,-0.472,-2.629,-11.427,-20.295,-21.070,-15.032,0.010,0.958,-0.101,-0.397,-2.594,2.716,66.667,840435.000,1.000
-3.089,-18.793,-9.011,-8.641,-19.403,-29.009,-31.181,-23.156,0.012,0.958,-0.103,-0.061,-2.655,2.625,66.667,840436.000,1.000
-6.984,-25.212,-14.625,-12.322,-23.692,-32.321,-34.592,-26.305,0.012,0.960,-0.104,0.458,-2.625,2.502,66.667,840437.000,1.000
-8.602,-27.417,-16.719,-13.436,-23.969,-30.930,-32.001,-24.416,0.014,0.963,-0.105,0.702,-2.563,2.258,66.667,840438.000,1.000
-8.068,-25.809,-15.761,-12.341,-21.124,-26.980,-26.196,-19.090,0.014,0.962,-0.104,0.977,-2.411,2.045,66.667,840439.000,1.000
-5.713,-21.268,-12.533,-9.550,-16.300,-21.948,-19.772,-12.526,0.016,0.963,-0.103,1.221,-2.319,2.045,66.667,840440.000,1.000
-2.202,-15.078,-8.086,-5.816,-10.573,-16.420,-14.172,-6.632,0.018,0.966,-0.103,1.648,-2.228,2.045,66.667,840441.000,1.000
1.111,-9.082,-3.999,-2.340,-5.127,-11.008,-9.921,-2.493,0.019,0.971,-0.102,1.892,-2.106,1.770,66.667,840442.000,1.000
2.699,-5.063,-1.777,-0.304,-1.057,-6.642,-7.079,-0.217,0.019,0.975,-0.102,1.923,-1.923,1.587,66.667,840443.000,1.000
1.856,-3.897,-2.001,-0.197,0.976,-4.231,-5.726,0.630,0.019,0.978,-0.102,2.136,-1.801,1.526,66.667,840444.000,1.000
-1.091,-5.489,-4.370,-1.799,0.705,-4.437,-6.177,0.454,0.020,0.980,-0.105,2.167,-1.617,1.465,66.667,840445.000,1.000
-5.097,-9.011,-8.120,-4.451,-1.690,-7.306,-8.465,-0.350,0.019,0.985,-0.106,2.197,-1.495,1.221,66.667,840446.000,1.000
-8.717,-12.933,-12.089,-7.146,-5.274,-11.620,-11.659,-1.149,0.019,0.988,-0.101,1.923,-1.373,1.190,66.667,840447.000,1.000
-10.555,-15.334,-14.801,-8.702,-8.391,-14.990,-13.977,-1.250,0.017,0.991,-0.102,1.831,-1.282,1.160,66.667,840448.000,1.000
-9.850,-14.789,-15.045,-8.253,-9.365,-15.128,-13.702,-0.195,0.015,0.992,-0.102,1.678,-1.221,1.160,66.667,840449.000,1.000
-7.010,-11.406,-12.796,-5.880,-7.525,-11.448,-10.186,2.031,0.014,0.991,-0.102,1.404,-1.099,1.068,66.667,840450.000,1.000
-3.660,-7.092,-9.610,-2.862,-3.790,-5.759,-4.526,4.703,0.012,0.987,-0.102,1.190,-1.038,1.038,66.667,840451.000,1.000
-1.626,-4.327,-7.594,-0.880,-0.007,-1.293,0.608,6.475,0.014,0.987,-0.105,0.946,-1.068,0.977,66.667,840452.000,1.000
-1.453,-4.183,-7.625,-0.643,2.661,-0.217,2.727,6.582,0.013,0.982,-0.103,0.824,-1.007,0.824,66.667,840453.000,1.000
-2.054,-5.516,-8.700,-1.345,4.720,-1.580,1.984,5.959,0.016,0.985,-0.107,0.763,-1.038,0.824,66.667,840454.000,1.000
-2.029,-6.352,-9.237,-1.680,7.374,-2.247,1.069,6.211,0.017,0.988,-0.106,0.702,-0.977,0.854,66.667,840455.000,1.000
-1.398,-6.200,-8.992,-1.380,10.575,-0.399,1.853,7.496,0.017,0.989,-0.107,0.580,-0.854,0.885,66.667,840456.000,1.000
-1.515,-6.238,-9.077,-1.220,12.967,2.839,3.694,8.848,0.016,0.987,-0.110,0.427,-0.702,1.038,66.667,840457.000,1.000
-3.043,-7.184,-10.051,-1.540,13.813,5.437,5.254,10.201,0.015,0.984,-0.113,0.336,-0.732,1.068,66.667,840458.000,1.000
-5.212,-8.510,-11.317,-1.893,13.519,6.140,5.691,12.203,0.016,0.982,-0.113,0.244,-0.641,1.129,66.667,840459.000,1.000
-7.094,-9.541,-12.274,-2.000,12.575,4.625,4.592,14.662,0.019,0.983,-0.114,0.305,-0.610,1.007,66.667,840460.000,1.000
-8.273,-9.786,-12.707,-1.897,11.435,2.168,2.827,16.831,0.015,0.985,-0.109,0.397,-0.488,1.038,66.667,840461.000,1.000
-8.614,-8.797,-12.504,-1.582,10.742,1.280,2.594,18.565,0.015,0.989,-0.108,0.366,-0.458,1.099,66.667,840462.000,1.000
-8.491,-6.756,-11.919,-1.236,10.764,3.417,5.460,20.264,0.012,0.990,-0.102,0.275,-0.458,1.251,66.667,840463.000,1.000
-9.039,-4.805,-11.849,-1.491,10.965,7.700,10.855,22.022,0.009,0.992,-0.100,0.153,-0.488,1.190,66.667,840464.000,1.000
-11.380,-4.195,-13.192,-2.954,10.584,12.150,16.615,23.416,0.006,0.995,-0.100,-0.153,-0.641,1.282,66.667,840465.000,1.000
-15.317,-4.997,-15.768,-5.344,9.598,15.601,20.708,24.211,0.004,0.994,-0.099,-0.397,-0.824,1.251,66.667,840466.000,1.000
-19.212,-6.021,-18.245,-7.487,8.765,18.044,22.420,24.694,0.006,0.991,-0.102,-0.641,-0.916,1.099,66.667,840467.000,1.000
-21.418,-6.146,-19.346,-8.351,8.711,19.586,22.084,25.043,0.006,0.988,-0.101,-0.946,-1.068,1.099,66.667,840468.000,1.000
-21.475,-5.214,-18.782,-7.759,9.453,20.039,20.482,25.014,0.006,0.982,-0.105,-1.068,-1.160,1.068,66.667,840469.000,1.000
-19.840,-3.485,-16.901,-6.050,10.920,19.876,18.877,24.583,0.005,0.981,-0.104,-1.007,-1.282,1.007,66.667,840470.000,1.000
-17.181,-1.119,-14.140,-3.678,13.162,20.431,18.539,24.135,0.006,0.980,-0.106,-0.977,-1.343,1.038,66.667,840471.000,1.000
-14.288,1.311,-11.182,-1.419,15.619,22.033,19.200,23.561,0.006,0.981,-0.103,-0.916,-1.434,0.885,66.667,840472.000,1.000
-11.801,2.846,-8.768,-0.130,17.137,23.096,18.955,21.971,0.007,0.983,-0.104,-0.916,-1.617,0.824,66.667,840473.000,1.000
-9.419,3.525,-6.696,0.291,17.426,22.343,16.779,19.075,0.009,0.983,-0.103,-0.946,-1.740,0.946,66.667,840474.000,1.000
-5.928,4.929,-3.657,1.114,17.728,20.689,14.127,16.115,0.009,0.985,-0.101,-1.068,-1.892,1.007,66.667,840475.000,1.000
-0.476,8.588,1.357,3.460,19.384,19.913,13.085,14.539,0.009,0.987,-0.102,-1.160,-1.984,0.946,66.667,840476.000,1.000
6.225,14.149,7.713,6.998,22.178,20.502,13.870,14.123,0.012,0.987,-0.101,-1.312,-1.984,1.007,66.667,840477.000,1.000
12.084,19.437,13.369,10.128,24.466,21.520,14.899,13.154,0.013,0.985,-0.101,-1.617,-1.953,1.251,66.667,840478.000,1.000
15.039,22.108,16.317,11.277,24.663,21.876,14.507,10.345,0.015,0.985,-0.100,-1.740,-2.014,1.495,66.667,840479.000,1.000
14.512,21.319,15.932,10.038,22.400,21.035,12.035,6.015,0.015,0.985,-0.101,-1.678,-1.984,1.648,66.667,840480.000,1.000
11.718,18.161,13.282,7.328,18.616,19.018,8.111,1.666,0.016,0.989,-0.101,-1.801,-1.953,1.740,66.667,840481.000,1.000
8.718,14.813,10.385,4.719,14.998,16.731,4.814,-0.875,0.015,0.993,-0.100,-1.831,-2.014,1.740,66.667,840482.000,1.000
7.304,13.308,9.137,3.624,13.286,16.191,5.073,-0.073,0.014,0.991,-0.101,-2.045,-1.892,1.740,66.667,840483.000,1.000
8.251,14.419,10.289,4.491,14.192,18.868,10.397,4.234,0.014,0.984,-0.101,-2.197,-1.923,1.770,66.667,840484.000,1.000
10.884,17.044,12.864,6.334,16.482,23.377,18.540,9.827,0.012,0.979,-0.098,-2.380,-2.014,1.740,66.667,840485.000,1.000
13.690,19.229,15.083,7.605,17.962,26.490,24.735,13.497,0.013,0.977,-0.098,-2.319,-1.831,1.709,66.667,840486.000,1.000
15.568,20.017,15.963,7.684,17.647,26.606,25.960,13.935,0.012,0.977,-0.098,-2.289,-1.953,1.801,66.667,840487.000,1.000
16.046,19.619,15.469,6.889,16.078,24.497,22.681,12.036,0.013,0.977,-0.100,-2.167,-1.862,1.862,66.667,840488.000,1.000
14.618,18.140,13.537,5.369,13.810,21.014,16.758,8.779,0.015,0.977,-0.099,-2.045,-1.984,1.831,66.667,840489.000,1.000
10.952,15.336,10.124,3.056,10.923,16.117,9.744,4.577,0.013,0.980,-0.097,-1.770,-2.045,1.923,66.667,840490.000,1.000
5.939,11.726,6.201,0.637,8.035,10.323,3.273,0.415,0.015,0.987,-0.097,-1.770,-1.984,2.045,66.667,840491.000,1.000
1.743,9.108,3.736,-0.379,6.675,5.899,-0.490,-1.841,0.015,0.996,-0.097,-1.892,-1.892,1.984,66.667,840492.000,1.000
0.382,9.354,4.219,1.113,8.122,5.689,0.198,-0.636,0.018,0.994,-0.099,-2.258,-1.892,1.892,66.667,840493.000,1.000
2.103,12.477,7.168,4.576,11.894,10.468,5.026,3.844,0.018,0.989,-0.098,-2.380,-1.801,1.801,66.667,840494.000,1.000
5.022,16.067,10.103,7.819,15.560,17.778,11.322,9.304,0.018,0.985,-0.100,-2.502,-1.678,1.617,66.667,840495.000,1.000
6.708,17.280,10.515,8.645,16.587,23.867,16.087,12.895,0.019,0.979,-0.103,-2.472,-1.526,1.434,66.667,840496.000,1.000
6.241,15.339,7.973,6.660,14.421,26.271,18.066,13.246,0.018,0.976,-0.104,-2.411,-1.495,1.343,66.667,840497.000,1.000
4.326,11.470,3.889,3.128,10.286,24.308,17.329,10.637,0.017,0.971,-0.102,-2.228,-1.465,1.312,66.667,840498.000,1.000
2.020,7.196,-0.183,-0.476,5.636,18.639,14.197,5.989,0.018,0.972,-0.103,-1.892,-1.465,1.251,66.667,840499.000,1.000
0.139,3.592,-3.369,-3.242,1.443,11.166,9.395,0.408,0.018,0.977,-0.103,-1.648,-1.251,1.129,66.667,840500.000,1.000
-0.566,1.579,-5.180,-4.630,-1.470,4.601,4.552,-4.628,0.019,0.982,-0.101,-1.434,-1.129,1.251,66.667,840501.000,1.000
0.617,2.102,-5.117,-4.124,-2.051,1.730,2.191,-7.127,0.020,0.985,-0.097,-1.129,-1.007,1.190,66.667,840502.000,1.000
3.651,5.356,-3.150,-1.702,0.217,4.065,4.135,-5.770,0.018,0.986,-0.097,-1.221,-0.946,1.221,66.667,840503.000,1.000
7.067,9.804,-0.568,1.337,3.991,10.106,9.235,-1.682,0.018,0.984,-0.100,-1.190,-0.885,1.251,66.667,840504.000,1.000
8.737,12.791,0.552,2.879,6.542,15.643,13.825,2.053,0.016,0.983,-0.099,-1.221,-0.793,1.160,66.667,840505.000,1.000
7.377,12.289,-1.138,1.511,5.789,16.598,14.701,2.812,0.015,0.980,-0.098,-1.160,-0.732,1.190,66.667,840506.000,1.000
3.236,7.999,-5.447,-2.610,1.532,11.582,10.982,-0.080,0.016,0.978,-0.098,-1.068,-0.671,1.068,66.667,840507.000,1.000
-2.151,1.353,-10.865,-7.978,-4.806,2.229,3.723,-5.630,0.016,0.979,-0.095,-1.007,-0.671,1.099,66.667,840508.000,1.000
-6.709,-5.229,-15.402,-12.576,-11.055,-8.046,-4.903,-11.984,0.015,0.980,-0.098,-0.824,-0.671,0.977,66.667,840509.000,1.000
-8.448,-9.133,-17.257,-14.543,-14.847,-15.292,-11.768,-16.708,0.013,0.980,-0.098,-0.580,-0.641,0.854,66.667,840510.000,1.000
-6.069,-8.488,-15.355,-12.747,-14.316,-16.454,-13.804,-17.479,0.011,0.987,-0.094,-0.488,-0.671,0.763,66.667,840511.000,1.000
-0.356,-3.861,-10.561,-7.986,-9.813,-11.683,-10.608,-14.112,0.011,0.990,-0.093,-0.519,-0.702,0.580,66.667,840512.000,1.000
5.446,1.373,-5.908,-3.192,-4.427,-4.822,-5.386,-9.307,0.012,0.992,-0.094,-0.610,-0.763,0.641,66.667,840513.000,1.000
7.934,3.641,-4.333,-1.237,-1.557,-0.265,-2.054,-6.181,0.012,0.993,-0.092,-0.580,-0.732,0.641,66.667,840514.000,1.000
5.996,1.772,-6.484,-2.804,-2.361,0.221,-2.045,-5.744,0.011,0.991,-0.091,-0.702,-0.763,0.519,66.667,840515.000,1.000
1.046,-2.867,-10.744,-6.468,-5.603,-2.228,-4.086,-7.102,0.010,0.989,-0.092,-0.671,-0.854,0.488,66.667,840516.000,1.000
-4.211,-7.671,-14.597,-10.005,-8.990,-5.171,-5.962,-8.918,0.010,0.989,-0.093,-0.732,-0.885,0.549,66.667,840517.000,1.000
-7.232,-10.226,-15.994,-11.563,-10.507,-6.593,-6.200,-10.078,0.009,0.988,-0.094,-0.854,-0.885,0.488,66.667,840518.000,1.000
-6.686,-9.315,-14.132,-10.287,-9.145,-5.759,-4.586,-9.649,0.010,0.990,-0.093,-0.946,-0.977,0.488,66.667,840519.000,1.000
-2.974,-5.322,-9.670,-6.650,-5.263,-3.226,-1.928,-7.363,0.011,0.990,-0.092,-0.854,-1.038,0.580,66.667,840520.000,1.000
1.868,-0.108,-4.556,-2.411,-0.631,-0.503,0.296,-4.262,0.010,0.992,-0.091,-1.007,-1.007,0.427,66.667,840521.000,1.000
5.247,3.858,-1.146,0.244,2.447,0.963,0.986,-2.148,0.013,0.994,-0.090,-1.099,-1.068,0.458,66.667,840522.000,1.000
5.770,5.103,-0.703,0.173,2.776,1.181,0.563,-2.113,0.013,0.993,-0.091,-1.221,-1.129,0.519,66.667,840523.000,1.000
4.171,4.108,-2.544,-1.978,0.989,1.313,0.176,-3.864,0.014,0.991,-0.093,-1.312,-1.099,0.641,66.667,840524.000,1.000
2.356,2.404,-4.912,-4.591,-1.556,1.535,-0.319,-6.499,0.016,0.988,-0.097,-1.373,-1.007,0.732,66.667,840525.000,1.000
1.691,0.969,-6.589,-6.470,-4.164,0.372,-2.532,-9.549,0.016,0.984,-0.093,-1.404,-0.946,0.946,66.667,840526.000,1.000
2.153,-0.276,-7.626,-7.451,-6.984,-3.353,-7.503,-13.016,0.014,0.982,-0.096,-1.434,-1.068,1.007,66.667,840527.000,1.000
2.685,-1.879,-8.877,-8.066,-10.360,-9.004,-14.261,-16.658,0.012,0.981,-0.094,-1.404,-0.946,0.977,66.667,840528.000,1.000
2.299,-4.051,-10.984,-8.833,-14.222,-14.651,-20.302,-19.666,0.012,0.982,-0.095,-1.312,-1.068,0.946,66.667,840529.000,1.000
0.866,-6.373,-13.795,-9.882,-17.999,-18.331,-23.307,-21.310,0.013,0.982,-0.094,-1.404,-0.916,0.916,66.667,840530.000,1.000
-1.192,-8.377,-16.782,-11.195,-21.172,-19.140,-22.884,-21.905,0.013,0.981,-0.095,-1.251,-0.885,0.916,66.667,840531.000,1.000
-3.585,-10.227,-19.718,-12.880,-23.786,-17.945,-20.943,-22.814,0.013,0.982,-0.094,-1.190,-0.885,1.099,66.667,840532.000,1.000
-6.114,-12.400,-22.565,-14.889,-26.143,-16.949,-20.156,-25.195,0.014,0.978,-0.097,-1.160,-0.824,1.129,66.667,840533.000,1.000
-8.318,-14.844,-24.945,-16.700,-28.111,-17.978,-21.732,-28.828,0.015,0.978,-0.093,-0.977,-0.702,1.160,66.667,840534.000,1.000
-9.661,-16.901,-26.215,-17.627,-29.138,-21.152,-24.689,-32.352,0.013,0.976,-0.090,-0.793,-0.641,1.190,66.667,840535.000,1.000
-9.920,-17.891,-25.952,-17.288,-28.822,-25.170,-27.227,-34.380,0.015,0.979,-0.094,-0.702,-0.580,1.190,66.667,840536.000,1.000
-9.214,-17.509,-24.159,-15.728,-27.248,-28.532,-28.362,-34.224,0.016,0.979,-0.092,-0.702,-0.519,1.251,66.667,840537.000,1.000
-7.783,-15.814,-21.134,-13.303,-24.853,-30.292,-28.168,-32.018,0.018,0.981,-0.092,-0.732,-0.519,1.312,66.667,840538.000,1.000
-5.640,-12.939,-17.186,-10.386,-21.988,-29.851,-26.766,-28.355,0.016,0.980,-0.092,-0.702,-0.458,1.373,66.667,840539.000,1.000
-2.607,-9.111,-12.661,-7.183,-18.829,-26.962,-23.934,-24.013,0.014,0.981,-0.092,-0.641,-0.427,1.343,66.667,840540.000,1.000
0.938,-5.280,-8.465,-4.184,-15.950,-22.581,-20.288,-20.240,0.013,0.981,-0.092,-0.549,-0.336,1.465,66.667,840541.000,1.000
3.704,-3.092,-6.043,-2.450,-14.434,-18.871,-17.696,-18.520,0.015,0.982,-0.093,-0.458,-0.336,1.343,66.667,840542.000,1.000
4.465,-3.576,-6.215,-2.797,-14.843,-17.478,-17.510,-19.376,0.014,0.984,-0.094,-0.458,-0.275,1.312,66.667,840543.000,1.000
3.241,-6.082,-8.231,-4.770,-16.388,-18.076,-19.111,-21.666,0.015,0.983,-0.095,-0.488,0.000,1.282,66.667,840544.000,1.000
1.177,-8.791,-10.352,-6.879,-17.481,-18.923,-20.665,-23.260,0.018,0.983,-0.097,-0.580,-0.061,1.251,66.667,840545.000,1.000
-0.666,-10.267,-11.358,-7.928,-17.110,-18.638,-20.857,-22.531,0.018,0.982,-0.095,-0.519,-0.061,1.251,66.667,840546.000,1.000
-2.145,-10.462,-11.420,-7.961,-15.657,-17.335,-19.783,-19.587,0.017,0.982,-0.095,-0.519,0.122,1.190,66.667,840547.000,1.000
-3.709,-10.377,-11.568,-7.896,-14.395,-16.177,-18.495,-16.030,0.017,0.983,-0.092,-0.427,0.244,1.160,66.667,840548.000,1.000
-5.723,-11.058,-12.678,-8.564,-14.379,-16.151,-17.847,-13.530,0.018,0.981,-0.092,-0.427,0.305,1.160,66.667,840549.000,1.000
-8.179,-12.943,-14.916,-10.135,-15.778,-17.368,-17.764,-12.703,0.015,0.981,-0.094,-0.214,0.336,1.068,66.667,840550.000,1.000
-10.775,-15.791,-17.800,-12.181,-17.954,-19.297,-17.446,-13.000,0.015,0.984,-0.097,-0.153,0.427,1.099,66.667,840551.000,1.000
-13.195,-18.998,-20.641,-14.131,-20.070,-21.332,-16.246,-13.399,0.012,0.984,-0.095,-0.122,0.488,1.007,66.667,840552.000,1.000
-15.198,-21.808,-22.805,-15.507,-21.471,-22.879,-14.152,-13.090,0.010,0.985,-0.094,-0.153,0.488,0.977,66.667,840553.000,1.000
-16.565,-23.443,-23.770,-15.916,-21.715,-23.218,-11.470,-11.737,0.011,0.984,-0.092,-0.214,0.488,0.824,66.667,840554.000,1.000
-17.310,-23.639,-23.457,-15.351,-20.855,-22.121,-8.739,-9.752,0.010,0.983,-0.095,-0.153,0.488,0.580,66.667,840555.000,1.000
-17.706,-22.877,-22.306,-14.322,-19.505,-20.395,-6.804,-8.166,0.012,0.978,-0.093,-0.031,0.427,0.580,66.667,840556.000,1.000
-17.811,-21.719,-20.715,-13.324,-18.313,-19.088,-6.311,-7.755,0.013,0.975,-0.091,0.092,0.458,0.580,66.667,840557.000,1.000
-17.382,-20.332,-18.819,-12.519,-17.681,-18.547,-7.376,-8.648,0.013,0.978,-0.092,0.275,0.366,0.580,66.667,840558.000,1.000
-16.341,-18.740,-16.839,-11.974,-17.910,-18.528,-9.724,-10.627,0.013,0.983,-0.093,0.366,0.336,0.519,66.667,840559.000,1.000
-14.839,-16.949,-15.067,-11.604,-18.936,-18.461,-12.547,-13.014,0.009,0.989,-0.092,0.397,0.244,0.549,66.667,840560.000,1.000
-12.899,-14.777,-13.441,-10.939,-19.948,-17.478,-14.401,-14.484,0.006,0.994,-0.091,0.244,0.153,0.366,66.667,840561.000,1.000
-10.535,-12.055,-11.643,-9.453,-19.846,-14.886,-13.838,-13.783,0.008,0.998,-0.088,0.061,0.061,0.183,66.667,840562.000,1.000
-8.107,-8.984,-9.616,-7.157,-18.163,-10.877,-10.649,-10.881,0.008,0.997,-0.087,-0.153,-0.031,0.275,66.667,840563.000,1.000
-6.090,-5.971,-7.584,-4.599,-15.277,-6.451,-6.340,-7.189,0.009,0.994,-0.087,-0.366,-0.122,0.183,66.667,840564.000,1.000
-4.579,-3.217,-5.667,-2.344,-11.881,-2.640,-2.907,-4.426,0.006,0.991,-0.090,-0.610,-0.183,0.092,66.667,840565.000,1.000
-3.261,-0.717,-3.778,-0.624,-8.548,-0.055,-1.274,-3.279,0.006,0.988,-0.093,-0.732,-0.275,0.061,66.667,840566.000,1.000
-1.761,1.448,-1.820,0.681,-5.673,1.030,-1.041,-3.207,0.008,0.984,-0.096,-0.854,-0.488,-0.031,66.667,840567.000,1.000
0.018,2.951,0.104,1.767,-3.518,0.577,-1.359,-3.372,0.009,0.986,-0.094,-0.763,-0.519,-0.153,66.667,840568.000,1.000
1.771,3.393,1.665,2.642,-2.168,-1.073,-1.566,-3.361,0.011,0.984,-0.092,-0.610,-0.519,-0.214,66.667,840569.000,1.000
3.150,2.907,2.700,3.301,-1.320,-2.879,-1.043,-2.937,0.015,0.980,-0.094,-0.671,-0.580,-0.153,66.667,840570.000,1.000
4.178,2.360,3.506,3.949,-0.388,-3.535,0.594,-1.853,0.018,0.980,-0.095,-0.549,-0.519,-0.122,66.667,840571.000,1.000
5.023,2.549,4.403,4.736,0.825,-2.809,2.729,-0.253,0.018,0.979,-0.094,-0.519,-0.488,0.092,66.667,840572.000,1.000
5.480,3.294,5.108,5.360,1.744,-1.927,3.969,1.259,0.018,0.979,-0.094,-0.366,-0.458,0.214,66.667,840573.000,1.000
4.997,3.589,4.843,5.189,1.487,-2.272,3.313,1.992,0.017,0.978,-0.094,-0.336,-0.305,0.427,66.667,840574.000,1.000
3.327,2.660,3.162,3.902,-0.315,-4.004,0.660,1.479,0.015,0.980,-0.098,-0.183,-0.214,0.610,66.667,840575.000,1.000
0.971,0.747,0.561,1.928,-3.101,-5.933,-3.253,-0.189,0.012,0.982,-0.098,-0.122,-0.275,0.671,66.667,840576.000,1.000
-1.114,-1.116,-1.833,0.126,-5.705,-6.549,-7.098,-2.377,0.011,0.981,-0.096,0.031,-0.244,0.793,66.667,840577.000,1.000
-2.148,-1.958,-3.062,-0.859,-7.130,-5.289,-9.712,-4.464,0.009,0.980,-0.095,0.031,-0.275,0.763,66.667,840578.000,1.000
-1.990,-1.615,-2.895,-0.913,-7.082,-2.952,-10.708,-6.114,0.006,0.980,-0.094,0.122,-0.336,0.854,66.667,840579.000,1.000
-1.132,-0.743,-1.754,-0.306,-5.942,-0.979,-10.374,-7.035,0.009,0.977,-0.097,0.183,-0.366,0.824,66.667,840580.000,1.000
-0.060,0.012,-0.071,0.741,-4.176,-0.100,-9.185,-6.847,0.007,0.979,-0.097,0.275,-0.458,0.824,66.667,840581.000,1.000
1.315,0.797,2.153,2.322,-1.873,0.338,-7.300,-5.259,0.008,0.979,-0.099,0.366,-0.519,0.885,66.667,840582.000,1.000
3.257,2.138,4.900,4.466,0.861,1.419,-4.814,-2.539,0.009,0.980,-0.096,0.580,-0.610,0.854,66.667,840583.000,1.000
5.435,3.994,7.543,6.662,3.364,3.411,-2.254,0.310,0.012,0.981,-0.096,0.549,-0.702,0.824,66.667,840584.000,1.000
7.053,5.733,9.213,8.162,4.856,5.852,-0.148,2.281,0.010,0.979,-0.094,0.610,-0.854,0.916,66.667,840585.000,1.000
7.593,6.790,9.594,8.666,5.202,8.036,1.400,3.221,0.012,0.978,-0.095,0.610,-0.854,0.946,66.667,840586.000,1.000
6.985,6.828,8.941,8.395,4.854,8.937,2.216,3.618,0.013,0.976,-0.096,0.702,-0.824,0.916,66.667,840587.000,1.000
5.379,5.665,7.645,7.739,4.381,7.711,1.919,3.886,0.013,0.972,-0.097,0.671,-0.763,1.007,66.667,840588.000,1.000
3.385,3.778,6.376,7.264,4.535,4.916,0.933,4.565,0.015,0.972,-0.099,0.824,-0.763,1.099,66.667,840589.000,1.000
2.231,2.510,6.270,7.710,6.219,2.391,0.670,6.486,0.014,0.975,-0.100,0.977,-0.732,1.160,66.667,840590.000,1.000
2.914,2.987,8.117,9.367,9.620,1.642,1.955,9.638,0.016,0.978,-0.101,1.099,-0.671,1.251,66.667,840591.000,1.000
5.277,5.048,11.495,11.617,13.751,2.933,4.268,12.668,0.016,0.981,-0.099,1.251,-0.610,1.373,66.667,840592.000,1.000
8.298,7.615,15.170,13.522,17.304,5.695,6.846,14.337,0.018,0.984,-0.099,1.282,-0.519,1.373,66.667,840593.000,1.000
11.030,9.769,18.092,14.621,19.630,9.073,9.399,14.678,0.018,0.988,-0.100,1.190,-0.519,1.404,66.667,840594.000,1.000
13.033,11.244,19.811,15.012,20.743,12.119,11.727,14.557,0.016,0.989,-0.100,1.068,-0.519,1.465,66.667,840595.000,1.000
14.141,12.151,20.244,14.908,20.812,13.976,13.428,14.686,0.016,0.986,-0.101,0.916,-0.519,1.526,66.667,840596.000,1.000
14.234,12.608,19.426,14.351,19.957,14.295,14.233,15.129,0.015,0.985,-0.101,0.916,-0.488,1.648,66.667,840597.000,1.000
13.466,12.777,17.691,13.384,18.478,13.541,14.161,15.517,0.013,0.984,-0.099,0.854,-0.458,1.495,66.667,840598.000,1.000
12.362,12.848,15.699,12.204,16.886,12.558,13.221,15.453,0.011,0.985,-0.098,0.763,-0.519,1.434,66.667,840599.000,1.000
11.345,12.755,13.956,10.987,15.565,11.869,11.526,14.798,0.006,0.986,-0.100,0.671,-0.580,1.343,66.667,840600.000,1.000
10.547,12.386,12.676,9.947,14.806,11.761,9.930,13.986,0.005,0.986,-0.099,0.610,-0.671,1.038,66.667,840601.000,1.000
10.229,12.176,12.210,9.639,15.092,12.688,9.965,13.954,0.005,0.988,-0.099,0.549,-0.854,0.916,66.667,840602.000,1.000
10.811,12.884,13.012,10.644,16.739,14.807,12.569,15.298,0.005,0.988,-0.098,0.427,-0.946,0.946,66.667,840603.000,1.000
12.214,14.673,14.952,12.810,19.250,17.468,17.015,17.530,0.006,0.988,-0.099,0.305,-1.251,0.732,66.667,840604.000,1.000
13.551,16.770,17.033,15.086,21.402,19.735,21.215,19.252,0.007,0.988,-0.099,0.122,-1.343,0.549,66.667,840605.000,1.000
13.709,18.006,17.990,16.218,21.939,20.872,22.866,19.036,0.006,0.990,-0.101,0.061,-1.373,0.488,66.667,840606.000,1.000
12.199,17.566,17.146,15.623,20.271,20.183,20.688,16.460,0.007,0.989,-0.100,-0.031,-1.556,0.488,66.667,840607.000,1.000
9.496,15.435,14.831,13.766,16.871,17.259,15.294,12.537,0.008,0.988,-0.100,-0.092,-1.678,0.549,66.667,840608.000,1.000
6.590,12.324,12.043,11.753,13.083,12.689,9.013,9.013,0.011,0.989,-0.099,-0.275,-1.678,0.549,66.667,840609.000,1.000
4.259,9.182,9.723,10.496,10.382,8.152,4.554,7.205,0.010,0.991,-0.099,-0.336,-1.709,0.549,66.667,840610.000,1.000
2.927,6.869,8.436,10.349,9.786,5.652,3.700,7.607,0.010,0.989,-0.100,-0.397,-1.801,0.732,66.667,840611.000,1.000
2.855,5.989,8.434,11.280,11.587,6.282,6.676,10.071,0.012,0.989,-0.096,-0.458,-1.801,0.732,66.667,840612.000,1.000
3.902,6.501,9.504,12.860,15.006,9.111,11.767,13.590,0.010,0.989,-0.097,-0.488,-1.892,0.824,66.667,840613.000,1.000
5.353,7.643,10.935,14.299,18.330,11.532,15.856,16.374,0.010,0.987,-0.096,-0.610,-1.953,0.854,66.667,840614.000,1.000
6.462,8.638,12.057,14.952,20.046,11.375,16.523,17.013,0.011,0.984,-0.093,-0.671,-2.014,1.038,66.667,840615.000,1.000
7.004,9.296,12.674,14.766,19.882,8.759,13.873,15.561,0.012,0.984,-0.096,-0.732,-1.984,0.977,66.667,840616.000,1.000
7.217,9.930,12.895,14.146,18.718,5.849,10.229,13.349,0.010,0.984,-0.093,-0.702,-2.106,1.038,66.667,840617.000,1.000
7.485,10.933,12.864,13.568,17.710,4.974,8.153,11.946,0.011,0.985,-0.095,-0.732,-1.984,1.160,66.667,840618.000,1.000
7.977,12.269,12.575,13.259,17.451,6.832,8.788,12.212,0.010,0.984,-0.096,-0.732,-2.045,1.190,66.667,840619.000,1.000
8.247,13.119,11.658,12.956,17.564,10.032,11.453,13.664,0.011,0.985,-0.098,-0.763,-2.075,1.221,66.667,840620.000,1.000
7.394,12.307,9.554,12.051,17.002,12.165,14.167,14.578,0.009,0.986,-0.094,-0.732,-2.136,1.190,66.667,840621.000,1.000
5.012,9.493,6.270,10.265,15.062,11.775,15.084,13.370,0.008,0.984,-0.095,-0.641,-2.167,1.282,66.667,840622.000,1.000
1.855,5.781,2.794,8.124,12.144,9.518,13.880,10.015,0.009,0.983,-0.095,-0.610,-2.289,1.312,66.667,840623.000,1.000
-0.716,2.869,0.422,6.533,9.385,7.171,11.410,5.813,0.009,0.982,-0.095,-0.671,-2.228,1.373,66.667,840624.000,1.000
-1.747,1.801,-0.189,6.039,7.714,5.774,8.434,2.202,0.010,0.980,-0.096,-0.702,-2.319,1.434,66.667,840625.000,1.000
-1.034,2.640,0.847,6.650,7.489,5.283,5.512,0.159,0.010,0.979,-0.095,-0.641,-2.350,1.526,66.667,840626.000,1.000
0.995,4.804,2.956,7.984,8.614,5.701,3.737,0.136,0.009,0.978,-0.095,-0.549,-2.441,1.404,66.667,840627.000,1.000
3.382,7.298,5.242,9.310,10.506,7.394,4.276,1.871,0.012,0.976,-0.097,-0.397,-2.380,1.373,66.667,840628.000,1.000
4.979,8.904,6.650,9.709,12.075,10.069,7.025,4.297,0.011,0.976,-0.097,-0.275,-2.289,1.282,66.667,840629.000,1.000
5.061,8.675,6.402,8.559,12.178,12.338,10.450,6.106,0.011,0.976,-0.096,-0.183,-2.228,1.373,66.667,840630.000,1.000
3.791,6.568,4.527,6.042,10.469,12.836,12.934,6.752,0.013,0.975,-0.097,0.000,-2.350,1.373,66.667,840631.000,1.000
2.108,3.630,2.016,3.157,7.795,11.397,13.830,6.793,0.013,0.978,-0.094,0.031,-2.197,1.404,66.667,840632.000,1.000
1.034,1.347,0.187,1.028,5.568,8.963,13.124,6.887,0.013,0.978,-0.093,0.092,-2.228,1.434,66.667,840633.000,1.000
0.960,0.610,-0.276,0.087,4.643,6.641,10.841,6.765,0.014,0.977,-0.095,0.122,-2.136,1.343,66.667,840634.000,1.000
1.481,1.166,0.262,-0.030,4.815,4.982,7.245,5.655,0.014,0.978,-0.096,0.153,-2.075,1.404,66.667,840635.000,1.000
1.937,2.064,0.945,0.111,5.320,4.039,3.174,3.437,0.017,0.979,-0.100,0.244,-2.014,1.404,66.667,840636.000,1.000
2.116,2.582,1.302,0.356,5.671,3.670,-0.244,1.017,0.015,0.977,-0.100,0.336,-1.984,1.465,66.667,840637.000,1.000
2.402,2.662,1.546,0.995,5.996,3.562,-2.119,-0.287,0.014,0.978,-0.098,0.458,-1.953,1.465,66.667,840638.000,1.000
3.293,2.724,2.186,2.366,6.790,3.458,-1.859,0.436,0.015,0.980,-0.096,0.610,-1.801,1.526,66.667,840639.000,1.000
4.881,3.301,3.523,4.483,8.437,3.555,0.779,3.085,0.015,0.982,-0.099,0.671,-1.709,1.373,66.667,840640.000,1.000
6.685,4.547,5.284,6.824,10.648,4.172,4.918,6.269,0.014,0.985,-0.098,0.641,-1.648,1.404,66.667,840641.000,1.000
7.845,5.828,6.541,8.380,12.269,4.905,8.169,7.917,0.014,0.989,-0.099,0.519,-1.465,1.404,66.667,840642.000,1.000
7.683,6.068,6.236,8.212,11.948,4.591,8.030,6.741,0.013,0.990,-0.100,0.397,-1.465,1.343,66.667,840643.000,1.000
6.352,4.795,4.150,6.278,9.369,2.574,4.156,3.365,0.012,0.991,-0.096,0.214,-1.434,1.312,66.667,840644.000,1.000
4.802,2.667,1.239,3.610,5.704,-0.274,-1.166,-0.188,0.011,0.993,-0.093,0.122,-1.312,1.282,66.667,840645.000,1.000
3.948,0.791,-1.173,1.483,2.632,-2.347,-5.083,-2.249,0.010,0.993,-0.095,-0.153,-1.282,1.160,66.667,840646.000,1.000
3.948,-0.153,-2.339,0.582,1.177,-2.853,-6.163,-2.437,0.009,0.990,-0.096,-0.336,-1.190,1.068,66.667,840647.000,1.000
4.314,-0.075,-2.269,0.928,1.449,-2.210,-4.589,-1.116,0.009,0.989,-0.096,-0.488,-1.221,1.099,66.667,840648.000,1.000
4.399,0.628,-1.536,2.074,2.814,-1.391,-1.643,0.975,0.010,0.988,-0.098,-0.610,-1.221,1.038,66.667,840649.000,1.000
3.687,1.104,-1.099,3.188,4.043,-1.398,0.772,2.520,0.011,0.990,-0.098,-0.763,-1.160,1.038,66.667,840650.000,1.000
2.042,0.495,-1.790,3.419,4.005,-2.803,1.207,2.333,0.014,0.991,-0.098,-0.732,-1.160,1.068,66.667,840651.000,1.000
-0.026,-1.187,-3.588,2.544,2.645,-5.034,-0.173,0.581,0.015,0.991,-0.095,-0.824,-1.099,1.221,66.667,840652.000,1.000
-1.556,-2.878,-5.550,1.158,1.048,-6.403,-1.904,-1.357,0.015,0.993,-0.097,-1.007,-1.099,1.251,66.667,840653.000,1.000
-1.817,-3.405,-6.608,0.107,0.424,-5.507,-2.590,-2.133,0.014,0.992,-0.098,-1.099,-0.854,1.221,66.667,840654.000,1.000
-0.891,-2.548,-6.417,-0.289,1.020,-2.631,-1.956,-1.453,0.015,0.990,-0.097,-1.221,-0.824,1.312,66.667,840655.000,1.000
0.496,-1.067,-5.433,-0.390,2.013,0.609,-0.976,-0.292,0.016,0.990,-0.098,-1.312,-0.763,1.312,66.667,840656.000,1.000
1.635,0.166,-4.291,-0.646,2.458,2.929,-0.746,0.036,0.017,0.987,-0.099,-1.282,-0.732,1.343,66.667,840657.000,1.000
2.184,0.766,-3.396,-1.072,2.131,4.158,-1.232,-0.823,0.019,0.987,-0.101,-1.312,-0.671,1.434,66.667,840658.000,1.000
2.051,0.698,-3.031,-1.386,1.428,4.634,-1.435,-2.003,0.017,0.986,-0.096,-1.373,-0.519,1.587,66.667,840659.000,1.000
1.325,0.064,-3.402,-1.359,0.850,4.593,-0.570,-2.224,0.015,0.988,-0.092,-1.465,-0.397,1.648,66.667,840660.000,1.000
0.265,-0.972,-4.551,-1.025,0.609,3.919,0.996,-0.876,0.012,0.986,-0.094,-1.526,-0.427,1.526,66.667,840661.000,1.000
-0.982,-2.369,-6.456,-0.784,0.357,2.013,1.688,1.160,0.007,0.987,-0.094,-1.648,-0.336,1.434,66.667,840662.000,1.000
-2.452,-4.144,-8.934,-1.098,-0.534,-1.619,-0.208,1.988,0.006,0.982,-0.093,-1.709,-0.305,1.343,66.667,840663.000,1.000
-3.859,-5.791,-11.206,-1.823,-2.037,-6.286,-4.809,0.620,0.003,0.979,-0.093,-1.678,-0.305,1.312,66.667,840664.000,1.000
-4.401,-6.166,-11.999,-2.095,-3.096,-10.137,-9.950,-1.761,0.006,0.975,-0.096,-1.709,-0.427,1.221,66.667,840665.000,1.000
-3.411,-4.399,-10.500,-1.106,-2.508,-11.459,-12.552,-2.796,0.008,0.975,-0.097,-1.404,-0.427,1.068,66.667,840666.000,1.000
-1.089,-0.856,-7.165,1.083,-0.052,-9.716,-10.770,-1.068,0.010,0.975,-0.097,-1.190,-0.458,0.977,66.667,840667.000,1.000
1.578,3.027,-3.499,3.572,3.358,-5.479,-5.069,2.879,0.010,0.977,-0.096,-1.099,-0.549,1.007,66.667,840668.000,1.000
3.529,5.834,-0.989,5.384,6.500,0.218,2.565,7.408,0.009,0.982,-0.095,-1.007,-0.610,0.916,66.667,840669.000,1.000
4.139,6.974,-0.277,6.063,8.576,6.162,10.059,11.114,0.008,0.983,-0.093,-0.885,-0.610,0.977,66.667,840670.000,1.000
3.307,6.632,-1.124,5.679,9.244,10.704,15.596,13.228,0.010,0.986,-0.092,-0.916,-0.641,0.977,66.667,840671.000,1.000
1.387,5.271,-2.850,4.551,8.364,11.946,17.397,13.412,0.012,0.987,-0.091,-0.977,-0.488,1.007,66.667,840672.000,1.000
-0.997,3.274,-4.785,3.003,5.995,8.985,14.625,11.722,0.011,0.987,-0.091,-1.007,-0.488,1.099,66.667,840673.000,1.000
-3.195,0.991,-6.482,1.324,2.573,2.898,8.480,8.723,0.011,0.987,-0.094,-1.007,-0.488,1.099,66.667,840674.000,1.000
-4.781,-1.153,-7.778,-0.226,-1.199,-3.988,1.373,5.234,0.010,0.986,-0.093,-1.038,-0.458,1.129,66.667,840675.000,1.000
-5.744,-2.825,-8.779,-1.485,-4.650,-9.536,-4.718,1.900,0.013,0.987,-0.092,-1.068,-0.458,1.282,66.667,840676.000,1.000
-6.352,-3.852,-9.621,-2.353,-7.147,-12.216,-8.500,-0.756,0.013,0.985,-0.092,-1.068,-0.275,1.221,66.667,840677.000,1.000
-6.773,-4.054,-10.149,-2.681,-8.031,-10.947,-8.963,-2.222,0.011,0.982,-0.093,-1.068,-0.153,1.404,66.667,840678.000,1.000
-6.856,-3.190,-9.923,-2.320,-6.964,-5.712,-5.989,-2.431,0.012,0.983,-0.093,-1.099,-0.214,1.465,66.667,840679.000,1.000
-6.289,-1.225,-8.595,-1.263,-4.381,1.525,-1.219,-1.991,0.011,0.984,-0.094,-1.007,-0.183,1.465,66.667,840680.000,1.000
-4.901,1.435,-6.266,0.345,-1.322,7.594,2.836,-1.486,0.011,0.985,-0.092,-1.038,-0.214,1.526,66.667,840681.000,1.000
-2.919,3.992,-3.609,2.203,1.175,10.330,4.814,-0.885,0.009,0.986,-0.092,-1.068,-0.122,1.617,66.667,840682.000,1.000
-1.070,5.441,-1.760,3.727,2.289,9.466,4.811,-0.095,0.007,0.987,-0.092,-1.068,-0.122,1.709,66.667,840683.000,1.000
-0.201,5.036,-1.728,4.214,1.556,5.949,3.289,0.462,0.009,0.986,-0.091,-1.160,-0.092,1.709,66.667,840684.000,1.000
-0.602,2.920,-3.603,3.376,-0.688,1.546,0.939,0.332,0.007,0.986,-0.092,-1.160,-0.061,1.709,66.667,840685.000,1.000
-1.838,0.099,-6.506,1.566,-3.346,-1.654,-0.919,-0.299,0.010,0.984,-0.092,-1.190,-0.183,1.740,66.667,840686.000,1.000
-3.216,-2.325,-9.317,-0.529,-5.324,-2.505,-0.972,-0.705,0.007,0.984,-0.091,-1.160,-0.244,1.678,66.667,840687.000,1.000
-4.228,-3.748,-11.272,-2.269,-6.173,-1.417,0.854,-0.289,0.008,0.984,-0.091,-1.160,-0.397,1.648,66.667,840688.000,1.000
-4.655,-4.127,-12.063,-3.299,-6.096,0.398,3.019,0.796,0.009,0.984,-0.090,-1.221,-0.397,1.740,66.667,840689.000,1.000
-4.498,-3.777,-11.763,-3.599,-5.617,1.817,3.426,1.736,0.010,0.984,-0.092,-1.160,-0.427,1.709,66.667,840690.000,1.000
-3.887,-3.094,-10.718,-3.362,-5.167,2.178,1.082,1.795,0.011,0.983,-0.090,-1.160,-0.397,1.740,66.667,840691.000,1.000
-2.989,-2.334,-9.424,-2.846,-4.830,1.485,-3.039,0.869,0.011,0.981,-0.091,-1.068,-0.397,1.678,66.667,840692.000,1.000
-2.082,-1.717,-8.479,-2.392,-4.548,0.144,-6.865,-0.599,0.010,0.981,-0.092,-1.038,-0.336,1.678,66.667,840693.000,1.000
-1.686,-1.693,-8.561,-2.533,-4.655,-1.886,-9.269,-2.313,0.010,0.981,-0.091,-0.885,-0.366,1.678,66.667,840694.000,1.000
-2.394,-2.797,-10.145,-3.851,-5.905,-5.188,-10.976,-4.570,0.010,0.981,-0.092,-0.702,-0.397,1.587,66.667,840695.000,1.000
-4.310,-4.988,-12.994,-6.431,-8.592,-9.584,-13.070,-7.545,0.012,0.981,-0.091,-0.702,-0.488,1.678,66.667,840696.000,1.000
-6.716,-7.278,-15.995,-9.486,-11.829,-13.357,-15.217,-10.377,0.010,0.981,-0.092,-0.641,-0.427,1.556,66.667,840697.000,1.000
-8.484,-8.328,-17.738,-11.752,-14.005,-14.424,-15.957,-11.491,0.011,0.983,-0.093,-0.549,-0.366,1.617,66.667,840698.000,1.000
-8.881,-7.462,-17.430,-12.330,-13.933,-11.979,-14.156,-9.809,0.011,0.984,-0.092,-0.458,-0.366,1.587,66.667,840699.000,1.000
-7.972,-5.101,-15.346,-11.223,-11.554,-6.840,-9.736,-5.581,0.012,0.986,-0.093,-0.519,-0.336,1.556,66.667,840700.000,1.000
-6.289,-2.270,-12.442,-9.102,-7.751,-0.760,-3.532,-0.208,0.012,0.988,-0.094,-0.427,-0.458,1.404,66.667,840701.000,1.000
-4.222,0.269,-9.544,-6.642,-3.662,4.470,3.050,4.693,0.011,0.989,-0.094,-0.427,-0.488,1.434,66.667,840702.000,1.000
-1.860,2.317,-6.960,-4.187,-0.222,7.667,8.246,8.025,0.012,0.989,-0.095,-0.427,-0.488,1.404,66.667,840703.000,1.000
0.691,3.922,-4.707,-1.913,1.999,8.599,10.583,9.363,0.012,0.990,-0.091,-0.458,-0.519,1.373,66.667,840704.000,1.000
3.088,5.117,-2.806,0.007,2.925,8.077,10.066,8.987,0.010,0.991,-0.090,-0.458,-0.458,1.343,66.667,840705.000,1.000
4.775,5.809,-1.441,1.349,2.819,7.377,8.162,7.705,0.012,0.989,-0.091,-0.549,-0.427,1.221,66.667,840706.000,1.000
5.129,5.700,-1.005,1.743,1.786,7.045,6.153,6.017,0.012,0.987,-0.091,-0.488,-0.458,1.068,66.667,840707.000,1.000
3.789,4.521,-1.830,0.820,-0.259,6.438,4.191,3.709,0.012,0.987,-0.092,-0.519,-0.549,1.129,66.667,840708.000,1.000
1.045,2.521,-3.712,-1.312,-2.968,4.780,2.268,0.836,0.012,0.986,-0.092,-0.702,-0.549,1.038,66.667,840709.000,1.000
-2.186,0.514,-5.864,-3.885,-5.313,2.375,1.025,-1.584,0.010,0.986,-0.094,-0.671,-0.610,1.129,66.667,840710.000,1.000
-4.926,-0.776,-7.521,-6.016,-6.330,0.257,0.931,-2.493,0.010,0.985,-0.095,-0.732,-0.610,1.099,66.667,840711.000,1.000
-6.742,-1.337,-8.499,-7.324,-5.936,-1.186,1.425,-1.814,0.010,0.983,-0.094,-0.641,-0.610,1.099,66.667,840712.000,1.000
-7.657,-1.557,-8.896,-7.789,-4.658,-2.394,1.636,-0.127,0.010,0.982,-0.095,-0.580,-0.549,0.946,66.667,840713.000,1.000
-7.630,-1.506,-8.512,-7.286,-2.834,-3.531,1.515,2.115,0.009,0.981,-0.094,-0.580,-0.580,0.977,66.667,840714.000,1.000
-6.566,-0.956,-7.028,-5.682,-0.583,-4.063,1.633,4.605,0.008,0.981,-0.095,-0.458,-0.641,0.916,66.667,840715.000,1.000
-4.692,0.101,-4.583,-3.253,1.737,-3.395,2.336,6.864,0.009,0.983,-0.090,-0.488,-0.702,0.793,66.667,840716.000,1.000
-2.537,1.439,-1.724,-0.650,3.609,-1.236,3.708,8.361,0.009,0.984,-0.091,-0.458,-0.763,0.854,66.667,840717.000,1.000
-0.582,2.820,1.027,1.447,4.681,2.295,5.893,8.859,0.009,0.985,-0.091,-0.305,-0.885,0.946,66.667,840718.000,1.000
0.809,3.833,3.197,2.496,4.681,6.186,8.732,8.475,0.006,0.985,-0.094,-0.397,-0.885,0.854,66.667,840719.000,1.000
1.297,3.753,4.237,2.183,3.277,8.405,11.054,7.460,0.007,0.986,-0.092,-0.305,-0.885,0.885,66.667,840720.000,1.000
0.774,2.072,3.887,0.682,0.459,7.171,11.011,6.084,0.008,0.984,-0.092,-0.336,-0.946,0.946,66.667,840721.000,1.000
-0.377,-0.854,2.591,-1.313,-3.087,2.598,7.814,4.740,0.008,0.985,-0.092,-0.305,-0.977,1.007,66.667,840722.000,1.000
-1.490,-3.966,1.211,-3.102,-6.359,-3.194,2.753,3.645,0.007,0.986,-0.090,-0.275,-1.038,0.977,66.667,840723.000,1.000
-1.986,-6.198,0.450,-4.376,-8.664,-7.475,-1.789,2.529,0.008,0.984,-0.092,-0.214,-1.099,1.038,66.667,840724.000,1.000
-1.513,-6.882,0.674,-5.030,-9.700,-8.444,-3.970,1.147,0.010,0.984,-0.091,-0.275,-1.099,1.007,66.667,840725.000,1.000
-0.105,-5.962,1.884,-5.004,-9.521,-6.381,-3.628,-0.352,0.011,0.984,-0.090,-0.275,-1.099,1.068,66.667,840726.000,1.000
1.663,-4.154,3.617,-4.459,-8.663,-3.674,-2.396,-1.789,0.010,0.985,-0.090,-0.183,-1.129,1.190,66.667,840727.000,1.000
2.928,-2.634,5.102,-3.791,-7.921,-3.054,-2.289,-3.029,0.010,0.984,-0.086,-0.244,-1.129,1.343,66.667,840728.000,1.000
3.017,-2.310,5.707,-3.347,-7.758,-5.415,-3.933,-3.674,0.010,0.983,-0.089,-0.183,-1.099,1.282,66.667,840729.000,1.000
1.735,-3.325,5.285,-3.231,-8.019,-9.317,-6.228,-3.278,0.010,0.980,-0.086,-0.153,-1.129,1.404,66.667,840730.000,1.000
-0.627,-5.130,4.185,-3.398,-8.197,-12.337,-7.461,-1.895,0.012,0.980,-0.086,-0.092,-1.068,1.434,66.667,840731.000,1.000
-3.440,-6.963,2.972,-3.802,-7.893,-12.816,-6.476,-0.057,0.011,0.982,-0.090,-0.122,-1.038,1.556,66.667,840732.000,1.000
-5.946,-8.253,2.080,-4.407,-7.039,-10.633,-3.234,1.703,0.010,0.982,-0.090,-0.153,-1.099,1.556,66.667,840733.000,1.000
-7.396,-8.639,1.736,-5.072,-5.861,-6.770,1.045,2.934,0.012,0.979,-0.091,-0.153,-1.099,1.617,66.667,840734.000,1.000
-7.109,-7.762,2.168,-5.492,-4.679,-2.470,4.441,3.110,0.011,0.980,-0.089,-0.061,-1.099,1.648,66.667,840735.000,1.000
-4.663,-5.273,3.768,-5.240,-3.581,1.470,5.734,2.091,0.012,0.980,-0.091,0.031,-0.946,1.556,66.667,840736.000,1.000
-0.266,-1.203,6.789,-4.040,-2.351,4.866,5.288,0.558,0.014,0.980,-0.091,-0.092,-0.885,1.556,66.667,840737.000,1.000
5.015,3.677,10.803,-2.104,-0.856,7.586,4.399,-0.481,0.014,0.980,-0.089,-0.092,-0.916,1.587,66.667,840738.000,1.000
9.580,8.019,14.659,-0.124,0.616,9.116,3.961,-0.478,0.013,0.980,-0.089,0.000,-0.916,1.495,66.667,840739.000,1.000
11.957,10.527,17.048,1.065,1.430,8.924,3.753,0.291,0.013,0.980,-0.088,0.031,-0.916,1.312,66.667,840740.000,1.000
11.447,10.569,17.199,0.861,1.035,7.125,2.912,0.880,0.014,0.983,-0.089,0.031,-0.916,1.404,66.667,840741.000,1.000
8.509,8.497,15.365,-0.680,-0.524,4.567,0.957,0.423,0.015,0.982,-0.090,-0.031,-0.824,1.495,66.667,840742.000,1.000
4.653,5.522,12.784,-2.689,-2.500,2.228,-1.777,-1.047,0.015,0.982,-0.091,-0.092,-0.763,1.495,66.667,840743.000,1.000
1.709,3.074,10.972,-3.997,-3.928,0.541,-4.472,-2.558,0.016,0.980,-0.089,-0.183,-0.702,1.434,66.667,840744.000,1.000
0.851,2.028,10.839,-3.946,-4.225,-0.713,-6.346,-2.949,0.015,0.980,-0.088,-0.092,-0.641,1.312,66.667,840745.000,1.000
2.037,2.387,12.288,-2.724,-3.395,-1.857,-6.861,-1.618,0.015,0.981,-0.089,-0.031,-0.610,1.282,66.667,840746.000,1.000
4.179,3.555,14.400,-1.101,-1.905,-2.752,-5.790,1.061,0.015,0.981,-0.086,-0.061,-0.610,1.312,66.667,840747.000,1.000
5.844,4.768,15.981,0.041,-0.473,-2.889,-3.573,3.693,0.014,0.981,-0.088,-0.061,-0.610,1.251,66.667,840748.000,1.000
6.058,5.424,16.210,0.212,0.337,-1.859,-1.153,4.803,0.014,0.983,-0.091,-0.153,-0.610,1.343,66.667,840749.000,1.000
4.772,5.276,15.068,-0.350,0.457,0.204,0.834,4.150,0.012,0.981,-0.089,-0.183,-0.610,1.312,66.667,840750.000,1.000
2.688,4.353,13.198,-0.941,0.110,2.246,2.057,2.633,0.012,0.982,-0.087,-0.244,-0.671,1.221,66.667,840751.000,1.000
0.540,2.705,11.259,-1.122,-0.655,2.634,1.963,1.052,0.011,0.982,-0.088,-0.305,-0.549,1.099,66.667,840752.000,1.000
-1.420,0.353,9.482,-1.037,-1.911,0.518,0.345,-0.327,0.011,0.984,-0.088,-0.336,-0.549,1.129,66.667,840753.000,1.000
-3.328,-2.476,7.813,-1.007,-3.376,-3.121,-1.633,-1.152,0.013,0.985,-0.086,-0.336,-0.549,1.007,66.667,840754.000,1.000
-5.493,-5.390,6.126,-1.228,-4.503,-6.297,-2.159,-0.969,0.013,0.984,-0.086,-0.427,-0.580,1.129,66.667,840755.000,1.000
-8.200,-8.144,4.281,-1.843,-5.103,-7.798,-0.758,-0.071,0.013,0.986,-0.087,-0.488,-0.519,1.068,66.667,840756.000,1.000
-11.290,-10.593,2.394,-2.861,-5.387,-7.628,1.427,0.635,0.011,0.984,-0.084,-0.549,-0.549,1.099,66.667,840757.000,1.000
-13.999,-12.436,1.039,-3.935,-5.411,-6.132,3.173,0.613,0.012,0.985,-0.086,-0.641,-0.488,1.190,66.667,840758.000,1.000
-15.481,-13.369,0.852,-4.559,-4.995,-3.796,3.910,-0.101,0.011,0.984,-0.086,-0.763,-0.458,1.221,66.667,840759.000,1.000
-15.489,-13.488,1.882,-4.575,-4.208,-1.841,3.275,-1.398,0.011,0.982,-0.083,-0.763,-0.427,1.251,66.667,840760.000,1.000
-14.414,-13.242,3.533,-4.306,-3.490,-1.750,1.066,-3.248,0.013,0.983,-0.084,-0.824,-0.427,1.251,66.667,840761.000,1.000
-12.807,-12.907,5.166,-4.111,-3.156,-3.803,-2.164,-5.393,0.013,0.984,-0.083,-0.824,-0.366,1.312,66.667,840762.000,1.000
-11.098,-12.369,6.531,-4.013,-3.080,-6.785,-5.126,-7.214,0.012,0.983,-0.084,-0.854,-0.305,1.465,66.667,840763.000,1.000
-9.570,-11.371,7.720,-3.794,-2.879,-9.104,-6.625,-8.020,0.014,0.985,-0.084,-0.824,-0.427,1.587,66.667,840764.000,1.000
-8.228,-9.712,9.055,-3.132,-2.108,-9.592,-6.010,-7.275,0.013,0.985,-0.086,-0.885,-0.366,1.617,66.667,840765.000,1.000
-6.814,-7.377,10.875,-1.721,-0.400,-7.740,-3.170,-4.732,0.013,0.986,-0.087,-0.885,-0.397,1.801,66.667,840766.000,1.000
-5.238,-4.850,13.010,0.335,2.017,-4.273,0.895,-1.046,0.013,0.988,-0.087,-0.977,-0.305,1.862,66.667,840767.000,1.000
-3.874,-3.178,14.581,2.214,3.981,-1.335,3.804,1.879,0.013,0.987,-0.086,-0.977,-0.366,1.831,66.667,840768.000,1.000
-3.216,-3.257,14.682,2.884,4.209,-0.919,3.612,2.177,0.012,0.983,-0.085,-1.129,-0.336,1.831,66.667,840769.000,1.000
-3.340,-5.025,13.245,1.958,2.491,-3.013,0.767,-0.379,0.012,0.982,-0.082,-1.190,-0.244,1.801,66.667,840770.000,1.000
-3.793,-7.479,11.079,-0.076,-0.250,-5.860,-2.750,-4.553,0.010,0.981,-0.084,-1.129,-0.336,1.709,66.667,840771.000,1.000
-3.913,-9.368,9.252,-2.280,-2.802,-7.819,-5.462,-8.728,0.011,0.983,-0.087,-1.068,-0.336,1.740,66.667,840772.000,1.000
-3.197,-9.818,8.559,-3.711,-4.256,-8.406,-6.912,-11.460,0.014,0.984,-0.085,-0.977,-0.458,1.648,66.667,840773.000,1.000
-1.559,-8.638,9.226,-3.801,-4.213,-7.959,-7.115,-11.941,0.016,0.986,-0.087,-1.007,-0.366,1.648,66.667,840774.000,1.000
0.619,-6.315,10.860,-2.632,-2.844,-6.908,-5.977,-10.346,0.016,0.987,-0.086,-0.916,-0.397,1.770,66.667,840775.000,1.000
2.772,-3.651,12.772,-0.795,-0.652,-5.160,-3.003,-7.440,0.018,0.985,-0.083,-0.977,-0.305,1.923,66.667,840776.000,1.000
4.484,-1.407,14.375,0.977,1.744,-2.349,1.865,-4.150,0.019,0.981,-0.082,-1.007,-0.275,1.953,66.667,840777.000,1.000
5.549,-0.256,15.234,2.036,3.484,0.719,6.723,-1.593,0.019,0.979,-0.080,-1.038,-0.183,2.075,66.667,840778.000,1.000
5.945,-0.602,15.119,2.003,3.608,1.724,8.371,-0.759,0.020,0.974,-0.082,-1.068,-0.092,2.014,66.667,840779.000,1.000
5.936,-2.137,14.242,0.998,1.748,-1.004,5.266,-1.836,0.019,0.972,-0.086,-0.885,-0.031,1.953,66.667,840780.000,1.000
6.044,-3.823,13.292,-0.370,-1.468,-6.641,-1.046,-4.084,0.020,0.972,-0.088,-0.732,0.031,1.984,66.667,840781.000,1.000
6.686,-4.561,13.009,-1.377,-4.818,-12.531,-7.438,-6.378,0.021,0.976,-0.088,-0.427,0.153,2.014,66.667,840782.000,1.000
7.715,-3.915,13.589,-1.715,-7.295,-16.027,-11.432,-7.992,0.020,0.980,-0.086,-0.275,0.244,1.953,66.667,840783.000,1.000
8.491,-2.269,14.553,-1.661,-8.600,-15.933,-12.272,-8.971,0.021,0.985,-0.087,-0.336,0.275,1.984,66.667,840784.000,1.000
8.506,-0.388,15.294,-1.659,-8.952,-13.012,-10.728,-9.691,0.020,0.989,-0.086,-0.305,0.366,2.045,66.667,840785.000,1.000
7.775,1.180,15.661,-1.807,-8.552,-9.062,-8.049,-10.057,0.021,0.989,-0.086,-0.519,0.397,2.075,66.667,840786.000,1.000
6.578,2.297,15.983,-1.862,-7.415,-5.360,-4.890,-9.353,0.022,0.989,-0.083,-0.519,0.427,2.045,66.667,840787.000,1.000
5.147,3.040,16.766,-1.606,-5.707,-2.266,-1.509,-7.143,0.021,0.989,-0.082,-0.641,0.519,2.075,66.667,840788.000,1.000
3.667,3.438,18.311,-1.125,-4.049,-0.074,1.096,-4.279,0.020,0.986,-0.086,-0.641,0.549,1.923,66.667,840789.000,1.000
2.251,3.350,20.315,-0.805,-3.363,0.528,1.146,-2.671,0.015,0.988,-0.088,-0.702,0.610,1.770,66.667,840790.000,1.000
0.843,2.574,21.834,-1.110,-4.315,-0.926,-2.467,-3.911,0.011,0.987,-0.088,-0.671,0.488,1.709,66.667,840791.000,1.000
-0.669,1.140,21.868,-2.230,-6.749,-3.904,-8.862,-7.919,0.009,0.986,-0.087,-0.793,0.366,1.526,66.667,840792.000,1.000
-2.221,-0.517,20.098,-3.830,-9.580,-6.844,-15.319,-12.674,0.008,0.987,-0.085,-0.610,0.214,1.282,66.667,840793.000,1.000
-3.553,-1.776,17.131,-5.170,-11.318,-7.964,-18.775,-15.406,0.008,0.989,-0.084,-0.763,-0.031,1.068,66.667,840794.000,1.000
-4.522,-2.316,13.999,-5.615,-10.957,-6.426,-17.616,-14.456,0.010,0.990,-0.085,-0.732,-0.183,0.854,66.667,840795.000,1.000
-5.202,-2.285,11.547,-5.006,-8.475,-2.752,-12.348,-10.218,0.013,0.989,-0.085,-0.702,-0.275,0.732,66.667,840796.000,1.000
-5.554,-1.895,10.312,-3.468,-4.546,1.881,-4.814,-4.465,0.014,0.989,-0.084,-0.732,-0.305,0.793,66.667,840797.000,1.000
-5.274,-1.114,10.547,-1.180,-0.073,6.449,2.864,0.912,0.015,0.988,-0.086,-0.732,-0.458,0.824,66.667,840798.000,1.000
-4.156,0.142,12.032,1.488,4.002,10.212,8.796,4.637,0.017,0.990,-0.088,-0.732,-0.519,0.885,66.667,840799.000,1.000
-2.456,1.646,14.003,3.854,6.786,12.322,11.589,6.199,0.017,0.992,-0.084,-0.702,-0.427,0.793,66.667,840800.000,1.000
-0.794,2.811,15.495,5.243,7.681,11.704,10.698,5.763,0.019,0.992,-0.085,-0.732,-0.458,0.854,66.667,840801.000,1.000
0.220,3.017,15.850,5.397,6.688,7.827,6.835,3.979,0.018,0.994,-0.086,-0.824,-0.549,1.007,66.667,840802.000,1.000
0.214,1.905,14.880,4.484,4.375,1.522,1.748,1.608,0.017,0.996,-0.087,-0.824,-0.488,1.129,66.667,840803.000,1.000
-0.870,-0.452,12.760,2.890,1.548,-5.179,-2.723,-0.704,0.018,0.994,-0.081,-0.916,-0.458,1.129,66.667,840804.000,1.000
-2.624,-3.350,10.071,1.210,-0.912,-9.933,-5.286,-2.233,0.018,0.992,-0.081,-0.946,-0.488,1.312,66.667,840805.000,1.000
-4.179,-5.650,7.743,0.188,-2.193,-11.229,-5.319,-2.302,0.016,0.990,-0.084,-0.946,-0.610,1.404,66.667,840806.000,1.000
-4.648,-6.528,6.559,0.249,-2.038,-9.295,-3.131,-1.056,0.014,0.990,-0.085,-1.038,-0.641,1.526,66.667,840807.000,1.000
-3.631,-5.934,6.734,1.185,-0.957,-5.768,-0.020,0.414,0.016,0.990,-0.087,-0.977,-0.610,1.587,66.667,840808.000,1.000
-1.388,-4.298,7.982,2.397,0.260,-2.230,2.655,0.966,0.017,0.991,-0.081,-0.916,-0.763,1.617,66.667,840809.000,1.000
1.213,-2.243,9.666,3.182,0.997,0.638,4.289,-0.035,0.016,0.990,-0.082,-0.824,-0.732,1.526,66.667,840810.000,1.000
2.991,-0.570,10.890,2.912,0.834,2.544,4.604,-2.706,0.015,0.990,-0.084,-0.854,-0.854,1.556,66.667,840811.000,1.000
3.075,0.082,10.925,1.440,-0.273,3.184,3.328,-6.318,0.014,0.988,-0.084,-0.946,-0.885,1.495,66.667,840812.000,1.000
1.551,-0.173,9.855,-0.512,-1.571,2.848,0.918,-9.224,0.017,0.987,-0.083,-0.732,-0.793,1.465,66.667,840813.000,1.000
-0.546,-0.481,8.592,-1.708,-1.815,2.663,-1.212,-9.819,0.018,0.984,-0.084,-0.793,-0.793,1.434,66.667,840814.000,1.000
-2.112,-0.205,7.943,-1.436,-0.502,3.407,-1.923,-7.844,0.019,0.983,-0.083,-0.671,-0.824,1.312,66.667,840815.000,1.000
-2.806,0.299,7.769,-0.151,1.400,4.533,-1.463,-4.610,0.017,0.981,-0.083,-0.427,-0.916,1.312,66.667,840816.000,1.000
-2.939,0.148,7.300,1.052,2.271,4.809,-1.025,-1.824,0.017,0.977,-0.087,-0.214,-0.824,1.312,66.667,840817.000,1.000
-2.794,-0.979,6.116,1.462,1.309,3.626,-1.404,-0.292,0.016,0.976,-0.087,-0.061,-0.854,1.160,66.667,840818.000,1.000
-2.288,-2.524,4.565,1.140,-0.931,1.561,-2.413,0.183,0.017,0.976,-0.085,0.183,-0.763,1.129,66.667,840819.000,1.000
-1.262,-3.690,3.321,0.507,-3.227,-0.144,-3.450,-0.052,0.016,0.978,-0.084,0.427,-0.793,1.068,66.667,840820.000,1.000
0.249,-3.957,2.901,-0.023,-4.472,-0.399,-3.997,-0.800,0.019,0.978,-0.088,0.580,-0.824,1.068,66.667,840821.000,1.000
2.144,-2.989,3.588,-0.024,-3.913,1.370,-3.436,-1.520,0.018,0.978,-0.087,0.732,-0.793,1.099,66.667,840822.000,1.000
4.326,-0.702,5.310,0.775,-1.429,4.911,-1.393,-1.418,0.019,0.978,-0.086,0.885,-0.793,0.977,66.667,840823.000,1.000
6.563,2.386,7.454,2.187,2.133,8.902,1.372,-0.337,0.020,0.978,-0.086,1.068,-0.763,0.885,66.667,840824.000,1.000
8.565,5.395,9.223,3.765,5.451,11.833,3.497,1.106,0.018,0.978,-0.086,1.190,-0.732,0.885,66.667,840825.000,1.000
10.154,7.759,10.192,5.250,7.668,13.313,4.418,2.251,0.018,0.979,-0.087,1.251,-0.702,0.793,66.667,840826.000,1.000
11.138,9.311,10.252,6.478,8.504,13.716,4.143,2.548,0.017,0.981,-0.088,1.373,-0.671,0.763,66.667,840827.000,1.000
11.167,9.936,9.276,7.156,7.915,12.967,2.446,1.520,0.019,0.981,-0.090,1.556,-0.702,0.824,66.667,840828.000,1.000
10.048,9.648,7.294,7.159,6.329,10.920,-0.342,-0.424,0.020,0.981,-0.090,1.648,-0.641,0.854,66.667,840829.000,1.000
8.106,8.871,4.828,6.783,4.775,8.544,-2.535,-1.770,0.018,0.981,-0.090,1.709,-0.702,0.854,66.667,840830.000,1.000
6.012,8.218,2.655,6.401,4.172,7.581,-2.304,-1.179,0.017,0.982,-0.088,1.862,-0.580,0.824,66.667,840831.000,1.000
4.280,7.970,1.205,6.000,4.547,8.806,0.561,1.300,0.016,0.982,-0.088,1.770,-0.580,0.824,66.667,840832.000,1.000
2.969,7.838,0.259,5.195,5.038,11.010,4.279,4.252,0.015,0.985,-0.088,1.770,-0.641,0.824,66.667,840833.000,1.000
1.791,7.240,-0.761,3.644,4.615,11.985,6.260,5.847,0.014,0.989,-0.089,1.801,-0.732,0.793,66.667,840834.000,1.000
0.461,5.844,-2.218,1.467,2.895,10.526,4.958,5.070,0.014,0.989,-0.091,1.709,-0.671,0.763,66.667,840835.000,1.000
-1.009,3.902,-3.901,-0.652,0.428,7.226,0.931,2.495,0.014,0.990,-0.089,1.587,-0.671,0.671,66.667,840836.000,1.000
-2.375,1.992,-5.203,-1.924,-1.792,3.431,-3.844,-0.328,0.010,0.990,-0.089,1.404,-0.671,0.702,66.667,840837.000,1.000
-3.367,0.580,-5.582,-2.011,-3.040,0.166,-7.472,-2.253,0.009,0.987,-0.083,1.312,-0.824,0.641,66.667,840838.000,1.000
-3.558,0.081,-4.700,-0.996,-2.976,-1.681,-8.748,-2.860,0.007,0.985,-0.085,1.099,-0.946,0.610,66.667,840839.000,1.000
-2.248,1.073,-2.341,0.951,-1.458,-1.124,-7.127,-1.973,0.009,0.986,-0.085,1.007,-1.038,0.610,66.667,840840.000,1.000
1.009,3.837,1.360,3.530,1.248,2.068,-3.224,0.106,0.014,0.984,-0.091,0.946,-1.068,0.671,66.667,840841.000,1.000
5.716,7.672,5.581,6.060,4.199,6.714,1.120,2.233,0.016,0.984,-0.090,0.916,-1.251,0.763,66.667,840842.000,1.000
10.528,11.062,9.085,7.713,6.185,10.968,4.167,3.216,0.017,0.986,-0.090,0.763,-1.221,0.824,66.667,840843.000,1.000
14.183,12.717,11.077,8.145,6.651,13.567,5.572,2.980,0.015,0.988,-0.091,0.763,-1.160,0.885,66.667,840844.000,1.000
16.275,12.439,11.737,7.791,6.147,14.299,6.189,2.563,0.014,0.990,-0.094,0.610,-1.160,0.946,66.667,840845.000,1.000
17.194,10.977,11.821,7.385,5.659,13.547,6.613,2.712,0.013,0.990,-0.094,0.519,-1.129,0.946,66.667,840846.000,1.000
17.598,9.351,11.945,7.352,5.618,11.669,6.223,2.946,0.019,0.987,-0.092,0.488,-1.099,1.068,66.667,840847.000,1.000
17.975,8.413,12.328,7.772,5.825,9.029,4.236,2.493,0.020,0.985,-0.095,0.519,-1.160,1.129,66.667,840848.000,1.000
18.312,8.522,12.806,8.533,5.961,6.296,1.233,1.442,0.019,0.985,-0.094,0.488,-1.099,1.312,66.667,840849.000,1.000
17.989,9.167,12.810,9.256,5.696,4.051,-1.186,0.554,0.017,0.986,-0.090,0.549,-1.038,1.404,66.667,840850.000,1.000
16.303,9.216,11.691,9.429,4.727,2.223,-1.937,0.594,0.014,0.986,-0.090,0.458,-0.916,1.373,66.667,840851.000,1.000
13.284,7.940,9.414,8.847,3.145,0.523,-1.005,1.914,0.011,0.985,-0.089,0.305,-0.885,1.434,66.667,840852.000,1.000
9.874,5.645,6.733,7.794,1.488,-0.840,1.017,4.101,0.007,0.984,-0.088,0.214,-0.946,1.312,66.667,840853.000,1.000
7.200,3.142,4.478,6.645,0.081,-1.736,2.924,5.893,0.007,0.979,-0.089,0.183,-0.977,1.099,66.667,840854.000,1.000
5.806,0.971,2.848,5.421,-1.418,-3.055,2.835,5.741,0.007,0.977,-0.089,0.153,-1.129,1.007,66.667,840855.000,1.000
5.733,-0.456,1.719,4.054,-3.232,-5.619,-0.284,3.074,0.008,0.978,-0.089,0.214,-1.251,0.854,66.667,840856.000,1.000
7.050,-0.348,1.379,2.996,-4.449,-8.290,-4.796,-0.672,0.010,0.977,-0.090,0.244,-1.312,0.763,66.667,840857.000,1.000
9.746,1.981,2.356,3.049,-3.526,-8.634,-7.376,-2.959,0.010,0.980,-0.089,0.244,-1.404,0.549,66.667,840858.000,1.000
13.124,6.047,4.542,4.484,0.109,-5.446,-6.003,-2.393,0.013,0.981,-0.090,0.183,-1.526,0.519,66.667,840859.000,1.000
15.728,10.094,6.869,6.568,5.244,0.046,-1.562,0.245,0.014,0.983,-0.091,0.183,-1.465,0.488,66.667,840860.000,1.000
16.090,12.221,7.891,8.010,9.597,5.194,3.024,2.984,0.015,0.985,-0.091,0.183,-1.526,0.488,66.667,840861.000,1.000
13.588,11.587,6.634,7.719,11.269,7.867,4.945,4.110,0.014,0.983,-0.092,0.122,-1.465,0.427,66.667,840862.000,1.000
8.665,8.630,3.052,5.289,9.715,7.628,3.221,2.869,0.017,0.984,-0.087,0.061,-1.434,0.549,66.667,840863.000,1.000
2.515,4.477,-1.972,1.139,5.798,5.424,-1.168,-0.366,0.015,0.987,-0.090,0.214,-1.465,0.549,66.667,840864.000,1.000
-3.474,0.320,-7.054,-3.601,1.242,2.632,-6.305,-4.268,0.015,0.988,-0.090,0.031,-1.465,0.549,66.667,840865.000,1.000
-8.192,-2.870,-10.892,-7.459,-2.055,0.629,-10.096,-7.048,0.014,0.988,-0.090,0.000,-1.434,0.702,66.667,840866.000,1.000
-10.991,-4.460,-12.679,-9.183,-2.712,0.619,-10.652,-7.095,0.015,0.987,-0.088,-0.061,-1.465,0.732,66.667,840867.000,1.000
-11.811,-4.430,-12.391,-8.421,-0.587,2.832,-7.381,-3.899,0.014,0.985,-0.088,-0.092,-1.343,0.916,66.667,840868.000,1.000
-11.193,-3.393,-10.756,-5.992,3.104,6.061,-1.788,1.380,0.014,0.986,-0.091,-0.122,-1.404,1.099,66.667,840869.000,1.000
-9.853,-1.925,-8.620,-3.191,6.789,8.795,3.780,6.754,0.013,0.990,-0.089,-0.244,-1.434,1.160,66.667,840870.000,1.000
-8.273,-0.104,-6.428,-0.894,9.594,10.562,7.936,10.808,0.011,0.991,-0.088,-0.305,-1.434,1.099,66.667,840871.000,1.000
-6.853,2.031,-4.534,0.553,11.285,11.766,10.359,12.939,0.012,0.990,-0.088,-0.427,-1.343,1.282,66.667,840872.000,1.000
-6.170,3.915,-3.647,0.972,11.646,12.608,10.874,12.733,0.011,0.991,-0.089,-0.610,-1.282,1.251,66.667,840873.000,1.000
-6.713,4.693,-4.507,0.343,10.473,12.726,9.405,10.084,0.011,0.989,-0.085,-0.732,-1.312,1.282,66.667,840874.000,1.000
-8.418,3.853,-7.212,-0.981,7.971,11.672,6.505,5.806,0.010,0.988,-0.084,-0.854,-1.373,1.373,66.667,840875.000,1.000
-10.735,1.333,-11.165,-2.508,4.612,9.111,3.114,1.327,0.011,0.988,-0.085,-0.977,-1.434,1.343,66.667,840876.000,1.000
-13.016,-2.603,-15.460,-3.935,0.801,4.795,-0.003,-2.134,0.012,0.986,-0.088,-1.007,-1.404,1.312,66.667,840877.000,1.000
-14.689,-7.272,-19.140,-5.134,-3.115,-1.077,-2.572,-4.066,0.012,0.985,-0.084,-1.068,-1.465,1.404,66.667,840878.000,1.000
-15.416,-11.676,-21.520,-6.095,-6.867,-7.620,-5.191,-5.083,0.012,0.987,-0.084,-1.190,-1.343,1.312,66.667,840879.000,1.000
-15.263,-14.896,-22.483,-6.915,-10.278,-13.452,-8.833,-6.596,0.013,0.984,-0.085,-1.190,-1.312,1.343,66.667,840880.000,1.000
-14.672,-16.406,-22.398,-7.637,-13.025,-17.238,-13.505,-9.422,0.014,0.984,-0.089,-1.221,-1.373,1.404,66.667,840881.000,1.000
-14.273,-16.302,-21.830,-8.203,-14.657,-18.490,-17.913,-12.950,0.014,0.983,-0.087,-1.221,-1.343,1.434,66.667,840882.000,1.000
-14.649,-15.287,-21.311,-8.587,-14.930,-17.782,-20.491,-15.722,0.015,0.981,-0.088,-1.221,-1.343,1.404,66.667,840883.000,1.000
-16.061,-14.316,-21.236,-8.900,-14.009,-16.149,-20.458,-16.479,0.015,0.982,-0.089,-1.099,-1.282,1.282,66.667,840884.000,1.000
-18.400,-14.190,-21.879,-9.386,-12.495,-14.600,-18.272,-14.928,0.015,0.981,-0.089,-1.129,-1.221,1.251,66.667,840885.000,1.000
-21.253,-15.261,-23.312,-10.304,-11.253,-13.968,-15.346,-11.998,0.014,0.981,-0.087,-0.977,-1.282,1.190,66.667,840886.000,1.000
-23.935,-17.228,-25.192,-11.686,-10.926,-14.482,-13.053,-9.438,0.015,0.981,-0.087,-1.007,-1.099,1.190,66.667,840887.000,1.000
-25.575,-19.141,-26.692,-13.148,-11.403,-15.253,-11.565,-8.585,0.014,0.980,-0.084,-0.854,-1.129,1.190,66.667,840888.000,1.000
-25.462,-19.835,-26.902,-14.018,-11.886,-14.825,-9.886,-9.266,0.011,0.982,-0.085,-0.732,-1.251,1.160,66.667,840889.000,1.000
-23.548,-18.770,-25.533,-13.871,-11.723,-12.857,-7.546,-10.317,0.012,0.983,-0.084,-0.702,-1.282,1.099,66.667,840890.000,1.000
-20.620,-16.488,-23.193,-12.897,-10.927,-10.631,-5.457,-10.846,0.014,0.982,-0.086,-0.610,-1.282,0.977,66.667,840891.000,1.000
-17.787,-14.044,-20.810,-11.570,-9.678,-9.315,-4.243,-10.343,0.014,0.983,-0.086,-0.519,-1.099,0.946,66.667,840892.000,1.000
-15.703,-12.048,-18.866,-10.150,-7.806,-8.525,-2.899,-8.258,0.015,0.984,-0.085,-0.458,-1.099,0.854,66.667,840893.000,1.000
-14.378,-10.435,-17.288,-8.696,-5.153,-7.253,-0.275,-4.484,0.014,0.985,-0.085,-0.458,-1.129,0.854,66.667,840894.000,1.000
-13.566,-8.990,-15.911,-7.400,-2.167,-5.508,3.083,0.003,0.015,0.984,-0.084,-0.366,-1.190,0.793,66.667,840895.000,1.000
-13.169,-7.812,-14.819,-6.602,0.298,-4.233,5.596,3.707,0.013,0.983,-0.084,-0.397,-1.099,0.793,66.667,840896.000,1.000
-13.338,-7.251,-14.314,-6.551,1.606,-4.043,6.286,5.618,0.011,0.981,-0.083,-0.397,-1.221,0.824,66.667,840897.000,1.000
-14.199,-7.524,-14.618,-7.178,1.623,-4.745,5.137,5.566,0.012,0.983,-0.084,-0.366,-1.251,0.732,66.667,840898.000,1.000
-15.369,-8.309,-15.491,-7.986,0.766,-5.622,2.907,4.236,0.013,0.985,-0.086,-0.336,-1.221,0.671,66.667,840899.000,1.000
-15.935,-8.814,-16.201,-8.272,-0.175,-5.852,0.977,2.800,0.011,0.984,-0.086,-0.336,-1.190,0.824,66.667,840900.000,1.000
-15.081,-8.380,-16.017,-7.678,-0.594,-5.163,0.418,2.002,0.013,0.984,-0.083,-0.305,-1.251,0.763,66.667,840901.000,1.000
-12.724,-7.010,-14.747,-6.498,-0.520,-4.176,1.001,1.586,0.011,0.984,-0.083,-0.183,-1.282,0.854,66.667,840902.000,1.000
-9.711,-5.401,-12.946,-5.496,-0.456,-3.785,1.608,0.817,0.011,0.983,-0.082,-0.214,-1.373,0.824,66.667,840903.000,1.000
-7.459,-4.530,-11.616,-5.409,-0.860,-4.194,1.549,-0.624,0.010,0.984,-0.082,-0.275,-1.404,0.824,66.667,840904.000,1.000
-7.156,-5.090,-11.567,-6.489,-1.825,-4.759,1.011,-2.490,0.010,0.985,-0.081,-0.214,-1.434,0.763,66.667,840905.000,1.000
-9.060,-7.218,-12.970,-8.407,-3.209,-4.884,0.273,-4.407,0.013,0.983,-0.081,-0.305,-1.343,0.763,66.667,840906.000,1.000
-12.422,-10.648,-15.446,-10.541,-4.980,-5.118,-0.988,-6.119,0.012,0.984,-0.084,-0.366,-1.221,0.793,66.667,840907.000,1.000
-15.950,-14.860,-18.368,-12.365,-7.246,-6.925,-3.257,-7.416,0.013,0.982,-0.084,-0.366,-1.251,0.763,66.667,840908.000,1.000
-18.373,-18.999,-20.988,-13.551,-9.820,-10.970,-6.160,-8.035,0.011,0.982,-0.085,-0.244,-1.312,0.793,66.667,840909.000,1.000
-18.901,-21.947,-22.551,-13.927,-12.008,-15.939,-8.333,-7.786,0.013,0.983,-0.081,-0.244,-1.434,0.885,66.667,840910.000,1.000
-17.549,-22.819,-22.648,-13.583,-13.093,-19.326,-8.675,-6.877,0.013,0.982,-0.081,-0.183,-1.404,1.038,66.667,840911.000,1.000
-15.155,-21.516,-21.526,-12.969,-12.976,-19.373,-7.546,-5.994,0.012,0.982,-0.081,-0.214,-1.373,1.068,66.667,840912.000,1.000
-12.886,-18.723,-19.871,-12.585,-12.154,-16.264,-6.397,-5.827,0.011,0.984,-0.081,-0.153,-1.343,1.099,66.667,840913.000,1.000
-11.538,-15.463,-18.310,-12.573,-11.233,-11.768,-6.375,-6.505,0.013,0.986,-0.083,-0.244,-1.282,1.221,66.667,840914.000,1.000
-11.240,-12.729,-17.196,-12.756,-10.656,-8.026,-7.415,-7.545,0.012,0.986,-0.082,-0.275,-1.221,1.221,66.667,840915.000,1.000
-11.585,-11.150,-16.581,-12.898,-10.581,-6.293,-8.372,-8.266,0.013,0.987,-0.082,-0.214,-1.282,1.282,66.667,840916.000,1.000
-11.977,-10.729,-16.234,-12.824,-10.815,-6.447,-7.993,-8.228,0.012,0.987,-0.082,-0.214,-1.343,1.282,66.667,840917.000,1.000
-11.965,-10.918,-15.787,-12.406,-10.933,-7.468,-5.888,-7.350,0.012,0.986,-0.082,-0.275,-1.251,1.373,66.667,840918.000,1.000
-11.361,-10.954,-14.925,-11.556,-10.522,-8.173,-2.669,-5.852,0.013,0.984,-0.080,-0.366,-1.221,1.465,66.667,840919.000,1.000
-10.282,-10.359,-13.634,-10.375,-9.566,-7.968,0.314,-4.430,0.014,0.982,-0.080,-0.244,-1.160,1.465,66.667,840920.000,1.000
-9.029,-9.187,-12.238,-9.149,-8.512,-7.206,1.520,-4.018,0.014,0.982,-0.080,-0.305,-1.190,1.526,66.667,840921.000,1.000
-7.705,-7.616,-10.884,-7.968,-7.634,-6.400,0.466,-4.807,0.015,0.981,-0.081,-0.305,-1.129,1.556,66.667,840922.000,1.000
-6.187,-5.692,-9.259,-6.687,-6.737,-5.476,-1.842,-6.020,0.016,0.981,-0.079,-0.397,-0.946,1.556,66.667,840923.000,1.000
-4.645,-3.714,-7.105,-5.428,-5.738,-4.368,-4.058,-6.855,0.014,0.982,-0.080,-0.366,-0.977,1.526,66.667,840924.000,1.000
-3.642,-2.298,-4.683,-4.642,-4.955,-3.643,-5.331,-7.005,0.015,0.982,-0.080,-0.336,-1.038,1.617,66.667,840925.000,1.000
-3.445,-1.717,-2.408,-4.475,-4.478,-3.729,-4.948,-6.241,0.014,0.984,-0.081,-0.244,-0.916,1.495,66.667,840926.000,1.000
-3.551,-1.505,-0.370,-4.473,-3.798,-4.083,-2.200,-4.271,0.016,0.984,-0.084,-0.275,-0.916,1.495,66.667,840927.000,1.000
-3.071,-0.984,1.484,-4.081,-2.454,-3.888,2.437,-1.414,0.016,0.984,-0.082,-0.366,-0.793,1.556,66.667,840928.000,1.000
-1.371,0.155,3.054,-3.118,-0.628,-2.988,6.587,1.189,0.018,0.985,-0.080,-0.305,-0.793,1.495,66.667,840929.000,1.000
1.568,1.805,4.151,-1.701,1.150,-1.607,7.763,2.545,0.017,0.986,-0.083,-0.397,-0.763,1.526,66.667,840930.000,1.000
5.069,3.586,4.634,-0.113,2.445,0.125,5.516,2.527,0.016,0.984,-0.083,-0.488,-0.702,1.495,66.667,840931.000,1.000
8.108,5.032,4.476,1.267,3.041,1.983,1.344,1.552,0.018,0.985,-0.084,-0.458,-0.641,1.404,66.667,840932.000,1.000
9.987,5.922,3.908,2.208,3.069,3.558,-2.587,0.187,0.017,0.985,-0.082,-0.427,-0.610,1.434,66.667,840933.000,1.000
10.749,6.526,3.466,2.849,3.105,4.643,-4.375,-0.875,0.017,0.984,-0.081,-0.488,-0.519,1.312,66.667,840934.000,1.000
11.051,7.443,3.795,3.624,3.909,5.491,-2.997,-0.891,0.016,0.984,-0.082,-0.458,-0.458,1.282,66.667,840935.000,1.000
11.765,9.199,5.358,4.966,5.975,6.667,1.306,0.672,0.017,0.986,-0.082,-0.427,-0.458,1.343,66.667,840936.000,1.000
13.504,11.886,8.175,7.011,9.146,8.567,7.040,3.843,0.016,0.987,-0.084,-0.397,-0.366,1.312,66.667,840937.000,1.000
16.242,15.054,11.681,9.454,12.630,11.112,12.308,8.045,0.018,0.989,-0.083,-0.458,-0.275,1.343,66.667,840938.000,1.000
19.318,17.955,14.926,11.679,15.526,13.981,16.086,12.285,0.019,0.988,-0.084,-0.488,-0.244,1.251,66.667,840939.000,1.000
21.789,19.873,16.963,12.994,17.261,16.719,18.313,15.260,0.019,0.990,-0.081,-0.549,-0.092,1.190,66.667,840940.000,1.000
22.901,20.317,17.213,12.911,17.621,18.467,18.872,15.691,0.018,0.987,-0.078,-0.641,-0.122,1.099,66.667,840941.000,1.000
22.512,19.235,15.779,11.567,16.798,18.212,17.555,13.323,0.017,0.988,-0.080,-0.641,-0.031,1.160,66.667,840942.000,1.000
21.199,17.219,13.485,9.866,15.515,15.771,15.087,9.551,0.016,0.987,-0.084,-0.641,0.031,1.099,66.667,840943.000,1.000
19.813,15.235,11.326,8.912,14.676,12.219,13.168,6.624,0.017,0.986,-0.087,-0.671,0.061,1.251,66.667,840944.000,1.000
18.872,14.007,9.762,9.170,14.617,9.021,13.052,6.030,0.017,0.986,-0.084,-0.732,0.000,1.221,66.667,840945.000,1.000
18.404,13.732,8.577,10.169,14.834,7.047,14.403,7.465,0.016,0.986,-0.082,-0.671,-0.031,1.068,66.667,840946.000,1.000
18.150,14.159,7.206,10.894,14.416,6.281,15.577,9.152,0.016,0.986,-0.080,-0.641,-0.061,1.129,66.667,840947.000,1.000
17.726,14.659,5.069,10.457,12.690,5.866,14.701,9.303,0.016,0.986,-0.081,-0.610,-0.031,1.160,66.667,840948.000,1.000
16.868,14.539,1.977,8.665,9.744,4.757,10.995,7.453,0.015,0.985,-0.083,-0.580,-0.092,1.129,66.667,840949.000,1.000
15.592,13.527,-1.595,6.134,6.491,2.805,5.546,4.476,0.014,0.983,-0.084,-0.580,-0.031,1.068,66.667,840950.000,1.000
14.068,11.944,-4.729,3.865,4.104,1.050,0.744,1.751,0.014,0.983,-0.082,-0.488,0.031,1.160,66.667,840951.000,1.000
12.466,10.424,-6.594,2.750,3.366,0.832,-1.109,0.602,0.014,0.983,-0.083,-0.519,0.000,1.221,66.667,840952.000,1.000
10.877,9.381,-6.991,3.169,4.296,2.504,0.775,1.754,0.014,0.985,-0.082,-0.519,-0.031,1.190,66.667,840953.000,1.000
9.238,8.704,-6.506,4.778,6.199,5.020,5.080,4.832,0.015,0.988,-0.080,-0.488,-0.092,1.099,66.667,840954.000,1.000
7.399,8.015,-6.085,6.692,8.114,6.850,9.383,8.670,0.014,0.989,-0.078,-0.519,-0.031,1.160,66.667,840955.000,1.000
5.243,7.035,-6.470,7.924,9.262,7.082,11.778,12.133,0.013,0.990,-0.081,-0.549,-0.122,1.251,66.667,840956.000,1.000
2.730,5.639,-7.935,7.798,9.220,5.784,11.723,14.571,0.013,0.992,-0.084,-0.549,-0.214,1.190,66.667,840957.000,1.000
-0.001,3.869,-10.243,6.206,7.943,3.758,9.876,15.666,0.013,0.991,-0.083,-0.488,-0.275,1.190,66.667,840958.000,1.000
-2.496,2.076,-12.651,3.653,5.803,2.081,7.439,15.189,0.013,0.990,-0.080,-0.519,-0.275,1.221,66.667,840959.000,1.000
-4.025,0.855,-14.107,1.092,3.507,1.526,5.537,13.261,0.013,0.991,-0.080,-0.580,-0.275,1.221,66.667,840960.000,1.000
-3.964,0.619,-13.794,-0.467,1.766,1.986,4.707,10.693,0.014,0.991,-0.082,-0.488,-0.366,1.221,66.667,840961.000,1.000
-2.381,1.138,-11.777,-0.541,0.821,2.477,4.645,8.503,0.014,0.990,-0.082,-0.519,-0.366,1.251,66.667,840962.000,1.000
-0.212,1.639,-9.052,0.539,0.368,2.082,4.616,7.039,0.014,0.988,-0.083,-0.610,-0.397,1.221,66.667,840963.000,1.000
1.533,1.619,-6.609,2.109,0.120,0.950,4.395,5.964,0.013,0.988,-0.080,-0.702,-0.458,1.129,66.667,840964.000,1.000
2.723,1.523,-4.473,3.894,0.382,0.228,4.777,5.151,0.013,0.988,-0.081,-0.641,-0.519,1.129,66.667,840965.000,1.000
4.035,2.415,-1.856,6.067,1.850,1.139,7.018,5.218,0.013,0.986,-0.081,-0.610,-0.519,1.099,66.667,840966.000,1.000
6.075,4.914,1.821,8.636,4.762,3.982,11.334,6.686,0.012,0.987,-0.082,-0.488,-0.580,1.068,66.667,840967.000,1.000
8.750,8.463,6.185,10.992,8.272,7.648,15.811,8.657,0.013,0.986,-0.082,-0.488,-0.580,1.129,66.667,840968.000,1.000
11.438,11.704,10.182,12.310,10.984,10.470,17.723,9.346,0.014,0.986,-0.084,-0.580,-0.580,1.007,66.667,840969.000,1.000
13.504,13.516,12.872,12.336,12.090,11.640,16.167,8.094,0.014,0.985,-0.084,-0.488,-0.610,1.068,66.667,840970.000,1.000
14.591,13.610,13.835,11.529,11.749,11.294,12.521,5.923,0.014,0.987,-0.088,-0.336,-0.610,1.068,66.667,840971.000,1.000
14.591,12.377,13.092,10.532,10.569,9.791,8.685,4.248,0.015,0.984,-0.088,-0.214,-0.702,1.068,66.667,840972.000,1.000
13.549,10.447,10.943,9.682,9.068,7.522,5.677,3.788,0.013,0.983,-0.085,-0.183,-0.824,0.977,66.667,840973.000,1.000
11.653,8.322,7.854,8.921,7.521,4.880,3.571,4.480,0.012,0.982,-0.085,-0.122,-0.824,1.007,66.667,840974.000,1.000
9.221,6.218,4.298,7.977,6.002,2.128,1.995,5.780,0.012,0.982,-0.085,-0.031,-0.793,1.068,66.667,840975.000,1.000
6.536,4.131,0.616,6.544,4.446,-0.447,0.526,6.879,0.012,0.980,-0.085,0.061,-0.793,1.129,66.667,840976.000,1.000
3.783,2.105,-2.910,4.486,2.807,-2.352,-0.975,7.049,0.013,0.978,-0.084,0.275,-0.763,1.099,66.667,840977.000,1.000
1.183,0.433,-5.900,2.025,1.250,-3.128,-2.171,6.125,0.014,0.980,-0.084,0.336,-0.824,1.099,66.667,840978.000,1.000
-0.977,-0.529,-7.987,-0.319,0.117,-2.725,-2.505,4.655,0.016,0.982,-0.086,0.427,-0.854,1.038,66.667,840979.000,1.000
-2.464,-0.658,-9.029,-1.992,-0.302,-1.332,-1.623,3.457,0.014,0.984,-0.086,0.519,-0.977,1.099,66.667,840980.000,1.000
-3.148,-0.129,-9.109,-2.642,0.086,1.023,0.480,3.026,0.012,0.984,-0.087,0.610,-0.977,1.190,66.667,840981.000,1.000
-3.052,0.682,-8.435,-2.234,1.078,4.151,3.368,3.304,0.012,0.987,-0.084,0.610,-1.038,1.129,66.667,840982.000,1.000
-2.298,1.408,-7.194,-0.975,2.290,7.205,6.349,4.080,0.012,0.987,-0.084,0.610,-1.007,1.129,66.667,840983.000,1.000
-0.948,1.988,-5.437,0.855,3.480,9.250,9.124,5.458,0.011,0.986,-0.083,0.519,-1.007,1.068,66.667,840984.000,1.000
0.816,2.544,-3.342,2.805,4.474,9.918,11.423,7.222,0.010,0.985,-0.087,0.488,-1.221,1.007,66.667,840985.000,1.000
2.432,2.992,-1.468,4.191,4.869,9.048,11.995,8.141,0.010,0.984,-0.087,0.549,-1.221,1.038,66.667,840986.000,1.000
3.304,3.203,-0.285,4.582,4.406,6.670,9.663,7.090,0.008,0.984,-0.089,0.641,-1.251,1.007,66.667,840987.000,1.000
3.378,3.390,0.348,4.219,3.418,3.565,5.116,4.363,0.010,0.985,-0.086,0.793,-1.343,0.916,66.667,840988.000,1.000
