EEG 1,EEG 2,EEG 3,EEG 4,EEG 5,EEG 6,EEG 7,EEG 8,Accelerometer X,Accelerometer Y,Accelerometer Z,Gyroscope X,Gyroscope Y,Gyroscope Z,Battery Level,Counter,Validation Indicator
7.032,17.492,15.785,13.193,10.404,3.990,6.311,5.769,-0.002,0.977,-0.117,0.336,-0.732,0.427,66.667,738721.000,1.000
9.408,18.218,16.010,12.989,10.521,5.627,5.971,5.642,-0.004,0.980,-0.118,0.336,-0.732,0.488,66.667,738722.000,1.000
12.651,19.728,17.367,13.207,11.499,8.293,5.937,5.621,-0.006,0.984,-0.115,0.305,-0.763,0.580,66.667,738723.000,1.000
15.747,21.177,18.873,13.516,12.818,11.328,6.847,5.971,-0.007,0.983,-0.115,0.427,-0.916,0.549,66.667,738724.000,1.000
17.484,21.277,19.263,13.455,13.577,13.410,7.973,6.474,-0.005,0.984,-0.109,0.275,-0.977,0.549,66.667,738725.000,1.000
17.189,19.246,17.921,12.814,13.250,13.392,8.135,6.857,-0.006,0.982,-0.111,0.244,-0.977,0.580,66.667,738726.000,1.000
15.107,15.449,15.300,11.777,12.076,11.245,7.095,7.204,-0.005,0.981,-0.112,0.183,-0.977,0.671,66.667,738727.000,1.000
12.191,11.181,12.437,10.658,10.741,8.172,5.905,7.814,-0.005,0.983,-0.115,0.153,-1.068,0.793,66.667,738728.000,1.000
9.503,7.708,10.075,9.503,9.690,5.609,5.906,8.693,-0.006,0.982,-0.115,0.153,-1.190,0.854,66.667,738729.000,1.000
7.542,5.321,8.146,7.944,8.693,4.069,7.434,9.321,-0.007,0.982,-0.114,0.122,-1.221,0.916,66.667,738730.000,1.000
6.028,3.316,6.025,5.533,7.128,3.056,9.500,9.054,-0.006,0.982,-0.114,0.061,-1.312,0.854,66.667,738731.000,1.000
4.332,0.818,3.173,2.241,4.654,1.923,10.519,7.626,-0.006,0.982,-0.113,-0.031,-1.434,0.916,66.667,738732.000,1.000
2.103,-2.348,-0.340,-1.374,1.590,0.574,9.282,5.201,-0.006,0.984,-0.115,-0.061,-1.465,1.007,66.667,738733.000,1.000
-0.382,-5.395,-3.713,-4.379,-1.169,-0.468,5.855,2.349,-0.004,0.982,-0.114,-0.153,-1.556,1.038,66.667,738734.000,1.000
-2.386,-7.038,-5.862,-5.923,-2.628,-0.485,1.775,0.045,-0.006,0.983,-0.113,-0.092,-1.617,1.038,66.667,738735.000,1.000
-3.250,-6.382,-6.145,-5.717,-2.299,0.893,-0.863,-0.809,-0.007,0.979,-0.114,-0.061,-1.648,1.099,66.667,738736.000,1.000
-2.974,-3.629,-4.880,-4.272,-0.634,3.227,-0.760,-0.038,-0.008,0.981,-0.114,-0.214,-1.678,1.190,66.667,738737.000,1.000
-2.368,-0.156,-3.269,-2.717,1.038,5.202,1.612,1.614,-0.005,0.981,-0.115,-0.153,-1.740,1.129,66.667,738738.000,1.000
-2.508,2.218,-2.717,-2.219,1.194,5.365,4.232,2.889,-0.005,0.982,-0.114,-0.183,-1.740,1.129,66.667,738739.000,1.000
-3.947,2.325,-3.978,-3.337,-0.924,3.181,4.902,2.713,-0.003,0.982,-0.115,-0.214,-1.831,1.190,66.667,738740.000,1.000
-6.420,0.173,-6.790,-5.754,-4.802,-0.641,2.692,0.802,-0.003,0.981,-0.115,-0.244,-1.831,1.251,66.667,738741.000,1.000
-9.080,-3.207,-10.060,-8.479,-8.940,-4.554,-1.411,-2.119,-0.001,0.980,-0.114,-0.183,-1.831,1.312,66.667,738742.000,1.000
-10.856,-6.240,-12.347,-10.306,-11.632,-6.878,-5.128,-4.717,0.000,0.981,-0.115,-0.214,-1.770,1.251,66.667,738743.000,1.000
-10.947,-7.544,-12.562,-10.453,-11.882,-6.597,-6.555,-5.938,-0.001,0.981,-0.115,-0.275,-1.770,1.404,66.667,738744.000,1.000
-9.351,-6.642,-10.595,-9.000,-9.890,-3.830,-5.373,-5.734,0.000,0.982,-0.112,-0.397,-1.617,1.404,66.667,738745.000,1.000
-6.958,-4.141,-7.376,-6.754,-6.744,0.414,-2.544,-4.870,0.000,0.981,-0.113,-0.336,-1.556,1.465,66.667,738746.000,1.000
-5.133,-1.321,-4.372,-4.760,-3.707,4.785,0.850,-4.122,-0.001,0.982,-0.115,-0.366,-1.526,1.495,66.667,738747.000,1.000
-5.054,0.449,-2.883,-3.855,-1.694,7.972,4.153,-3.746,0.001,0.980,-0.114,-0.427,-1.312,1.495,66.667,738748.000,1.000
-7.179,0.220,-3.556,-4.426,-1.155,8.949,6.698,-3.651,0.001,0.979,-0.114,-0.427,-1.343,1.434,66.667,738749.000,1.000
-11.093,-2.225,-6.251,-6.326,-2.164,7.395,7.470,-3.806,0.000,0.981,-0.114,-0.488,-1.251,1.495,66.667,738750.000,1.000
-15.649,-6.260,-10.134,-8.924,-4.381,4.102,5.876,-4.256,0.000,0.979,-0.113,-0.427,-1.129,1.526,66.667,738751.000,1.000
-19.404,-10.696,-13.982,-11.379,-7.137,0.620,2.443,-5.044,0.004,0.978,-0.114,-0.336,-1.038,1.404,66.667,738752.000,1.000
-21.350,-14.433,-16.792,-13.137,-9.804,-1.845,-1.791,-6.282,0.003,0.980,-0.113,-0.366,-1.007,1.434,66.667,738753.000,1.000
-21.468,-16.967,-18.284,-14.232,-12.056,-3.048,-5.821,-7.931,0.002,0.978,-0.118,-0.336,-0.946,1.343,66.667,738754.000,1.000
-20.561,-18.267,-18.814,-15.086,-13.735,-3.220,-8.511,-9.514,0.001,0.980,-0.118,-0.214,-0.824,1.434,66.667,738755.000,1.000
-19.593,-18.447,-18.879,-16.015,-14.666,-2.441,-8.845,-10.330,0.001,0.980,-0.116,-0.214,-0.732,1.282,66.667,738756.000,1.000
-19.200,-17.691,-18.775,-16.978,-14.750,-0.845,-6.718,-9.900,0.002,0.979,-0.115,-0.092,-0.610,1.251,66.667,738757.000,1.000
-19.501,-16.323,-18.541,-17.677,-14.117,0.917,-3.237,-8.270,0.000,0.979,-0.115,-0.061,-0.610,1.160,66.667,738758.000,1.000
-20.141,-14.781,-18.080,-17.820,-13.116,1.895,-0.041,-6.084,0.000,0.978,-0.113,-0.031,-0.549,1.251,66.667,738759.000,1.000
-20.584,-13.514,-17.364,-17.362,-12.222,1.493,1.643,-4.386,0.000,0.979,-0.112,0.061,-0.549,1.221,66.667,738760.000,1.000
-20.432,-12.869,-16.520,-16.527,-11.880,-0.311,1.386,-4.108,0.001,0.979,-0.113,0.092,-0.427,1.282,66.667,738761.000,1.000
-19.523,-12.970,-15.698,-15.615,-12.267,-3.055,-0.386,-5.457,0.002,0.977,-0.114,0.214,-0.458,1.129,66.667,738762.000,1.000
-17.774,-13.593,-14.801,-14.709,-13.025,-5.763,-2.509,-7.705,0.000,0.979,-0.115,0.305,-0.397,1.190,66.667,738763.000,1.000
-15.016,-14.148,-13.434,-13.589,-13.326,-7.182,-3.605,-9.641,-0.001,0.979,-0.118,0.336,-0.305,1.099,66.667,738764.000,1.000
-11.167,-13.994,-11.300,-12.044,-12.509,-6.647,-3.068,-10.460,-0.001,0.981,-0.114,0.305,-0.336,1.160,66.667,738765.000,1.000
-6.603,-12.935,-8.660,-10.222,-10.670,-4.717,-1.559,-10.220,-0.001,0.982,-0.112,0.336,-0.397,1.068,66.667,738766.000,1.000
-2.166,-11.347,-6.295,-8.560,-8.576,-2.678,-0.306,-9.539,0.000,0.981,-0.115,0.397,-0.275,1.007,66.667,738767.000,1.000
1.311,-9.801,-4.987,-7.381,-7.043,-1.471,0.003,-8.998,0.000,0.981,-0.115,0.305,-0.305,1.007,66.667,738768.000,1.000
3.444,-8.708,-5.013,-6.635,-6.434,-1.285,-0.444,-8.800,-0.001,0.981,-0.114,0.214,-0.183,1.068,66.667,738769.000,1.000
4.407,-8.264,-6.038,-6.074,-6.678,-1.951,-1.159,-8.859,-0.003,0.982,-0.111,0.275,-0.183,1.099,66.667,738770.000,1.000
4.818,-8.465,-7.353,-5.548,-7.512,-3.237,-1.934,-9.028,-0.001,0.982,-0.115,0.275,-0.275,1.221,66.667,738771.000,1.000
5.475,-8.986,-8.187,-4.996,-8.518,-4.697,-2.670,-9.065,-0.001,0.983,-0.115,0.244,-0.244,1.129,66.667,738772.000,1.000
7.033,-9.092,-7.910,-4.266,-9.042,-5.468,-3.000,-8.574,-0.002,0.982,-0.114,0.305,-0.305,1.068,66.667,738773.000,1.000
9.681,-7.918,-6.282,-3.189,-8.424,-4.531,-2.483,-7.398,-0.001,0.981,-0.115,0.214,-0.366,1.068,66.667,738774.000,1.000
13.039,-5.017,-3.643,-1.794,-6.472,-1.421,-1.186,-5.965,-0.002,0.982,-0.115,0.244,-0.427,0.977,66.667,738775.000,1.000
16.412,-0.707,-0.731,-0.291,-3.578,3.322,0.208,-4.851,-0.001,0.981,-0.114,0.275,-0.397,1.129,66.667,738776.000,1.000
19.131,4.050,1.738,1.079,-0.416,8.477,1.111,-4.200,-0.002,0.981,-0.115,0.183,-0.366,1.068,66.667,738777.000,1.000
20.676,7.994,3.251,2.046,2.273,12.728,1.475,-3.873,-0.002,0.983,-0.114,0.244,-0.458,1.068,66.667,738778.000,1.000
20.703,9.940,3.457,2.285,3.676,14.898,1.257,-3.934,-0.002,0.980,-0.115,0.244,-0.427,1.099,66.667,738779.000,1.000
19.251,9.301,2.307,1.632,3.165,14.076,-0.022,-4.617,-0.001,0.980,-0.113,0.244,-0.397,1.099,66.667,738780.000,1.000
17.032,6.665,0.359,0.448,0.915,10.195,-2.668,-5.816,-0.001,0.981,-0.114,0.336,-0.427,1.007,66.667,738781.000,1.000
15.263,3.704,-1.310,-0.422,-1.966,4.563,-6.034,-6.893,-0.002,0.980,-0.116,0.305,-0.458,1.007,66.667,738782.000,1.000
14.998,2.208,-1.695,-0.177,-4.059,-0.544,-8.747,-7.043,-0.003,0.978,-0.113,0.305,-0.549,0.977,66.667,738783.000,1.000
16.541,3.050,-0.355,1.504,-4.338,-2.994,-9.470,-5.674,-0.002,0.978,-0.113,0.488,-0.458,1.099,66.667,738784.000,1.000
19.332,5.831,2.461,4.389,-2.509,-1.877,-7.529,-2.650,-0.001,0.979,-0.113,0.488,-0.458,1.129,66.667,738785.000,1.000
22.326,9.210,5.960,7.822,0.922,1.886,-3.460,1.482,-0.003,0.979,-0.112,0.549,-0.519,1.068,66.667,738786.000,1.000
24.694,11.758,9.261,11.009,4.918,6.058,1.009,5.553,-0.002,0.979,-0.114,0.580,-0.549,1.099,66.667,738787.000,1.000
26.356,12.881,11.993,13.450,8.549,8.665,4.018,8.379,-0.002,0.980,-0.116,0.641,-0.671,1.160,66.667,738788.000,1.000
27.924,13.095,14.509,15.247,11.546,9.294,4.958,9.516,-0.003,0.979,-0.114,0.610,-0.641,1.190,66.667,738789.000,1.000
30.074,13.422,17.407,16.921,14.226,8.951,4.846,9.517,-0.002,0.979,-0.113,0.641,-0.671,1.129,66.667,738790.000,1.000
32.887,14.532,20.835,18.907,16.931,8.990,5.466,9.497,-0.002,0.979,-0.114,0.641,-0.641,1.190,66.667,738791.000,1.000
35.722,16.336,24.242,21.169,19.520,10.136,7.949,10.288,-0.003,0.979,-0.115,0.763,-0.793,1.099,66.667,738792.000,1.000
37.661,18.127,26.704,23.189,21.361,12.091,11.799,11.937,0.000,0.980,-0.113,0.793,-0.793,1.038,66.667,738793.000,1.000
38.054,19.061,27.496,24.294,21.854,13.947,15.320,13.930,-0.001,0.979,-0.114,0.702,-0.824,1.221,66.667,738794.000,1.000
36.694,18.642,26.486,23.952,20.839,14.981,16.808,15.420,0.000,0.980,-0.115,0.793,-0.916,1.221,66.667,738795.000,1.000
33.662,16.815,23.976,21.832,18.420,14.837,15.199,15.243,0.001,0.979,-0.115,0.732,-0.916,1.251,66.667,738796.000,1.000
29.140,13.769,20.307,17.853,14.677,13.250,10.360,12.476,0.000,0.979,-0.115,0.763,-0.824,1.343,66.667,738797.000,1.000
23.425,9.858,15.777,12.419,9.865,10.199,3.425,7.323,-0.001,0.978,-0.115,0.824,-0.763,1.434,66.667,738798.000,1.000
17.054,5.691,10.885,6.551,4.711,6.309,-3.372,1.299,0.000,0.977,-0.115,0.885,-0.793,1.404,66.667,738799.000,1.000
10.766,2.002,6.365,1.549,0.194,2.523,-7.859,-3.593,0.001,0.978,-0.118,0.854,-0.854,1.343,66.667,738800.000,1.000
5.245,-0.755,2.862,-1.631,-2.979,-0.623,-9.279,-6.029,0.001,0.978,-0.119,0.854,-0.824,1.404,66.667,738801.000,1.000
0.902,-2.560,0.677,-2.759,-4.603,-2.934,-8.458,-6.005,0.002,0.979,-0.115,0.946,-0.732,1.465,66.667,738802.000,1.000
-2.106,-3.609,-0.234,-2.275,-4.869,-4.119,-6.875,-4.537,0.001,0.980,-0.118,1.007,-0.763,1.434,66.667,738803.000,1.000
-3.840,-4.173,-0.215,-1.020,-4.257,-4.099,-5.658,-2.877,0.001,0.983,-0.120,1.007,-0.702,1.556,66.667,738804.000,1.000
-4.552,-4.574,0.233,0.145,-3.345,-3.323,-5.079,-1.780,0.001,0.984,-0.116,1.038,-0.671,1.495,66.667,738805.000,1.000
-4.475,-4.897,0.854,0.827,-2.353,-2.132,-4.636,-1.129,0.004,0.984,-0.116,1.038,-0.702,1.404,66.667,738806.000,1.000
-3.755,-4.847,1.773,1.239,-1.040,-0.403,-3.683,-0.221,0.000,0.983,-0.118,0.916,-0.732,1.373,66.667,738807.000,1.000
-2.711,-4.212,3.072,1.783,0.777,1.715,-2.143,1.457,0.000,0.982,-0.116,0.854,-0.702,1.373,66.667,738808.000,1.000
-1.967,-3.293,4.440,2.572,2.850,3.407,-0.465,3.793,-0.002,0.982,-0.117,0.732,-0.763,1.404,66.667,738809.000,1.000
-2.214,-2.775,5.279,3.312,4.611,3.790,0.932,6.196,-0.002,0.980,-0.120,0.732,-0.854,1.251,66.667,738810.000,1.000
-3.881,-3.389,4.984,3.384,5.381,2.423,1.689,7.713,-0.001,0.981,-0.116,0.763,-0.946,1.160,66.667,738811.000,1.000
-6.992,-5.579,3.239,2.176,4.624,-0.689,1.278,7.292,-0.002,0.981,-0.117,0.763,-0.885,0.946,66.667,738812.000,1.000
-11.166,-9.137,0.313,-0.396,2.380,-5.198,-0.697,4.628,-0.002,0.979,-0.120,0.732,-0.946,0.885,66.667,738813.000,1.000
-15.757,-13.216,-3.038,-3.771,-0.691,-10.448,-4.027,0.592,-0.001,0.979,-0.117,0.702,-1.007,0.763,66.667,738814.000,1.000
-20.073,-16.738,-6.046,-7.129,-3.813,-15.415,-7.893,-3.536,0.002,0.979,-0.116,0.732,-1.007,0.854,66.667,738815.000,1.000
-23.392,-18.727,-8.130,-9.710,-6.378,-18.737,-11.125,-6.907,0.002,0.977,-0.119,0.641,-1.007,0.885,66.667,738816.000,1.000
-25.007,-18.512,-8.831,-10.928,-7.843,-19.211,-12.539,-9.080,0.004,0.975,-0.119,0.549,-0.885,0.793,66.667,738817.000,1.000
-24.600,-16.028,-7.979,-10.609,-7.876,-16.673,-11.710,-9.938,0.006,0.974,-0.119,0.610,-0.885,0.854,66.667,738818.000,1.000
-22.589,-11.926,-5.922,-9.158,-6.686,-12.306,-9.563,-9.857,0.004,0.970,-0.120,0.671,-0.793,0.977,66.667,738819.000,1.000
-19.919,-7.202,-3.344,-7.307,-4.888,-7.831,-7.603,-9.407,0.003,0.971,-0.120,0.702,-0.793,0.916,66.667,738820.000,1.000
-17.540,-2.745,-0.881,-5.663,-3.018,-4.437,-6.547,-8.768,0.002,0.972,-0.118,0.793,-0.732,0.946,66.667,738821.000,1.000
-16.161,0.716,0.959,-4.590,-1.430,-2.521,-6.049,-7.781,0.001,0.976,-0.115,0.916,-0.732,1.007,66.667,738822.000,1.000
-16.199,2.523,1.698,-4.359,-0.478,-2.077,-5.563,-6.521,0.002,0.978,-0.118,0.793,-0.610,1.038,66.667,738823.000,1.000
-17.673,2.264,1.024,-5.158,-0.466,-2.922,-4.855,-5.434,-0.001,0.980,-0.119,0.671,-0.671,1.038,66.667,738824.000,1.000
-20.127,0.102,-0.911,-6.894,-1.398,-4.616,-3.920,-4.905,0.000,0.983,-0.121,0.580,-0.702,1.160,66.667,738825.000,1.000
-22.753,-3.239,-3.448,-9.119,-2.902,-6.478,-3.060,-4.916,0.000,0.986,-0.122,0.488,-0.610,1.221,66.667,738826.000,1.000
-24.787,-6.855,-5.778,-11.262,-4.421,-7.782,-2.829,-5.110,-0.002,0.985,-0.121,0.366,-0.702,1.282,66.667,738827.000,1.000
-25.933,-10.036,-7.371,-12.959,-5.451,-7.863,-3.345,-4.996,-0.003,0.984,-0.124,0.275,-0.732,1.343,66.667,738828.000,1.000
-26.547,-12.441,-8.218,-14.207,-5.796,-6.378,-3.929,-4.138,-0.004,0.984,-0.125,0.275,-0.824,1.404,66.667,738829.000,1.000
-27.435,-14.209,-8.811,-15.285,-5.798,-3.965,-3.839,-2.412,-0.004,0.984,-0.124,0.214,-0.885,1.373,66.667,738830.000,1.000
-29.355,-15.842,-9.808,-16.476,-6.119,-2.238,-3.085,-0.169,-0.004,0.988,-0.122,0.244,-0.916,1.465,66.667,738831.000,1.000
-32.560,-17.685,-11.528,-17.776,-7.036,-2.426,-2.020,2.078,-0.006,0.989,-0.122,0.092,-0.977,1.556,66.667,738832.000,1.000
-36.602,-19.491,-13.698,-18.854,-8.061,-4.164,-0.613,4.109,-0.006,0.990,-0.121,-0.061,-1.190,1.526,66.667,738833.000,1.000
-40.493,-20.575,-15.653,-19.333,-8.363,-5.916,1.183,5.886,-0.005,0.993,-0.119,-0.305,-1.312,1.434,66.667,738834.000,1.000
-43.253,-20.444,-16.829,-19.114,-7.540,-6.375,2.738,7.103,-0.004,0.992,-0.121,-0.488,-1.343,1.617,66.667,738835.000,1.000
-44.536,-19.308,-17.170,-18.504,-5.935,-5.366,3.206,7.328,-0.004,0.993,-0.119,-0.702,-1.495,1.495,66.667,738836.000,1.000
-44.685,-17.917,-17.056,-18.054,-4.341,-3.720,2.505,6.449,-0.002,0.992,-0.118,-1.007,-1.526,1.312,66.667,738837.000,1.000
-44.143,-16.893,-16.823,-18.128,-3.405,-2.456,1.387,4.750,-0.002,0.991,-0.118,-1.129,-1.678,1.434,66.667,738838.000,1.000
-42.998,-16.244,-16.392,-18.493,-3.133,-1.848,0.833,2.827,0.000,0.990,-0.117,-1.251,-1.648,1.465,66.667,738839.000,1.000
-41.120,-15.501,-15.422,-18.398,-2.950,-1.257,1.407,1.444,0.001,0.988,-0.115,-1.282,-1.770,1.373,66.667,738840.000,1.000
-38.577,-14.251,-13.794,-17.112,-2.235,0.093,2.881,1.136,0.003,0.988,-0.114,-1.373,-1.770,1.465,66.667,738841.000,1.000
-35.821,-12.489,-11.812,-14.453,-0.823,2.351,4.507,1.860,0.005,0.986,-0.118,-1.465,-1.770,1.495,66.667,738842.000,1.000
-33.496,-10.547,-9.993,-10.860,0.934,5.010,5.575,3.023,0.003,0.983,-0.117,-1.526,-1.709,1.556,66.667,738843.000,1.000
-32.123,-8.912,-8.794,-7.101,2.428,7.166,5.729,3.878,0.005,0.981,-0.116,-1.465,-1.709,1.495,66.667,738844.000,1.000
-31.893,-8.047,-8.489,-3.904,3.136,7.860,5.071,4.064,0.006,0.980,-0.115,-1.434,-1.587,1.434,66.667,738845.000,1.000
-32.531,-8.088,-9.052,-1.684,2.938,6.679,4.218,3.915,0.005,0.978,-0.117,-1.343,-1.587,1.526,66.667,738846.000,1.000
-33.306,-8.685,-10.074,-0.401,2.185,4.092,4.057,4.195,0.004,0.975,-0.115,-1.282,-1.434,1.373,66.667,738847.000,1.000
-33.361,-9.342,-11.000,0.260,1.307,0.990,4.915,5.362,0.004,0.975,-0.115,-1.160,-1.343,1.251,66.667,738848.000,1.000
-32.227,-9.909,-11.527,0.533,0.391,-1.874,6.080,7.081,0.003,0.973,-0.114,-1.007,-1.434,1.190,66.667,738849.000,1.000
-29.970,-10.487,-11.624,0.514,-0.629,-3.804,6.579,8.584,0.002,0.973,-0.117,-0.946,-1.404,1.129,66.667,738850.000,1.000
-26.912,-10.954,-11.190,0.418,-1.487,-4.020,6.200,9.337,0.003,0.972,-0.116,-0.824,-1.312,0.916,66.667,738851.000,1.000
-23.479,-10.923,-10.035,0.580,-1.752,-2.259,5.239,9.097,0.002,0.970,-0.114,-0.610,-1.221,0.854,66.667,738852.000,1.000
-20.158,-10.140,-8.157,1.219,-1.356,0.554,3.657,7.721,0.000,0.970,-0.114,-0.427,-1.160,0.702,66.667,738853.000,1.000
-17.278,-8.679,-5.811,2.340,-0.585,2.863,1.310,5.400,0.001,0.968,-0.114,-0.366,-1.129,0.641,66.667,738854.000,1.000
-14.881,-6.820,-3.360,3.793,0.359,3.778,-1.212,2.881,-0.001,0.970,-0.113,-0.183,-1.160,0.488,66.667,738855.000,1.000
-12.919,-5.000,-1.196,5.284,1.446,3.353,-2.921,1.039,0.001,0.969,-0.111,-0.031,-1.129,0.397,66.667,738856.000,1.000
-11.505,-3.855,0.211,6.370,2.482,1.803,-3.585,0.163,0.000,0.970,-0.110,0.244,-1.190,0.275,66.667,738857.000,1.000
-10.877,-4.068,0.335,6.578,2.980,-0.819,-3.980,-0.103,-0.002,0.972,-0.112,0.427,-1.160,0.244,66.667,738858.000,1.000
-11.139,-5.877,-1.098,5.666,2.549,-4.150,-4.886,-0.202,-0.004,0.973,-0.115,0.427,-1.190,0.214,66.667,738859.000,1.000
-12.053,-8.650,-3.773,3.754,1.277,-7.265,-6.275,-0.369,-0.005,0.973,-0.112,0.580,-1.190,0.275,66.667,738860.000,1.000
-13.133,-11.130,-6.912,1.176,-0.356,-9.189,-7.547,-0.739,-0.005,0.973,-0.114,0.610,-1.251,0.183,66.667,738861.000,1.000
-13.986,-12.218,-9.795,-1.741,-1.815,-9.450,-8.005,-1.258,-0.004,0.975,-0.113,0.793,-1.404,0.214,66.667,738862.000,1.000
-14.425,-11.465,-11.975,-4.651,-2.609,-8.084,-7.031,-1.470,-0.005,0.978,-0.115,0.885,-1.404,0.244,66.667,738863.000,1.000
-14.272,-8.985,-13.060,-7.051,-2.313,-5.495,-4.353,-0.772,-0.006,0.978,-0.114,0.946,-1.434,0.305,66.667,738864.000,1.000
-13.290,-5.262,-12.728,-8.463,-0.847,-2.404,-0.515,0.946,-0.006,0.977,-0.115,0.885,-1.465,0.305,66.667,738865.000,1.000
-11.337,-0.998,-10.977,-8.742,1.330,0.414,3.297,3.064,-0.004,0.977,-0.114,1.007,-1.556,0.397,66.667,738866.000,1.000
-8.507,3.096,-8.190,-8.115,3.454,2.471,6.119,4.665,-0.006,0.977,-0.115,0.916,-1.587,0.427,66.667,738867.000,1.000
-5.145,6.474,-4.968,-6.951,4.947,3.719,7.581,5.101,-0.006,0.980,-0.115,0.916,-1.709,0.458,66.667,738868.000,1.000
-1.810,8.817,-1.935,-5.558,5.725,4.448,7.771,4.306,-0.004,0.980,-0.115,0.946,-1.831,0.641,66.667,738869.000,1.000
0.848,9.978,0.355,-4.176,6.047,4.931,7.092,2.770,-0.004,0.981,-0.112,0.916,-1.770,0.824,66.667,738870.000,1.000
2.361,9.974,1.551,-3.016,6.135,5.143,6.024,1.184,-0.004,0.984,-0.115,0.916,-1.740,0.977,66.667,738871.000,1.000
2.668,8.986,1.612,-2.253,5.987,4.870,4.990,0.017,-0.006,0.983,-0.116,0.916,-1.801,1.129,66.667,738872.000,1.000
2.055,7.270,0.768,-2.017,5.449,3.944,4.455,-0.661,-0.004,0.984,-0.115,0.854,-1.862,1.160,66.667,738873.000,1.000
1.020,5.096,-0.614,-2.352,4.377,2.392,4.738,-1.097,-0.004,0.985,-0.116,0.916,-1.862,1.221,66.667,738874.000,1.000
0.166,2.795,-2.115,-3.110,2.817,0.605,5.565,-1.613,-0.005,0.985,-0.113,0.824,-1.923,1.282,66.667,738875.000,1.000
0.068,0.789,-3.301,-3.904,1.169,-0.645,6.216,-2.291,-0.003,0.987,-0.115,0.702,-1.923,1.343,66.667,738876.000,1.000
1.093,-0.511,-3.793,-4.272,0.010,-0.708,6.212,-2.926,-0.003,0.986,-0.116,0.641,-1.953,1.373,66.667,738877.000,1.000
3.324,-0.865,-3.367,-3.942,-0.383,0.224,5.459,-3.351,-0.003,0.988,-0.114,0.458,-1.923,1.465,66.667,738878.000,1.000
6.529,-0.283,-2.064,-2.950,-0.229,1.206,3.969,-3.565,-0.005,0.990,-0.115,0.488,-1.984,1.373,66.667,738879.000,1.000
10.151,0.961,-0.207,-1.582,0.049,1.396,1.925,-3.581,-0.002,0.988,-0.113,0.275,-1.923,1.465,66.667,738880.000,1.000
13.453,2.407,1.760,-0.180,0.177,0.628,-0.203,-3.451,-0.003,0.982,-0.111,0.153,-1.831,1.343,66.667,738881.000,1.000
15.794,3.615,3.466,1.044,0.104,-0.770,-1.935,-3.344,-0.002,0.982,-0.110,0.031,-1.892,1.373,66.667,738882.000,1.000
16.849,4.370,4.681,2.100,-0.046,-2.428,-3.038,-3.329,-0.001,0.976,-0.113,0.000,-1.892,1.343,66.667,738883.000,1.000
16.746,4.806,5.378,3.183,0.054,-4.002,-3.191,-3.114,0.002,0.971,-0.116,-0.061,-1.801,1.190,66.667,738884.000,1.000
16.104,5.405,5.822,4.572,0.849,-4.957,-1.807,-2.149,0.004,0.974,-0.119,0.061,-1.709,1.221,66.667,738885.000,1.000
15.738,6.680,6.410,6.416,2.497,-4.739,1.157,-0.166,0.003,0.975,-0.120,0.183,-1.495,1.190,66.667,738886.000,1.000
16.085,8.675,7.248,8.510,4.499,-3.275,4.481,2.326,0.003,0.977,-0.120,0.153,-1.434,1.190,66.667,738887.000,1.000
17.003,10.922,8.087,10.395,6.042,-0.995,6.520,4.299,0.003,0.977,-0.119,0.275,-1.282,1.312,66.667,738888.000,1.000
18.148,12.908,8.713,11.762,6.765,1.591,6.680,5.037,0.005,0.976,-0.121,0.366,-1.160,1.312,66.667,738889.000,1.000
19.331,14.389,9.213,12.658,6.933,3.978,5.549,4.528,0.005,0.976,-0.119,0.458,-1.007,1.312,66.667,738890.000,1.000
20.549,15.317,9.851,13.327,6.960,5.507,3.888,3.253,0.007,0.978,-0.119,0.519,-0.854,1.434,66.667,738891.000,1.000
21.897,15.764,10.836,13.980,7.040,5.741,2.182,1.866,0.005,0.979,-0.121,0.610,-0.671,1.434,66.667,738892.000,1.000
23.435,15.871,12.132,14.656,7.099,4.975,0.821,0.871,0.003,0.978,-0.116,0.671,-0.549,1.404,66.667,738893.000,1.000
24.924,15.620,13.267,15.117,6.757,3.849,-0.080,0.272,-0.001,0.979,-0.119,0.641,-0.488,1.465,66.667,738894.000,1.000
25.761,14.686,13.390,14.914,5.378,2.495,-1.051,-0.370,-0.006,0.979,-0.117,0.610,-0.427,1.221,66.667,738895.000,1.000
25.374,12.675,11.752,13.706,2.447,0.364,-2.871,-1.377,-0.008,0.978,-0.115,0.580,-0.488,1.038,66.667,738896.000,1.000
23.675,9.485,8.254,11.521,-2.030,-3.064,-5.781,-2.663,-0.007,0.978,-0.117,0.610,-0.671,0.916,66.667,738897.000,1.000
21.119,5.470,3.566,8.739,-7.459,-7.638,-9.532,-4.043,-0.007,0.976,-0.117,0.610,-0.793,0.885,66.667,738898.000,1.000
18.440,1.311,-1.183,5.912,-12.900,-12.622,-13.866,-5.512,-0.007,0.975,-0.117,0.641,-0.732,0.763,66.667,738899.000,1.000
16.358,-2.226,-4.841,3.620,-17.316,-17.019,-18.265,-7.044,-0.004,0.975,-0.121,0.610,-0.854,0.702,66.667,738900.000,1.000
15.309,-4.605,-6.691,2.284,-19.859,-19.776,-21.651,-8.346,-0.003,0.976,-0.118,0.702,-0.824,0.580,66.667,738901.000,1.000
15.199,-5.860,-6.839,1.876,-20.319,-20.277,-23.017,-9.164,-0.004,0.977,-0.120,0.916,-0.885,0.549,66.667,738902.000,1.000
15.562,-6.506,-6.020,1.923,-19.253,-18.776,-22.252,-9.642,-0.005,0.979,-0.119,0.916,-0.916,0.580,66.667,738903.000,1.000
16.066,-6.914,-4.871,1.921,-17.511,-16.136,-19.922,-10.005,-0.005,0.982,-0.118,1.007,-1.038,0.610,66.667,738904.000,1.000
16.679,-6.931,-3.560,1.682,-15.715,-13.241,-16.558,-10.077,-0.005,0.983,-0.119,0.854,-0.977,0.671,66.667,738905.000,1.000
17.420,-6.130,-1.998,1.325,-14.090,-10.667,-12.479,-9.344,-0.003,0.984,-0.119,0.824,-1.038,0.702,66.667,738906.000,1.000
18.215,-4.238,-0.121,1.116,-12.553,-8.702,-8.102,-7.373,-0.003,0.984,-0.119,0.732,-1.007,0.885,66.667,738907.000,1.000
18.964,-1.356,2.024,1.297,-10.900,-7.413,-4.075,-4.203,-0.002,0.984,-0.119,0.732,-1.068,1.068,66.667,738908.000,1.000
19.568,2.090,4.317,1.949,-8.972,-6.633,-0.942,-0.454,-0.003,0.983,-0.118,0.641,-0.977,1.221,66.667,738909.000,1.000
19.915,5.592,6.622,2.999,-6.765,-6.011,1.060,2.861,-0.003,0.984,-0.120,0.610,-1.068,1.373,66.667,738910.000,1.000
19.968,8.790,8.803,4.306,-4.418,-5.141,1.757,4.816,-0.002,0.983,-0.120,0.702,-1.190,1.465,66.667,738911.000,1.000
19.775,11.580,10.710,5.747,-2.047,-3.568,1.209,5.255,-0.003,0.982,-0.119,0.671,-1.129,1.556,66.667,738912.000,1.000
19.339,13.984,12.154,7.248,0.339,-0.964,0.005,4.948,-0.004,0.986,-0.119,0.580,-1.038,1.678,66.667,738913.000,1.000
18.519,15.856,12.849,8.673,2.639,2.325,-1.248,4.832,-0.006,0.985,-0.118,0.427,-1.007,1.587,66.667,738914.000,1.000
17.149,16.817,12.528,9.764,4.538,5.185,-2.450,5.270,-0.005,0.985,-0.119,0.427,-1.190,1.678,66.667,738915.000,1.000
15.260,16.597,11.262,10.313,5.776,6.581,-3.549,6.141,-0.003,0.984,-0.118,0.336,-1.221,1.770,66.667,738916.000,1.000
13.265,15.443,9.642,10.401,6.482,6.473,-4.017,7.294,-0.003,0.983,-0.117,0.397,-1.190,1.801,66.667,738917.000,1.000
11.871,14.139,8.554,10.426,7.163,5.867,-3.162,8.725,-0.002,0.980,-0.114,0.305,-1.160,1.648,66.667,738918.000,1.000
11.670,13.582,8.696,10.832,8.368,6.097,-0.704,10.471,0.000,0.982,-0.119,0.336,-1.129,1.556,66.667,738919.000,1.000
12.738,14.167,10.154,11.742,10.204,7.875,2.937,12.352,0.002,0.981,-0.116,0.397,-1.129,1.556,66.667,738920.000,1.000
14.649,15.495,12.321,12.816,12.119,10.572,6.531,13.810,0.001,0.980,-0.117,0.275,-1.099,1.587,66.667,738921.000,1.000
16.822,16.705,14.247,13.541,13.246,12.417,8.427,14.179,0.000,0.980,-0.119,0.244,-1.068,1.434,66.667,738922.000,1.000
18.847,17.140,15.208,13.679,13.088,11.817,7.479,13.203,0.001,0.980,-0.122,0.305,-1.007,1.312,66.667,738923.000,1.000
20.583,16.692,15.052,13.380,11.829,8.646,3.792,11.134,0.003,0.979,-0.120,0.397,-0.977,1.312,66.667,738924.000,1.000
22.050,15.681,14.143,12.961,10.072,4.281,-1.292,8.335,0.003,0.977,-0.119,0.366,-0.916,1.251,66.667,738925.000,1.000
23.340,14.558,13.128,12.741,8.508,0.614,-5.796,5.215,0.001,0.976,-0.120,0.427,-0.793,1.221,66.667,738926.000,1.000
24.579,13.741,12.688,12.971,7.700,-0.974,-7.922,2.473,0.001,0.976,-0.120,0.397,-0.610,1.190,66.667,738927.000,1.000
25.826,13.534,13.269,13.709,7.908,-0.104,-6.900,0.900,0.001,0.975,-0.120,0.427,-0.549,1.068,66.667,738928.000,1.000
26.909,13.944,14.765,14.709,8.972,2.605,-3.359,0.820,0.003,0.976,-0.117,0.488,-0.458,1.007,66.667,738929.000,1.000
27.461,14.557,16.474,15.478,10.381,5.792,0.953,1.853,0.001,0.977,-0.117,0.488,-0.488,0.946,66.667,738930.000,1.000
27.300,14.847,17.601,15.580,11.590,7.996,3.992,3.234,0.001,0.979,-0.119,0.549,-0.488,0.916,66.667,738931.000,1.000
26.641,14.674,17.855,14.949,12.358,8.559,4.698,4.373,0.001,0.979,-0.122,0.580,-0.488,0.854,66.667,738932.000,1.000
25.878,14.269,17.487,13.892,12.698,7.866,3.594,5.123,0.000,0.979,-0.119,0.458,-0.488,0.793,66.667,738933.000,1.000
25.346,13.828,16.906,12.849,12.576,6.692,2.007,5.658,-0.003,0.979,-0.121,0.549,-0.397,0.824,66.667,738934.000,1.000
25.354,13.425,16.434,12.204,11.878,5.580,0.886,6.208,-0.004,0.979,-0.120,0.488,-0.519,0.641,66.667,738935.000,1.000
26.103,13.169,16.236,12.164,10.669,4.747,0.487,6.842,-0.004,0.981,-0.119,0.458,-0.580,0.702,66.667,738936.000,1.000
27.322,13.101,16.158,12.593,9.242,4.151,0.670,7.378,-0.005,0.981,-0.119,0.458,-0.671,0.641,66.667,738937.000,1.000
28.219,13.025,15.733,12.952,7.859,3.493,0.965,7.470,-0.005,0.983,-0.117,0.397,-0.671,0.641,66.667,738938.000,1.000
28.023,12.703,14.581,12.662,6.652,2.437,0.792,6.909,-0.005,0.983,-0.115,0.427,-0.793,0.671,66.667,738939.000,1.000
26.599,12.250,12.878,11.652,5.831,1.129,0.148,5.970,-0.007,0.980,-0.117,0.366,-0.793,0.641,66.667,738940.000,1.000
24.577,12.218,11.388,10.509,5.819,0.425,-0.253,5.383,-0.009,0.982,-0.119,0.305,-0.885,0.641,66.667,738941.000,1.000
22.855,13.111,10.877,9.921,6.859,1.181,0.225,5.705,-0.008,0.984,-0.121,0.244,-0.916,0.763,66.667,738942.000,1.000
22.008,14.855,11.495,10.035,8.543,3.311,1.425,6.742,-0.008,0.982,-0.119,0.122,-0.977,0.793,66.667,738943.000,1.000
22.182,16.879,12.852,10.543,10.098,5.868,2.779,7.880,-0.006,0.981,-0.118,0.153,-1.038,0.793,66.667,738944.000,1.000
23.135,18.475,14.377,11.133,11.003,7.797,4.007,8.844,-0.008,0.979,-0.117,0.214,-1.221,0.763,66.667,738945.000,1.000
24.109,18.882,15.326,11.525,11.039,8.343,5.060,9.713,-0.007,0.981,-0.120,0.153,-1.343,0.885,66.667,738946.000,1.000
24.064,17.509,14.866,11.345,10.076,7.340,5.809,10.307,-0.006,0.979,-0.119,0.153,-1.373,0.946,66.667,738947.000,1.000
22.425,14.420,12.623,10.287,8.163,5.366,6.039,10.034,-0.006,0.980,-0.118,0.122,-1.465,1.007,66.667,738948.000,1.000
19.547,10.483,9.127,8.412,5.709,3.314,5.650,8.518,-0.006,0.979,-0.118,0.153,-1.495,0.977,66.667,738949.000,1.000
16.344,6.970,5.597,6.179,3.422,1.893,4.860,6.120,-0.007,0.980,-0.118,0.092,-1.556,0.977,66.667,738950.000,1.000
13.589,4.948,3.244,4.199,2.036,1.481,4.130,3.756,-0.006,0.980,-0.118,0.153,-1.556,1.038,66.667,738951.000,1.000
11.557,4.777,2.640,2.945,1.972,2.097,3.925,2.405,-0.004,0.979,-0.120,0.092,-1.709,1.099,66.667,738952.000,1.000
10.124,5.977,3.521,2.573,3.084,3.399,4.474,2.636,-0.004,0.980,-0.119,0.122,-1.740,1.129,66.667,738953.000,1.000
8.943,7.490,4.986,2.804,4.623,4.732,5.397,4.214,-0.004,0.980,-0.119,0.092,-1.740,1.068,66.667,738954.000,1.000
7.597,8.157,5.943,2.991,5.536,5.232,5.687,6.146,-0.005,0.979,-0.119,0.000,-1.678,1.221,66.667,738955.000,1.000
5.914,7.296,5.754,2.602,5.131,4.262,4.536,7.371,-0.004,0.979,-0.118,0.000,-1.709,1.190,66.667,738956.000,1.000
4.184,5.116,4.664,1.782,3.603,1.992,2.130,7.485,-0.003,0.981,-0.119,0.000,-1.617,1.312,66.667,738957.000,1.000
2.920,2.537,3.552,1.272,1.854,-0.639,-0.580,6.784,-0.002,0.981,-0.119,-0.031,-1.587,1.251,66.667,738958.000,1.000
2.416,0.508,3.169,1.719,0.763,-2.637,-2.622,5.807,0.000,0.983,-0.122,-0.092,-1.556,1.312,66.667,738959.000,1.000
2.613,-0.522,3.661,3.162,0.680,-3.531,-3.366,5.023,-0.001,0.983,-0.121,-0.153,-1.465,1.373,66.667,738960.000,1.000
3.307,-0.632,4.708,5.132,1.442,-3.360,-2.650,4.710,0.000,0.984,-0.122,-0.092,-1.434,1.343,66.667,738961.000,1.000
4.357,-0.235,5.871,7.009,2.559,-2.441,-1.019,4.790,0.002,0.983,-0.120,-0.153,-1.404,1.465,66.667,738962.000,1.000
5.675,0.176,6.722,8.268,3.429,-1.253,0.394,4.864,0.001,0.982,-0.120,-0.305,-1.251,1.526,66.667,738963.000,1.000
6.987,0.150,6.761,8.479,3.516,-0.381,0.708,4.454,0.000,0.979,-0.119,-0.336,-1.160,1.495,66.667,738964.000,1.000
7.683,-0.679,5.443,7.301,2.428,-0.278,-0.136,3.175,0.002,0.981,-0.119,-0.214,-1.068,1.587,66.667,738965.000,1.000
7.194,-2.417,2.580,4.715,0.101,-1.020,-1.682,0.978,0.002,0.979,-0.121,-0.305,-1.007,1.617,66.667,738966.000,1.000
5.561,-4.716,-1.272,1.276,-2.971,-2.495,-3.337,-1.502,0.000,0.979,-0.119,-0.244,-0.854,1.404,66.667,738967.000,1.000
3.461,-6.859,-4.975,-2.004,-5.775,-4.486,-4.458,-3.084,0.000,0.976,-0.119,-0.153,-0.793,1.465,66.667,738968.000,1.000
1.576,-8.210,-7.552,-4.254,-7.347,-6.420,-4.609,-3.025,0.000,0.978,-0.118,-0.122,-0.732,1.434,66.667,738969.000,1.000
-0.023,-8.714,-8.851,-5.370,-7.500,-7.633,-3.958,-1.811,0.000,0.979,-0.115,-0.122,-0.641,1.373,66.667,738970.000,1.000
-1.722,-8.802,-9.392,-5.944,-6.819,-7.915,-3.076,-0.568,0.001,0.980,-0.117,-0.122,-0.488,1.373,66.667,738971.000,1.000
-3.781,-8.829,-9.742,-6.638,-5.999,-7.420,-2.243,0.054,0.000,0.979,-0.120,-0.214,-0.366,1.312,66.667,738972.000,1.000
-6.159,-8.908,-10.238,-7.753,-5.451,-6.362,-1.305,0.110,0.001,0.981,-0.119,-0.183,-0.275,1.343,66.667,738973.000,1.000
-8.698,-9.134,-11.087,-9.272,-5.362,-5.015,-0.085,-0.119,0.000,0.978,-0.119,-0.153,-0.305,1.373,66.667,738974.000,1.000
-11.162,-9.602,-12.323,-11.024,-5.805,-3.691,1.390,-0.528,0.000,0.978,-0.117,-0.153,-0.244,1.312,66.667,738975.000,1.000
-13.122,-10.240,-13.676,-12.783,-6.745,-2.674,2.692,-1.284,0.002,0.979,-0.118,-0.031,-0.122,1.282,66.667,738976.000,1.000
-14.076,-10.781,-14.668,-14.306,-8.014,-2.192,2.946,-2.647,-0.001,0.979,-0.118,-0.153,-0.153,1.282,66.667,738977.000,1.000
-13.739,-10.899,-14.836,-15.315,-9.247,-2.234,1.484,-4.547,-0.001,0.981,-0.118,-0.092,-0.183,1.160,66.667,738978.000,1.000
-12.238,-10.338,-13.923,-15.518,-9.946,-2.455,-1.427,-6.375,-0.002,0.979,-0.118,0.031,-0.031,1.190,66.667,738979.000,1.000
-10.056,-8.974,-11.982,-14.744,-9.758,-2.454,-4.763,-7.369,-0.001,0.980,-0.117,0.000,-0.031,1.282,66.667,738980.000,1.000
-7.806,-6.847,-9.357,-13.062,-8.659,-2.089,-7.250,-7.158,-0.002,0.981,-0.117,-0.031,-0.092,1.251,66.667,738981.000,1.000
-5.963,-4.202,-6.533,-10.785,-6.920,-1.429,-7.671,-5.958,-0.003,0.982,-0.117,0.122,-0.092,1.251,66.667,738982.000,1.000
-4.627,-1.425,-3.867,-8.317,-4.950,-0.612,-5.502,-4.347,-0.004,0.983,-0.116,0.092,-0.153,1.251,66.667,738983.000,1.000
-3.534,1.097,-1.451,-5.954,-3.157,0.123,-1.659,-2.957,-0.004,0.982,-0.116,0.000,-0.122,1.312,66.667,738984.000,1.000
-2.290,3.141,0.820,-3.750,-1.803,0.592,1.927,-2.164,-0.003,0.982,-0.117,-0.031,-0.092,1.373,66.667,738985.000,1.000
-0.523,4.804,3.149,-1.500,-0.790,1.105,3.902,-1.830,-0.004,0.983,-0.118,-0.031,-0.031,1.526,66.667,738986.000,1.000
1.858,6.316,5.581,0.939,0.176,2.331,4.477,-1.497,-0.003,0.983,-0.118,-0.061,-0.122,1.526,66.667,738987.000,1.000
4.238,7.503,7.612,3.167,1.033,4.413,4.709,-0.905,-0.002,0.983,-0.117,-0.092,-0.275,1.404,66.667,738988.000,1.000
5.475,7.692,8.300,4.341,1.239,6.546,5.231,-0.155,-0.004,0.982,-0.116,-0.061,-0.275,1.495,66.667,738989.000,1.000
4.836,6.351,7.047,3.905,0.348,7.644,5.840,0.449,-0.003,0.982,-0.114,-0.031,-0.153,1.434,66.667,738990.000,1.000
2.571,3.611,4.104,2.024,-1.515,7.128,5.932,0.533,-0.002,0.982,-0.114,-0.031,-0.305,1.526,66.667,738991.000,1.000
-0.488,0.131,0.317,-0.706,-3.832,5.096,5.061,-0.217,-0.004,0.982,-0.118,-0.061,-0.427,1.556,66.667,738992.000,1.000
-3.462,-3.225,-3.300,-3.626,-6.005,2.252,3.214,-1.820,-0.003,0.981,-0.117,-0.214,-0.366,1.709,66.667,738993.000,1.000
-5.598,-5.598,-5.768,-6.062,-7.408,-0.268,1.000,-3.792,-0.003,0.979,-0.118,-0.092,-0.488,1.709,66.667,738994.000,1.000
-6.396,-6.454,-6.451,-7.409,-7.533,-1.560,-0.577,-5.293,-0.002,0.979,-0.117,0.031,-0.427,1.801,66.667,738995.000,1.000
-5.838,-5.856,-5.374,-7.383,-6.273,-1.585,-0.920,-5.622,-0.003,0.978,-0.117,-0.061,-0.488,1.709,66.667,738996.000,1.000
-4.358,-4.280,-3.117,-6.066,-3.859,-0.801,-0.080,-4.534,-0.003,0.979,-0.119,0.031,-0.519,1.678,66.667,738997.000,1.000
-2.569,-2.251,-0.473,-3.848,-0.656,0.562,1.639,-2.369,-0.001,0.979,-0.119,0.122,-0.610,1.648,66.667,738998.000,1.000
-1.100,-0.357,1.683,-1.488,2.666,2.287,3.593,-0.067,0.001,0.981,-0.117,0.214,-0.610,1.617,66.667,738999.000,1.000
-0.423,0.819,2.664,0.126,5.165,3.736,4.764,1.266,0.001,0.985,-0.117,0.244,-0.732,1.617,66.667,739000.000,1.000
-0.598,1.130,2.470,0.576,6.264,4.352,4.580,1.124,-0.002,0.982,-0.116,0.214,-0.671,1.617,66.667,739001.000,1.000
-1.255,0.969,1.820,0.162,6.074,4.136,3.407,-0.208,-0.002,0.980,-0.117,0.183,-0.763,1.495,66.667,739002.000,1.000
-1.829,0.870,1.610,-0.403,5.069,3.360,1.997,-2.016,-0.001,0.979,-0.119,0.092,-0.793,1.404,66.667,739003.000,1.000
-1.824,1.175,2.356,-0.451,3.776,2.331,1.027,-3.515,-0.002,0.981,-0.119,0.153,-0.916,1.343,66.667,739004.000,1.000
-1.136,1.867,3.888,0.242,2.638,1.475,1.080,-4.158,-0.001,0.981,-0.119,0.244,-0.977,1.251,66.667,739005.000,1.000
-0.271,2.500,5.366,1.252,1.825,1.211,2.399,-3.923,0.000,0.979,-0.116,0.244,-1.038,1.160,66.667,739006.000,1.000
-0.064,2.419,5.741,1.791,1.137,1.584,4.406,-3.272,0.001,0.980,-0.114,0.305,-0.977,1.038,66.667,739007.000,1.000
-0.981,1.251,4.471,1.365,0.257,2.168,5.808,-2.733,0.002,0.979,-0.117,0.244,-0.885,1.129,66.667,739008.000,1.000
-2.709,-0.728,1.931,0.204,-0.778,2.531,5.744,-2.405,0.002,0.977,-0.117,0.336,-0.946,1.129,66.667,739009.000,1.000
-4.395,-2.701,-0.814,-0.913,-1.434,2.791,4.791,-1.821,0.004,0.976,-0.115,0.366,-0.916,1.099,66.667,739010.000,1.000
-5.273,-3.926,-2.787,-1.318,-1.207,3.422,4.308,-0.584,0.005,0.973,-0.115,0.336,-0.824,1.038,66.667,739011.000,1.000
-5.251,-4.407,-3.858,-1.102,-0.361,4.390,4.752,0.727,0.002,0.972,-0.117,0.458,-0.763,1.129,66.667,739012.000,1.000
-4.952,-4.761,-4.640,-0.967,0.222,4.981,5.244,0.775,0.002,0.972,-0.114,0.519,-0.732,1.038,66.667,739013.000,1.000
-5.128,-5.353,-5.637,-1.425,0.028,4.675,4.874,-1.182,0.003,0.972,-0.116,0.641,-0.641,1.007,66.667,739014.000,1.000
-6.125,-5.913,-6.788,-2.399,-0.659,3.777,3.798,-4.598,0.001,0.976,-0.119,0.671,-0.610,1.038,66.667,739015.000,1.000
-7.842,-6.001,-7.775,-3.526,-1.207,3.100,2.926,-8.199,0.001,0.978,-0.117,0.671,-0.519,1.068,66.667,739016.000,1.000
-9.905,-5.438,-8.384,-4.520,-1.142,3.338,2.955,-10.796,0.002,0.979,-0.117,0.671,-0.519,1.160,66.667,739017.000,1.000
-11.724,-4.242,-8.455,-5.195,-0.227,4.748,3.889,-11.661,0.000,0.980,-0.120,0.641,-0.549,1.434,66.667,739018.000,1.000
-12.633,-2.490,-7.782,-5.356,1.600,7.191,5.413,-10.563,0.002,0.980,-0.122,0.580,-0.519,1.404,66.667,739019.000,1.000
-12.401,-0.472,-6.369,-4.894,4.090,10.258,7.216,-7.784,0.001,0.981,-0.122,0.641,-0.458,1.373,66.667,739020.000,1.000
-11.608,1.145,-4.751,-4.015,6.560,13.273,8.849,-4.110,-0.001,0.979,-0.123,0.610,-0.519,1.556,66.667,739021.000,1.000
-11.236,1.680,-3.760,-3.181,8.195,15.459,9.953,-0.552,0.000,0.979,-0.121,0.641,-0.519,1.556,66.667,739022.000,1.000
-11.808,1.063,-3.789,-2.710,8.683,16.518,10.801,2.154,0.002,0.980,-0.118,0.610,-0.519,1.526,66.667,739023.000,1.000
-13.085,-0.110,-4.494,-2.572,8.395,16.913,12.117,3.741,-0.002,0.982,-0.121,0.671,-0.580,1.495,66.667,739024.000,1.000
-14.509,-1.217,-5.305,-2.633,7.822,17.217,13.986,4.179,-0.003,0.984,-0.118,0.641,-0.610,1.526,66.667,739025.000,1.000
-15.696,-2.137,-5.990,-2.917,7.024,17.323,15.257,3.433,-0.004,0.987,-0.116,0.519,-0.671,1.526,66.667,739026.000,1.000
-16.619,-3.245,-6.729,-3.566,5.614,16.410,14.417,1.533,-0.005,0.988,-0.118,0.397,-0.793,1.343,66.667,739027.000,1.000
-17.541,-5.115,-7.884,-4.684,3.117,13.485,10.853,-1.253,-0.005,0.989,-0.119,0.183,-0.763,1.251,66.667,739028.000,1.000
-18.708,-8.053,-9.647,-6.192,-0.555,8.198,5.272,-4.362,-0.004,0.991,-0.118,-0.031,-0.885,1.190,66.667,739029.000,1.000
-19.977,-11.608,-11.686,-7.676,-4.734,1.544,-0.584,-6.953,-0.001,0.990,-0.118,-0.214,-0.946,1.221,66.667,739030.000,1.000
-20.821,-14.666,-13.219,-8.494,-8.210,-4.404,-4.708,-8.105,-0.001,0.991,-0.120,-0.397,-1.129,1.099,66.667,739031.000,1.000
-20.805,-16.207,-13.585,-8.215,-10.019,-7.749,-5.865,-7.381,0.001,0.992,-0.117,-0.671,-1.221,1.068,66.667,739032.000,1.000
-19.896,-15.871,-12.648,-6.919,-9.905,-7.732,-4.004,-5.168,0.001,0.989,-0.117,-0.885,-1.312,1.007,66.667,739033.000,1.000
-18.375,-13.938,-10.753,-5.054,-8.167,-4.817,-0.005,-2.380,0.001,0.988,-0.118,-0.977,-1.282,0.885,66.667,739034.000,1.000
-16.676,-11.117,-8.544,-3.204,-5.481,-0.484,4.375,-0.018,0.002,0.988,-0.116,-1.038,-1.373,0.854,66.667,739035.000,1.000
-15.199,-8.283,-6.706,-1.890,-2.746,3.310,7.035,1.127,0.003,0.986,-0.119,-1.190,-1.282,0.946,66.667,739036.000,1.000
-14.074,-6.088,-5.593,-1.334,-0.671,5.205,7.007,0.861,0.003,0.984,-0.118,-1.312,-1.251,1.099,66.667,739037.000,1.000
-13.164,-4.741,-5.091,-1.373,0.503,5.042,4.954,-0.325,0.004,0.983,-0.118,-1.312,-1.251,1.068,66.667,739038.000,1.000
-12.389,-4.210,-4.932,-1.717,0.787,3.358,2.093,-1.776,0.003,0.981,-0.119,-1.282,-1.343,1.007,66.667,739039.000,1.000
-11.844,-4.366,-4.967,-2.186,0.274,0.818,-0.685,-3.155,0.002,0.980,-0.116,-1.343,-1.343,0.946,66.667,739040.000,1.000
-11.496,-4.802,-4.958,-2.571,-0.613,-1.741,-2.744,-4.334,0.002,0.979,-0.116,-1.343,-1.190,0.885,66.667,739041.000,1.000
-11.054,-4.825,-4.428,-2.522,-1.031,-3.403,-3.541,-5.075,0.002,0.979,-0.114,-1.221,-1.312,0.946,66.667,739042.000,1.000
-10.248,-3.897,-2.956,-1.713,-0.133,-3.726,-2.842,-4.997,-0.001,0.978,-0.113,-1.190,-1.312,0.916,66.667,739043.000,1.000
-9.130,-2.101,-0.633,-0.113,2.323,-3.141,-1.052,-3.926,-0.002,0.976,-0.113,-1.129,-1.312,0.916,66.667,739044.000,1.000
-8.094,-0.161,1.828,1.905,5.731,-2.554,0.943,-2.241,-0.002,0.973,-0.113,-1.007,-1.221,0.854,66.667,739045.000,1.000
-7.507,1.127,3.620,3.816,9.132,-2.374,2.550,-0.534,-0.002,0.975,-0.116,-0.885,-1.343,0.763,66.667,739046.000,1.000
-7.357,1.456,4.429,5.293,11.854,-2.108,3.947,0.966,-0.003,0.975,-0.113,-0.732,-1.282,0.763,66.667,739047.000,1.000
-7.298,1.025,4.444,6.240,13.602,-1.035,5.505,2.341,-0.003,0.977,-0.113,-0.580,-1.312,0.793,66.667,739048.000,1.000
-7.039,0.163,3.956,6.564,14.149,0.883,6.994,3.465,-0.003,0.975,-0.112,-0.580,-1.373,0.732,66.667,739049.000,1.000
-6.624,-0.944,3.119,6.095,13.263,2.793,7.654,3.895,-0.005,0.974,-0.113,-0.366,-1.434,0.702,66.667,739050.000,1.000
-6.367,-2.202,2.072,4.826,11.039,3.650,7.028,3.342,-0.003,0.974,-0.112,-0.366,-1.465,0.671,66.667,739051.000,1.000
-6.616,-3.479,1.063,3.084,8.111,3.019,5.388,2.068,-0.003,0.973,-0.113,-0.244,-1.434,0.610,66.667,739052.000,1.000
-7.485,-4.652,0.364,1.376,5.348,1.199,3.283,0.729,-0.003,0.972,-0.113,-0.031,-1.495,0.580,66.667,739053.000,1.000
-8.651,-5.647,0.165,0.166,3.460,-1.113,1.208,-0.012,-0.004,0.971,-0.112,0.092,-1.617,0.580,66.667,739054.000,1.000
-9.419,-6.327,0.580,-0.238,2.810,-3.171,-0.290,0.113,-0.005,0.970,-0.113,0.305,-1.709,0.519,66.667,739055.000,1.000
-9.169,-6.499,1.560,0.177,3.281,-4.526,-0.717,0.785,-0.004,0.971,-0.113,0.488,-1.801,0.610,66.667,739056.000,1.000
-7.934,-6.251,2.705,0.966,4.182,-5.346,-0.159,1.295,-0.002,0.971,-0.114,0.610,-1.770,0.519,66.667,739057.000,1.000
-6.377,-6.043,3.398,1.411,4.557,-6.256,0.460,0.981,-0.002,0.972,-0.115,0.824,-1.770,0.671,66.667,739058.000,1.000
-5.107,-6.270,3.286,1.038,3.809,-7.702,-0.039,-0.404,-0.002,0.973,-0.114,1.038,-1.678,0.671,66.667,739059.000,1.000
-4.268,-6.924,2.494,-0.168,1.966,-9.657,-2.371,-2.698,-0.001,0.974,-0.113,1.068,-1.678,0.763,66.667,739060.000,1.000
-3.728,-7.724,1.378,-1.958,-0.533,-11.856,-6.527,-5.541,-0.002,0.976,-0.116,1.160,-1.770,0.763,66.667,739061.000,1.000
-3.421,-8.394,0.188,-4.000,-3.084,-13.953,-11.626,-8.437,-0.001,0.976,-0.117,1.251,-1.709,0.885,66.667,739062.000,1.000
-3.463,-8.776,-1.018,-5.907,-5.054,-15.486,-16.031,-10.745,-0.001,0.977,-0.116,1.282,-1.648,0.916,66.667,739063.000,1.000
-4.066,-8.785,-2.224,-7.270,-5.947,-15.915,-18.018,-11.781,0.000,0.979,-0.115,1.312,-1.556,0.977,66.667,739064.000,1.000
-5.371,-8.410,-3.368,-7.819,-5.628,-14.896,-16.750,-11.084,0.002,0.981,-0.117,1.404,-1.434,0.946,66.667,739065.000,1.000
-7.324,-7.840,-4.462,-7.566,-4.467,-12.617,-12.861,-8.773,0.001,0.982,-0.118,1.404,-1.434,1.038,66.667,739066.000,1.000
-9.715,-7.439,-5.659,-6.783,-3.196,-9.781,-8.013,-5.631,-0.001,0.982,-0.119,1.251,-1.434,1.068,66.667,739067.000,1.000
-12.331,-7.508,-7.123,-5.846,-2.527,-7.239,-3.763,-2.739,0.000,0.984,-0.119,1.221,-1.404,1.068,66.667,739068.000,1.000
-15.114,-8.220,-8.984,-5.195,-2.939,-5.758,-0.989,-1.015,0.000,0.986,-0.118,1.221,-1.373,1.068,66.667,739069.000,1.000
-18.179,-9.723,-11.353,-5.283,-4.682,-5.933,-0.204,-0.984,0.000,0.988,-0.119,1.068,-1.343,1.129,66.667,739070.000,1.000
-21.462,-11.959,-14.078,-6.284,-7.611,-7.873,-1.700,-2.661,-0.001,0.990,-0.119,0.916,-1.343,1.099,66.667,739071.000,1.000
-24.410,-14.407,-16.561,-7.898,-11.030,-10.919,-5.117,-5.611,-0.001,0.989,-0.121,0.763,-1.282,1.129,66.667,739072.000,1.000
-26.234,-16.306,-18.066,-9.597,-13.980,-13.888,-9.303,-9.163,-0.002,0.989,-0.119,0.732,-1.251,1.099,66.667,739073.000,1.000
-26.481,-17.102,-18.188,-10.958,-15.725,-15.661,-12.778,-12.477,-0.003,0.990,-0.117,0.458,-1.312,1.099,66.667,739074.000,1.000
-25.250,-16.559,-16.970,-11.702,-15.954,-15.593,-14.305,-14.559,-0.004,0.989,-0.117,0.153,-1.221,1.038,66.667,739075.000,1.000
-22.937,-14.652,-14.719,-11.645,-14.699,-13.583,-13.237,-14.642,-0.002,0.984,-0.114,0.000,-1.129,1.007,66.667,739076.000,1.000
-19.952,-11.543,-11.831,-10.744,-12.244,-10.072,-9.539,-12.696,-0.001,0.983,-0.115,-0.092,-1.160,1.099,66.667,739077.000,1.000
-16.569,-7.642,-8.695,-9.123,-9.079,-5.954,-3.847,-9.460,0.001,0.980,-0.117,-0.214,-1.038,0.977,66.667,739078.000,1.000
-12.939,-3.595,-5.632,-7.021,-5.801,-2.230,2.243,-6.105,0.002,0.979,-0.121,-0.153,-1.129,1.007,66.667,739079.000,1.000
-9.238,-0.084,-2.901,-4.786,-2.908,0.510,6.638,-3.705,0.000,0.980,-0.122,-0.183,-0.946,0.946,66.667,739080.000,1.000
-5.888,2.337,-0.775,-2.873,-0.648,2.284,8.162,-2.628,0.000,0.981,-0.121,-0.214,-0.824,1.099,66.667,739081.000,1.000
-3.568,3.268,0.367,-1.801,0.814,3.304,7.056,-2.540,0.001,0.980,-0.118,-0.305,-0.793,1.099,66.667,739082.000,1.000
-2.840,2.562,0.186,-1.936,1.258,3.617,4.190,-3.005,0.002,0.979,-0.117,-0.366,-0.732,1.160,66.667,739083.000,1.000
-3.653,0.582,-1.273,-3.157,0.649,3.330,0.581,-3.773,0.004,0.977,-0.119,-0.305,-0.641,1.129,66.667,739084.000,1.000
-5.174,-1.703,-3.372,-4.720,-0.611,2.813,-2.584,-4.547,0.005,0.976,-0.118,-0.183,-0.610,1.251,66.667,739085.000,1.000
-6.176,-3.148,-5.116,-5.568,-1.845,2.401,-4.338,-4.793,0.005,0.976,-0.120,-0.031,-0.519,1.373,66.667,739086.000,1.000
-5.812,-3.168,-5.771,-5.000,-2.579,2.116,-4.622,-4.061,0.001,0.978,-0.117,0.092,-0.397,1.526,66.667,739087.000,1.000
-4.071,-1.981,-5.281,-3.107,-2.776,1.878,-4.253,-2.462,-0.002,0.978,-0.114,0.122,-0.366,1.373,66.667,739088.000,1.000
-1.522,-0.137,-4.045,-0.584,-2.582,1.884,-3.862,-0.598,-0.006,0.978,-0.117,0.000,-0.458,1.251,66.667,739089.000,1.000
1.227,1.988,-2.386,1.852,-1.975,2.684,-3.064,0.996,-0.010,0.977,-0.121,-0.061,-0.397,1.129,66.667,739090.000,1.000
3.852,4.278,-0.305,3.886,-0.735,4.829,-1.073,2.147,-0.011,0.976,-0.115,-0.031,-0.488,1.068,66.667,739091.000,1.000
6.232,6.653,2.291,5.544,1.163,8.171,2.010,2.794,-0.011,0.976,-0.115,-0.031,-0.610,0.885,66.667,739092.000,1.000
8.162,8.836,5.226,6.834,3.238,11.450,4.911,2.762,-0.009,0.976,-0.117,-0.061,-0.702,0.793,66.667,739093.000,1.000
9.242,10.368,7.971,7.582,4.734,13.007,6.319,1.915,-0.008,0.978,-0.117,-0.061,-0.854,0.732,66.667,739094.000,1.000
9.129,10.807,9.880,7.548,5.102,11.932,5.837,0.240,-0.005,0.977,-0.116,-0.061,-0.824,0.610,66.667,739095.000,1.000
7.870,9.880,10.494,6.622,4.167,8.366,3.619,-2.376,-0.003,0.979,-0.118,0.092,-1.007,0.610,66.667,739096.000,1.000
6.030,7.671,9.849,5.041,2.137,3.205,-0.016,-5.927,-0.003,0.979,-0.119,0.183,-0.977,0.610,66.667,739097.000,1.000
4.471,4.802,8.575,3.412,-0.307,-2.028,-3.982,-9.661,-0.003,0.980,-0.117,0.305,-1.007,0.549,66.667,739098.000,1.000
3.928,2.202,7.508,2.341,-2.265,-5.681,-6.366,-12.253,-0.004,0.982,-0.119,0.244,-1.007,0.671,66.667,739099.000,1.000
4.613,0.464,7.048,1.911,-3.364,-7.090,-6.166,-12.976,-0.004,0.981,-0.118,0.122,-1.068,0.763,66.667,739100.000,1.000
6.138,-0.503,6.921,1.579,-4.101,-7.071,-4.671,-12.347,-0.003,0.981,-0.119,0.153,-1.129,0.854,66.667,739101.000,1.000
7.903,-1.109,6.595,0.683,-5.256,-7.011,-4.181,-11.489,-0.002,0.984,-0.120,0.061,-1.007,0.854,66.667,739102.000,1.000
9.561,-1.543,5.861,-0.964,-7.098,-7.697,-5.898,-11.216,-0.003,0.986,-0.115,-0.031,-1.038,0.885,66.667,739103.000,1.000
11.111,-1.622,5.037,-2.940,-9.138,-8.903,-9.186,-11.592,-0.003,0.984,-0.118,-0.031,-1.160,1.007,66.667,739104.000,1.000
12.648,-1.005,4.696,-4.492,-10.451,-9.758,-12.063,-11.853,-0.003,0.984,-0.120,0.092,-1.160,1.129,66.667,739105.000,1.000
14.016,0.372,5.052,-5.097,-10.388,-9.652,-12.615,-10.983,-0.002,0.983,-0.117,-0.031,-1.160,1.343,66.667,739106.000,1.000
14.653,2.015,5.548,-4.916,-9.121,-8.863,-10.470,-8.714,-0.004,0.984,-0.116,-0.092,-1.190,1.343,66.667,739107.000,1.000
13.945,3.158,5.237,-4.627,-7.395,-8.153,-6.941,-5.844,-0.005,0.983,-0.117,-0.061,-1.190,1.465,66.667,739108.000,1.000
11.755,3.301,3.556,-4.843,-5.913,-8.010,-3.805,-3.583,-0.007,0.982,-0.118,-0.153,-1.129,1.465,66.667,739109.000,1.000
8.641,2.548,0.785,-5.691,-4.922,-8.280,-1.926,-2.595,-0.005,0.982,-0.116,-0.153,-1.068,1.556,66.667,739110.000,1.000
5.709,1.638,-2.017,-6.680,-4.066,-8.221,-0.741,-2.423,-0.003,0.983,-0.120,-0.214,-1.129,1.495,66.667,739111.000,1.000
4.104,1.572,-3.604,-6.990,-2.650,-6.893,0.973,-1.901,-0.003,0.983,-0.120,-0.244,-1.160,1.495,66.667,739112.000,1.000
4.250,2.843,-3.425,-6.143,-0.391,-3.915,3.589,-0.368,-0.002,0.982,-0.120,-0.275,-1.190,1.495,66.667,739113.000,1.000
5.421,4.892,-2.081,-4.488,2.034,0.011,5.998,1.657,0.000,0.981,-0.116,-0.305,-1.190,1.495,66.667,739114.000,1.000
6.252,6.437,-0.833,-2.936,3.418,3.483,6.685,2.999,-0.002,0.980,-0.117,-0.275,-1.221,1.526,66.667,739115.000,1.000
5.787,6.472,-0.610,-2.228,3.029,5.529,5.197,2.730,-0.002,0.982,-0.121,-0.153,-1.099,1.526,66.667,739116.000,1.000
4.149,5.038,-1.379,-2.461,1.168,6.410,2.573,0.775,-0.001,0.979,-0.120,-0.214,-1.129,1.404,66.667,739117.000,1.000
2.330,3.130,-2.360,-3.174,-1.142,7.077,0.518,-1.868,0.000,0.980,-0.117,-0.244,-1.038,1.343,66.667,739118.000,1.000
1.363,1.785,-2.786,-3.821,-2.990,7.778,0.200,-3.709,0.001,0.979,-0.119,-0.275,-0.916,1.434,66.667,739119.000,1.000
1.701,1.383,-2.376,-4.099,-4.091,7.708,1.618,-3.809,0.002,0.980,-0.115,-0.214,-0.885,1.343,66.667,739120.000,1.000
3.326,1.852,-1.107,-3.832,-4.513,6.173,3.711,-2.258,0.002,0.979,-0.114,-0.183,-0.946,1.404,66.667,739121.000,1.000
5.963,3.038,0.990,-2.875,-4.322,3.535,5.092,0.138,0.001,0.978,-0.118,-0.092,-0.977,1.343,66.667,739122.000,1.000
9.053,4.582,3.600,-1.320,-3.648,0.942,4.974,2.311,0.000,0.979,-0.115,-0.153,-0.824,1.312,66.667,739123.000,1.000
11.911,5.842,6.115,0.455,-2.787,-0.549,3.388,3.346,0.000,0.978,-0.116,-0.092,-0.763,1.343,66.667,739124.000,1.000
13.997,6.231,7.978,2.013,-2.090,-0.632,0.760,2.835,0.000,0.979,-0.117,-0.122,-0.641,1.190,66.667,739125.000,1.000
15.058,5.570,8.918,3.096,-1.775,0.229,-2.255,1.094,-0.001,0.979,-0.116,-0.061,-0.641,1.190,66.667,739126.000,1.000
15.272,4.284,9.073,3.822,-1.720,1.452,-4.556,-0.798,-0.001,0.979,-0.116,-0.092,-0.641,1.251,66.667,739127.000,1.000
15.278,3.254,8.983,4.667,-1.444,2.877,-4.940,-1.439,-0.002,0.978,-0.112,-0.061,-0.702,1.038,66.667,739128.000,1.000
15.774,3.225,9.226,6.053,-0.495,4.597,-2.994,-0.029,-0.001,0.977,-0.115,-0.061,-0.641,1.129,66.667,739129.000,1.000
16.994,4.278,10.004,7.986,1.195,6.549,0.574,3.135,-0.001,0.979,-0.114,0.000,-0.702,0.977,66.667,739130.000,1.000
18.426,5.761,10.962,9.989,3.296,8.348,4.500,6.923,-0.003,0.978,-0.116,0.061,-0.671,0.854,66.667,739131.000,1.000
18.955,6.612,11.271,11.239,5.169,9.402,7.598,9.925,-0.001,0.979,-0.115,-0.031,-0.793,0.946,66.667,739132.000,1.000
17.637,6.017,10.169,11.001,6.129,9.305,9.047,11.028,-0.003,0.979,-0.114,0.000,-0.793,0.854,66.667,739133.000,1.000
14.551,3.991,7.607,9.187,5.829,8.161,8.494,9.894,-0.003,0.979,-0.113,0.153,-0.824,0.854,66.667,739134.000,1.000
10.778,1.289,4.277,6.399,4.370,6.332,6.066,7.004,-0.004,0.978,-0.114,0.153,-0.885,0.763,66.667,739135.000,1.000
7.576,-1.174,1.056,3.455,2.161,4.033,2.345,3.347,-0.004,0.978,-0.118,0.061,-0.916,0.824,66.667,739136.000,1.000
5.633,-2.845,-1.480,0.924,-0.328,1.353,-1.718,-0.109,-0.005,0.978,-0.119,0.122,-0.885,0.763,66.667,739137.000,1.000
4.880,-3.653,-3.227,-1.030,-2.761,-1.431,-5.137,-2.937,-0.005,0.979,-0.117,0.122,-0.946,0.824,66.667,739138.000,1.000
4.750,-3.794,-4.402,-2.499,-4.940,-3.675,-7.220,-5.188,-0.006,0.979,-0.115,0.244,-0.977,0.885,66.667,739139.000,1.000
4.536,-3.554,-5.374,-3.686,-6.759,-4.712,-7.777,-6.906,-0.006,0.980,-0.116,0.244,-1.099,0.854,66.667,739140.000,1.000
3.652,-3.425,-6.627,-4.886,-8.285,-4.522,-7.082,-8.008,-0.006,0.982,-0.120,0.366,-1.282,0.732,66.667,739141.000,1.000
1.758,-4.104,-8.624,-6.385,-9.746,-3.930,-5.574,-8.456,-0.007,0.981,-0.116,0.275,-1.343,0.610,66.667,739142.000,1.000
-1.148,-6.078,-11.475,-8.257,-11.322,-3.995,-3.906,-8.320,-0.007,0.981,-0.116,0.275,-1.312,0.763,66.667,739143.000,1.000
-4.685,-9.173,-14.739,-10.262,-12.975,-5.190,-3.110,-7.802,-0.007,0.981,-0.112,0.275,-1.343,0.854,66.667,739144.000,1.000
-8.156,-12.499,-17.605,-11.961,-14.382,-7.025,-3.987,-7.196,-0.005,0.982,-0.114,0.183,-1.434,0.824,66.667,739145.000,1.000
-10.888,-14.997,-19.347,-12.961,-15.116,-8.498,-6.416,-6.782,-0.007,0.982,-0.114,0.153,-1.465,0.885,66.667,739146.000,1.000
-12.574,-16.143,-19.700,-13.120,-15.004,-9.071,-9.504,-6.712,-0.007,0.983,-0.114,0.061,-1.556,0.916,66.667,739147.000,1.000
-13.200,-16.038,-18.805,-12.477,-14.163,-8.995,-12.057,-6.780,-0.006,0.984,-0.115,0.031,-1.526,1.007,66.667,739148.000,1.000
-12.929,-15.128,-17.090,-11.172,-12.788,-8.724,-12.950,-6.422,-0.005,0.983,-0.116,0.031,-1.587,1.007,66.667,739149.000,1.000
-12.262,-14.059,-15.324,-9.565,-11.131,-8.369,-11.638,-5.208,-0.004,0.984,-0.117,-0.031,-1.678,1.007,66.667,739150.000,1.000
-11.886,-13.392,-14.300,-8.127,-9.437,-7.663,-8.430,-3.153,-0.004,0.982,-0.117,-0.061,-1.617,1.099,66.667,739151.000,1.000
-12.156,-13.182,-14.254,-7.084,-7.774,-6.208,-4.170,-0.488,-0.004,0.983,-0.114,-0.153,-1.587,1.251,66.667,739152.000,1.000
-12.913,-12.994,-14.724,-6.284,-6.033,-3.815,0.261,2.597,-0.003,0.983,-0.115,-0.122,-1.526,1.282,66.667,739153.000,1.000
-13.836,-12.415,-15.032,-5.453,-4.152,-0.820,4.185,5.846,-0.001,0.982,-0.115,-0.214,-1.556,1.251,66.667,739154.000,1.000
-14.806,-11.509,-14.837,-4.572,-2.388,1.820,6.969,8.621,0.000,0.980,-0.118,-0.153,-1.526,1.129,66.667,739155.000,1.000
-15.815,-10.728,-14.211,-3.912,-1.245,2.981,7.908,9.998,-0.001,0.979,-0.120,-0.244,-1.404,1.312,66.667,739156.000,1.000
-16.721,-10.431,-13.365,-3.679,-1.046,2.173,6.649,9.480,0.000,0.978,-0.117,-0.183,-1.373,1.343,66.667,739157.000,1.000
-17.240,-10.553,-12.449,-3.739,-1.655,-0.205,3.483,7.477,0.002,0.978,-0.118,-0.244,-1.312,1.343,66.667,739158.000,1.000
-17.096,-10.681,-11.540,-3.743,-2.651,-3.352,-0.840,4.939,-0.002,0.979,-0.116,-0.275,-1.160,1.282,66.667,739159.000,1.000
-16.081,-10.327,-10.590,-3.403,-3.614,-6.527,-5.175,2.786,0.000,0.977,-0.118,-0.244,-1.129,1.282,66.667,739160.000,1.000
-14.127,-9.199,-9.418,-2.632,-4.300,-9.155,-8.262,1.595,0.000,0.975,-0.119,-0.153,-1.038,1.312,66.667,739161.000,1.000
-11.473,-7.401,-7.910,-1.646,-4.766,-10.914,-9.633,1.361,-0.001,0.978,-0.118,-0.092,-0.977,1.282,66.667,739162.000,1.000
-8.589,-5.390,-6.143,-0.829,-5.185,-11.753,-9.869,1.569,0.000,0.978,-0.119,0.000,-0.916,1.282,66.667,739163.000,1.000
-5.776,-3.555,-4.190,-0.353,-5.400,-11.618,-9.432,1.737,0.000,0.978,-0.118,0.031,-0.854,1.282,66.667,739164.000,1.000
-2.962,-1.872,-1.976,0.020,-4.889,-10.312,-7.982,1.853,0.001,0.979,-0.119,0.061,-0.824,1.129,66.667,739165.000,1.000
0.024,-0.117,0.532,0.653,-3.353,-7.879,-5.415,2.156,0.000,0.980,-0.120,0.092,-0.702,1.099,66.667,739166.000,1.000
3.105,1.771,3.187,1.675,-1.135,-4.895,-2.726,2.698,0.002,0.979,-0.116,0.275,-0.641,1.099,66.667,739167.000,1.000
6.077,3.842,5.900,3.052,1.230,-1.989,-1.027,3.464,0.002,0.979,-0.115,0.244,-0.641,1.099,66.667,739168.000,1.000
8.797,6.301,8.771,4.785,3.594,0.756,-0.225,4.662,0.000,0.980,-0.115,0.275,-0.610,1.068,66.667,739169.000,1.000
10.928,9.013,11.599,6.681,5.919,3.434,0.513,6.355,-0.001,0.982,-0.115,0.275,-0.488,1.129,66.667,739170.000,1.000
11.740,11.019,13.465,8.056,7.614,5.473,1.377,7.904,-0.002,0.984,-0.117,0.305,-0.366,1.099,66.667,739171.000,1.000
10.590,11.113,13.216,8.067,7.722,5.782,1.744,8.287,-0.002,0.983,-0.118,0.244,-0.397,1.221,66.667,739172.000,1.000
7.634,8.944,10.489,6.461,5.849,3.866,1.070,7.043,-0.002,0.983,-0.117,0.122,-0.366,1.038,66.667,739173.000,1.000
3.900,5.388,6.148,3.850,2.636,0.448,-0.563,4.690,-0.003,0.985,-0.120,0.122,-0.305,1.038,66.667,739174.000,1.000
0.696,1.991,1.774,1.313,-0.604,-3.028,-2.604,2.368,-0.003,0.984,-0.119,0.092,-0.305,1.068,66.667,739175.000,1.000
-1.024,0.258,-1.107,-0.161,-2.472,-5.028,-4.229,1.299,-0.005,0.981,-0.115,0.061,-0.305,1.068,66.667,739176.000,1.000
-0.975,1.063,-1.645,-0.133,-2.062,-4.396,-4.528,2.129,-0.004,0.981,-0.118,0.031,-0.366,1.007,66.667,739177.000,1.000
0.406,4.140,-0.042,1.062,0.475,-1.049,-3.139,4.315,-0.003,0.980,-0.119,0.031,-0.427,1.099,66.667,739178.000,1.000
2.194,8.174,2.599,2.601,3.994,3.783,-0.616,6.505,-0.005,0.982,-0.119,-0.031,-0.458,1.007,66.667,739179.000,1.000
3.589,11.743,5.114,3.876,7.228,8.439,2.076,7.742,-0.006,0.983,-0.116,-0.031,-0.580,1.007,66.667,739180.000,1.000
4.505,14.277,7.072,4.937,9.599,11.969,4.382,8.176,-0.005,0.982,-0.117,0.000,-0.580,1.007,66.667,739181.000,1.000
5.362,16.070,8.712,6.219,11.267,14.389,6.561,8.712,-0.005,0.982,-0.118,-0.031,-0.610,1.099,66.667,739182.000,1.000
6.303,17.513,10.251,7.888,12.564,16.123,9.249,10.112,-0.006,0.983,-0.119,0.061,-0.702,1.099,66.667,739183.000,1.000
6.880,18.540,11.485,9.523,13.485,17.428,12.406,12.338,-0.004,0.982,-0.119,0.031,-0.732,1.038,66.667,739184.000,1.000
6.545,18.754,11.980,10.404,13.636,18.197,14.871,14.524,-0.004,0.980,-0.117,0.031,-0.824,1.129,66.667,739185.000,1.000
5.184,17.825,11.468,10.039,12.631,18.128,15.425,15.625,-0.003,0.979,-0.118,0.092,-0.763,1.373,66.667,739186.000,1.000
3.167,15.745,10.032,8.472,10.483,16.976,13.936,15.125,-0.001,0.978,-0.119,0.122,-0.885,1.373,66.667,739187.000,1.000
1.053,12.782,7.946,6.126,7.571,14.538,10.831,13.087,0.000,0.978,-0.119,0.275,-0.824,1.404,66.667,739188.000,1.000
-0.797,9.218,5.355,3.433,4.306,10.589,6.250,9.798,-0.002,0.978,-0.118,0.275,-0.916,1.373,66.667,739189.000,1.000
-2.380,5.273,2.222,0.648,1.010,5.301,0.561,5.710,-0.003,0.976,-0.117,0.458,-0.946,1.251,66.667,739190.000,1.000
-3.728,1.363,-1.300,-2.031,-1.934,-0.255,-5.053,1.532,-0.003,0.979,-0.119,0.488,-0.885,1.312,66.667,739191.000,1.000
-4.569,-1.772,-4.640,-4.296,-4.059,-4.566,-9.165,-1.926,0.000,0.979,-0.120,0.549,-0.885,1.373,66.667,739192.000,1.000
-4.519,-3.412,-7.081,-5.766,-5.020,-6.702,-10.978,-4.066,0.001,0.980,-0.118,0.610,-0.916,1.434,66.667,739193.000,1.000
-3.520,-3.369,-8.231,-6.240,-4.825,-6.712,-10.547,-4.758,-0.001,0.982,-0.115,0.610,-0.916,1.648,66.667,739194.000,1.000
-1.908,-2.081,-8.194,-5.882,-3.854,-5.148,-8.494,-4.444,-0.001,0.984,-0.116,0.549,-0.854,1.678,66.667,739195.000,1.000
-0.143,-0.267,-7.370,-5.078,-2.612,-2.591,-5.698,-3.768,-0.002,0.984,-0.116,0.549,-0.732,1.556,66.667,739196.000,1.000
1.319,1.345,-6.267,-4.205,-1.540,0.174,-3.098,-3.058,-0.001,0.981,-0.119,0.580,-0.793,1.495,66.667,739197.000,1.000
2.111,2.196,-5.319,-3.522,-0.927,2.041,-1.506,-2.340,-0.002,0.980,-0.119,0.488,-0.824,1.495,66.667,739198.000,1.000
2.253,2.224,-4.605,-3.047,-0.709,2.319,-1.123,-1.583,-0.001,0.979,-0.119,0.549,-0.916,1.404,66.667,739199.000,1.000
2.222,2.046,-3.797,-2.508,-0.380,1.446,-1.227,-0.629,0.000,0.980,-0.121,0.641,-1.007,1.373,66.667,739200.000,1.000
2.531,2.537,-2.500,-1.546,0.683,0.638,-0.696,0.781,0.000,0.980,-0.120,0.580,-0.946,1.251,66.667,739201.000,1.000
3.304,4.153,-0.592,-0.026,2.683,0.938,1.096,2.644,0.002,0.982,-0.117,0.580,-0.946,1.282,66.667,739202.000,1.000
4.272,6.640,1.721,1.859,5.223,2.612,3.846,4.592,0.002,0.982,-0.117,0.519,-0.793,1.251,66.667,739203.000,1.000
4.993,9.297,4.049,3.724,7.528,5.058,6.583,6.187,0.003,0.980,-0.116,0.458,-0.763,1.160,66.667,739204.000,1.000
5.064,11.487,6.025,5.215,8.875,7.140,8.217,7.111,0.002,0.977,-0.117,0.427,-0.763,1.221,66.667,739205.000,1.000
4.337,12.943,7.513,6.204,9.042,7.904,8.009,7.252,0.003,0.974,-0.116,0.427,-0.519,1.099,66.667,739206.000,1.000
3.045,13.656,8.587,6.804,8.423,7.204,5.997,6.747,0.003,0.974,-0.118,0.519,-0.427,1.190,66.667,739207.000,1.000
1.664,13.630,9.310,7.166,7.651,5.722,3.226,5.883,0.003,0.974,-0.120,0.641,-0.488,1.160,66.667,739208.000,1.000
0.659,12.855,9.662,7.295,7.109,4.372,1.207,4.895,0.005,0.972,-0.121,0.702,-0.488,1.282,66.667,739209.000,1.000
0.384,11.469,9.787,7.181,6.777,3.613,0.834,3.912,0.004,0.975,-0.122,0.824,-0.427,1.099,66.667,739210.000,1.000
1.098,9.862,10.118,7.018,6.500,3.261,1.900,3.037,0.002,0.976,-0.122,0.793,-0.244,1.129,66.667,739211.000,1.000
2.877,8.533,11.059,7.081,6.192,2.861,3.428,2.289,0.004,0.980,-0.123,0.763,-0.183,1.190,66.667,739212.000,1.000
5.437,7.786,12.512,7.363,5.782,2.108,4.110,1.473,0.003,0.982,-0.121,0.702,-0.153,1.251,66.667,739213.000,1.000
8.074,7.527,13.812,7.470,5.137,0.945,2.916,0.328,0.000,0.982,-0.121,0.580,-0.122,1.312,66.667,739214.000,1.000
9.955,7.378,14.156,6.919,4.188,-0.545,-0.142,-1.147,0.001,0.983,-0.122,0.519,-0.183,1.312,66.667,739215.000,1.000
10.597,7.006,13.210,5.551,3.122,-2.145,-3.881,-2.568,-0.001,0.982,-0.124,0.580,-0.183,1.343,66.667,739216.000,1.000
10.118,6.321,11.314,3.654,2.345,-3.420,-6.622,-3.354,-0.002,0.981,-0.123,0.549,-0.092,1.373,66.667,739217.000,1.000
9.128,5.503,9.217,1.770,2.234,-3.820,-7.176,-3.124,-0.002,0.983,-0.123,0.458,-0.092,1.373,66.667,739218.000,1.000
8.408,4.928,7.649,0.413,2.881,-3.040,-5.452,-1.982,-0.003,0.983,-0.122,0.458,-0.214,1.343,66.667,739219.000,1.000
8.514,4.971,7.008,-0.130,4.020,-1.289,-2.350,-0.397,-0.005,0.984,-0.121,0.458,-0.275,1.373,66.667,739220.000,1.000
9.556,5.761,7.232,0.089,5.141,0.846,0.880,1.056,-0.007,0.987,-0.118,0.366,-0.519,1.221,66.667,739221.000,1.000
11.174,7.027,7.808,0.670,5.684,2.700,3.291,1.866,-0.010,0.988,-0.114,0.183,-0.641,1.068,66.667,739222.000,1.000
12.756,8.252,7.924,1.099,5.332,3.746,4.570,1.837,-0.008,0.990,-0.115,-0.061,-0.824,1.038,66.667,739223.000,1.000
13.881,9.096,6.723,1.194,4.338,3.878,4.978,1.371,-0.009,0.992,-0.115,-0.214,-1.007,0.916,66.667,739224.000,1.000
14.512,9.590,3.400,1.218,3.433,3.447,5.010,1.254,-0.011,0.990,-0.115,-0.336,-1.129,0.854,66.667,739225.000,1.000
14.699,9.836,-2.823,1.480,3.208,2.820,4.986,1.972,-0.010,0.989,-0.113,-0.519,-1.282,0.793,66.667,739226.000,1.000
14.314,9.709,-12.581,1.940,3.597,2.040,4.967,3.278,-0.007,0.989,-0.119,-0.641,-1.526,0.702,66.667,739227.000,1.000
13.217,8.982,-25.939,2.318,4.068,1.035,5.050,4.557,-0.004,0.988,-0.118,-0.824,-1.648,0.702,66.667,739228.000,1.000
11.489,7.531,-42.127,2.385,4.072,-0.185,5.333,5.364,-0.004,0.984,-0.117,-0.916,-1.678,0.641,66.667,739229.000,1.000
9.311,5.259,-59.889,1.933,3.121,-1.823,5.200,5.277,-0.002,0.985,-0.117,-0.916,-1.709,0.763,66.667,739230.000,1.000
6.802,2.113,-78.026,0.730,0.864,-4.343,3.371,3.732,-0.001,0.985,-0.117,-0.854,-1.831,0.916,66.667,739231.000,1.000
4.189,-1.518,-95.456,-1.140,-2.405,-7.701,-0.481,0.728,-0.001,0.981,-0.117,-0.977,-1.801,0.885,66.667,739232.000,1.000
2.013,-4.607,-111.097,-3.016,-5.503,-10.740,-4.708,-2.573,-0.001,0.980,-0.116,-0.946,-1.862,0.885,66.667,739233.000,1.000
0.875,-6.070,-124.104,-4.068,-7.081,-11.834,-6.990,-4.572,-0.002,0.980,-0.115,-0.793,-1.801,0.916,66.667,739234.000,1.000
0.910,-5.675,-134.317,-3.968,-6.677,-10.338,-6.418,-4.565,0.000,0.977,-0.116,-0.824,-1.801,1.007,66.667,739235.000,1.000
1.630,-4.254,-142.357,-3.044,-4.989,-7.217,-4.039,-3.195,0.000,0.979,-0.115,-0.702,-1.740,1.068,66.667,739236.000,1.000
2.313,-2.998,-149.244,-1.899,-3.247,-4.270,-1.890,-1.875,0.000,0.979,-0.115,-0.641,-1.831,1.160,66.667,739237.000,1.000
2.499,-2.650,-155.827,-0.952,-2.338,-2.872,-1.607,-1.765,0.000,0.978,-0.114,-0.610,-1.709,1.099,66.667,739238.000,1.000
2.180,-3.157,-162.346,-0.205,-2.285,-3.167,-3.255,-2.855,-0.001,0.979,-0.116,-0.488,-1.740,1.099,66.667,739239.000,1.000
1.659,-3.839,-168.354,0.690,-2.361,-4.096,-5.246,-3.961,-0.002,0.979,-0.115,-0.427,-1.617,1.068,66.667,739240.000,1.000
1.271,-3.890,-173.092,2.030,-1.734,-4.286,-5.697,-3.718,-0.001,0.979,-0.114,-0.305,-1.587,1.007,66.667,739241.000,1.000
1.219,-2.876,-175.968,3.732,-0.086,-2.994,-3.976,-1.630,0.000,0.978,-0.114,-0.305,-1.617,1.068,66.667,739242.000,1.000
1.570,-0.905,-176.773,5.369,2.265,-0.383,-1.006,1.620,0.000,0.977,-0.114,-0.244,-1.556,1.007,66.667,739243.000,1.000
2.241,1.426,-175.767,6.414,4.539,2.702,1.718,4.655,-0.001,0.976,-0.115,-0.183,-1.526,0.916,66.667,739244.000,1.000
2.977,3.285,-173.686,6.482,5.880,5.105,3.327,6.299,0.000,0.977,-0.114,-0.214,-1.404,0.916,66.667,739245.000,1.000
3.426,4.026,-171.510,5.547,5.842,5.879,3.941,6.208,-0.001,0.975,-0.112,-0.153,-1.465,0.793,66.667,739246.000,1.000
3.242,3.459,-170.047,3.979,4.632,4.738,4.024,4.862,-0.002,0.975,-0.112,-0.092,-1.434,0.671,66.667,739247.000,1.000
2.290,1.920,-169.511,2.402,3.005,2.275,3.755,3.195,0.000,0.973,-0.112,0.092,-1.404,0.763,66.667,739248.000,1.000
0.821,0.111,-169.418,1.431,1.879,-0.312,3.198,2.128,0.000,0.973,-0.115,0.244,-1.434,0.732,66.667,739249.000,1.000
-0.728,-1.331,-169.021,1.299,1.760,-1.911,2.559,2.024,0.001,0.974,-0.118,0.336,-1.312,0.671,66.667,739250.000,1.000
-2.052,-2.183,-167.902,1.740,2.527,-2.029,2.052,2.530,-0.001,0.975,-0.115,0.458,-1.221,0.702,66.667,739251.000,1.000
-3.046,-2.617,-166.135,2.256,3.689,-0.877,1.855,3.048,-0.002,0.974,-0.115,0.580,-1.129,0.671,66.667,739252.000,1.000
-3.702,-2.910,-163.952,2.496,4.745,0.809,2.136,3.252,-0.002,0.973,-0.115,0.763,-1.099,0.702,66.667,739253.000,1.000
-3.943,-3.121,-161.278,2.491,5.490,2.251,2.966,3.201,0.000,0.974,-0.117,0.824,-1.129,0.671,66.667,739254.000,1.000
-3.477,-2.935,-157.641,2.676,6.217,3.254,4.340,3.288,-0.003,0.974,-0.119,0.916,-1.251,0.671,66.667,739255.000,1.000
-1.812,-1.837,-152.473,3.653,7.582,4.283,6.356,4.069,-0.002,0.976,-0.116,0.946,-1.190,0.763,66.667,739256.000,1.000
1.415,0.472,-145.494,5.731,10.000,5.841,9.146,5.737,-0.002,0.978,-0.117,1.068,-1.221,0.824,66.667,739257.000,1.000
6.016,3.692,-136.898,8.542,13.063,7.764,12.246,7.621,-0.003,0.979,-0.118,1.129,-1.221,0.854,66.667,739258.000,1.000
11.028,6.854,-127.424,11.088,15.573,9.111,14.149,8.405,-0.002,0.979,-0.114,1.129,-1.160,0.793,66.667,739259.000,1.000
15.009,8.793,-118.177,12.328,16.309,8.922,13.261,7.113,-0.004,0.978,-0.114,1.160,-1.099,0.854,66.667,739260.000,1.000
16.784,8.873,-110.122,11.874,14.896,7.111,9.469,4.051,-0.004,0.979,-0.117,1.129,-1.068,0.916,66.667,739261.000,1.000
15.998,7.260,-103.664,10.122,11.898,4.414,4.245,0.643,-0.003,0.982,-0.116,1.068,-1.038,0.946,66.667,739262.000,1.000
13.195,4.673,-98.556,7.839,8.300,1.700,-0.510,-1.637,-0.005,0.983,-0.119,0.977,-1.007,1.068,66.667,739263.000,1.000
9.539,2.006,-94.082,5.770,5.053,-0.418,-3.319,-2.115,-0.006,0.986,-0.118,0.885,-1.190,1.038,66.667,739264.000,1.000
6.369,-0.001,-89.369,4.426,2.836,-1.565,-3.510,-1.116,-0.006,0.986,-0.120,0.854,-1.160,1.038,66.667,739265.000,1.000
4.683,-0.958,-83.591,3.991,1.928,-1.586,-1.407,0.476,-0.005,0.986,-0.121,0.763,-1.038,0.946,66.667,739266.000,1.000
4.762,-0.804,-76.123,4.355,2.227,-0.625,1.974,1.989,-0.005,0.989,-0.116,0.671,-1.160,1.099,66.667,739267.000,1.000
6.061,0.227,-66.855,5.163,3.288,0.810,5.469,3.259,-0.006,0.992,-0.116,0.427,-1.160,1.190,66.667,739268.000,1.000
7.468,1.515,-56.494,5.822,4.320,1.893,8.014,4.166,-0.005,0.990,-0.114,0.275,-1.221,1.038,66.667,739269.000,1.000
7.912,2.240,-46.292,5.740,4.451,1.838,8.757,4.280,-0.006,0.990,-0.113,0.122,-1.343,1.068,66.667,739270.000,1.000
6.989,1.954,-37.222,4.754,3.349,0.537,7.366,3.302,-0.005,0.987,-0.114,-0.122,-1.251,1.038,66.667,739271.000,1.000
5.039,0.880,-29.491,3.231,1.453,-1.154,4.346,1.541,-0.003,0.983,-0.114,-0.244,-1.312,1.129,66.667,739272.000,1.000
2.723,-0.440,-22.813,1.714,-0.458,-2.060,0.891,-0.266,-0.004,0.980,-0.117,-0.397,-1.282,1.190,66.667,739273.000,1.000
0.600,-1.650,-16.881,0.563,-1.812,-1.653,-1.658,-1.361,0.000,0.978,-0.122,-0.397,-1.312,1.190,66.667,739274.000,1.000
-1.082,-2.736,-11.583,-0.188,-2.455,-0.375,-2.435,-1.315,0.003,0.977,-0.121,-0.275,-1.221,1.160,66.667,739275.000,1.000
-2.462,-3.901,-7.018,-0.833,-2.669,0.789,-1.636,-0.428,0.003,0.978,-0.121,-0.153,-1.129,1.282,66.667,739276.000,1.000
-3.991,-5.491,-3.351,-1.806,-3.074,0.768,-0.613,0.257,0.002,0.979,-0.121,-0.214,-1.007,1.404,66.667,739277.000,1.000
-6.103,-7.852,-0.515,-3.328,-4.238,-1.155,-1.010,-0.193,0.000,0.979,-0.119,-0.183,-0.916,1.404,66.667,739278.000,1.000
-8.826,-10.952,2.056,-5.170,-6.103,-4.759,-3.370,-1.695,0.002,0.978,-0.119,-0.092,-0.854,1.495,66.667,739279.000,1.000
-11.695,-14.142,5.392,-6.795,-7.881,-8.734,-6.550,-3.204,0.004,0.975,-0.122,-0.092,-0.732,1.495,66.667,739280.000,1.000
-14.078,-16.516,10.436,-7.770,-8.695,-11.524,-8.767,-3.615,0.005,0.973,-0.119,0.092,-0.671,1.617,66.667,739281.000,1.000
-15.694,-17.595,17.314,-8.087,-8.366,-12.433,-9.109,-2.642,0.003,0.973,-0.116,0.122,-0.641,1.648,66.667,739282.000,1.000
-16.785,-17.540,25.274,-8.063,-7.409,-11.853,-7.922,-0.927,0.000,0.972,-0.119,0.153,-0.488,1.648,66.667,739283.000,1.000
-17.729,-16.741,33.366,-7.974,-6.401,-10.603,-6.112,0.555,-0.002,0.973,-0.116,0.336,-0.458,1.495,66.667,739284.000,1.000
-18.628,-15.404,41.122,-7.875,-5.568,-9.257,-4.438,1.125,-0.006,0.976,-0.113,0.458,-0.397,1.312,66.667,739285.000,1.000
-19.262,-13.582,48.628,-7.711,-4.890,-7.919,-3.250,0.666,-0.010,0.978,-0.116,0.488,-0.366,1.129,66.667,739286.000,1.000
-19.302,-11.415,56.131,-7.439,-4.308,-6.416,-2.423,-0.425,-0.010,0.978,-0.116,0.488,-0.580,1.007,66.667,739287.000,1.000
-18.507,-9.188,63.717,-7.017,-3.768,-4.694,-1.520,-1.476,-0.009,0.978,-0.117,0.336,-0.732,0.824,66.667,739288.000,1.000
-16.837,-7.216,71.328,-6.382,-3.264,-3.084,-0.351,-1.977,-0.008,0.980,-0.118,0.427,-0.916,0.732,66.667,739289.000,1.000
-14.454,-5.664,78.915,-5.490,-2.828,-2.041,0.649,-1.863,-0.008,0.981,-0.117,0.336,-1.038,0.580,66.667,739290.000,1.000
-11.610,-4.399,86.434,-4.273,-2.328,-1.562,1.011,-1.301,-0.009,0.982,-0.118,0.366,-1.007,0.549,66.667,739291.000,1.000
-8.622,-3.109,93.592,-2.695,-1.460,-1.103,0.948,-0.405,-0.006,0.981,-0.120,0.244,-1.129,0.519,66.667,739292.000,1.000
-5.870,-1.573,99.813,-0.894,-0.020,-0.108,1.051,0.703,-0.003,0.984,-0.121,0.183,-1.099,0.610,66.667,739293.000,1.000
-3.606,0.267,104.862,0.890,1.994,1.610,1.671,1.929,-0.003,0.984,-0.119,0.153,-1.160,0.671,66.667,739294.000,1.000
-1.797,2.331,109.385,2.522,4.424,3.847,2.736,3.338,-0.003,0.986,-0.119,-0.031,-1.129,0.854,66.667,739295.000,1.000
-0.406,4.121,114.310,3.795,6.667,5.838,3.606,4.729,-0.003,0.984,-0.119,-0.153,-1.129,1.099,66.667,739296.000,1.000
0.259,4.580,119.678,4.138,7.490,6.157,3.135,5.088,-0.001,0.984,-0.117,-0.122,-1.038,1.221,66.667,739297.000,1.000
-0.203,2.773,124.546,3.006,5.770,3.577,0.547,3.275,-0.003,0.983,-0.118,-0.183,-1.129,1.282,66.667,739298.000,1.000
-1.749,-1.142,128.013,0.602,1.577,-1.658,-3.769,-0.748,-0.002,0.984,-0.117,-0.336,-1.160,1.373,66.667,739299.000,1.000
-3.887,-5.962,129.905,-2.149,-3.773,-7.824,-8.644,-5.820,-0.002,0.982,-0.118,-0.244,-1.160,1.526,66.667,739300.000,1.000
-6.127,-10.408,130.723,-4.266,-8.606,-13.029,-13.008,-10.372,-0.003,0.983,-0.118,-0.214,-1.190,1.678,66.667,739301.000,1.000
-8.151,-13.708,131.461,-5.165,-11.692,-16.204,-16.213,-13.111,-0.005,0.982,-0.116,-0.275,-1.129,1.831,66.667,739302.000,1.000
-9.654,-15.489,133.254,-4.750,-12.564,-17.113,-17.873,-13.465,-0.006,0.981,-0.118,-0.366,-1.007,1.801,66.667,739303.000,1.000
-10.402,-15.714,136.706,-3.417,-11.562,-16.084,-17.712,-11.806,-0.006,0.982,-0.119,-0.275,-1.099,1.831,66.667,739304.000,1.000
-10.403,-14.754,141.552,-1.900,-9.577,-13.747,-15.562,-9.163,-0.004,0.982,-0.119,-0.214,-1.099,1.984,66.667,739305.000,1.000
-9.737,-13.109,147.173,-0.791,-7.450,-10.668,-11.459,-6.428,-0.003,0.982,-0.120,-0.214,-1.099,1.892,66.667,739306.000,1.000
-8.343,-11.055,153.202,-0.165,-5.609,-7.192,-5.962,-3.953,0.000,0.980,-0.119,-0.092,-1.160,1.984,66.667,739307.000,1.000
-6.270,-8.817,159.299,0.177,-4.344,-3.791,-0.614,-2.009,0.000,0.981,-0.118,-0.183,-1.068,1.831,66.667,739308.000,1.000
-4.047,-6.959,164.535,0.189,-4.111,-1.412,2.394,-1.206,0.000,0.981,-0.116,-0.183,-1.038,1.709,66.667,739309.000,1.000
-2.484,-6.164,167.577,-0.395,-5.211,-1.063,1.662,-2.044,0.002,0.979,-0.117,-0.214,-0.885,1.709,66.667,739310.000,1.000
-1.979,-6.521,167.771,-1.502,-7.154,-2.898,-2.176,-4.175,0.002,0.979,-0.117,-0.153,-0.946,1.587,66.667,739311.000,1.000
-2.169,-7.280,165.835,-2.473,-8.719,-5.853,-6.758,-6.458,0.002,0.978,-0.119,-0.092,-0.854,1.617,66.667,739312.000,1.000
-2.323,-7.451,163.404,-2.534,-8.792,-8.295,-9.515,-7.764,0.000,0.979,-0.117,-0.061,-0.732,1.495,66.667,739313.000,1.000
-1.942,-6.536,161.982,-1.400,-7.102,-9.055,-9.036,-7.634,0.001,0.980,-0.118,0.031,-0.671,1.465,66.667,739314.000,1.000
-0.958,-4.647,162.193,0.568,-4.206,-7.931,-5.611,-6.347,0.004,0.977,-0.118,0.153,-0.610,1.343,66.667,739315.000,1.000
0.381,-2.210,163.683,2.597,-1.045,-5.522,-1.022,-4.671,0.004,0.977,-0.115,0.153,-0.610,1.221,66.667,739316.000,1.000
1.647,0.286,165.635,3.872,1.511,-2.725,2.531,-3.439,0.002,0.976,-0.115,0.214,-0.549,1.190,66.667,739317.000,1.000
2.496,2.532,167.648,4.017,3.146,-0.032,4.081,-2.862,0.000,0.978,-0.117,0.214,-0.488,1.129,66.667,739318.000,1.000
2.953,4.531,170.185,3.353,4.245,2.758,4.595,-2.317,0.002,0.977,-0.119,0.214,-0.427,1.038,66.667,739319.000,1.000
3.321,6.342,174.074,2.568,5.302,5.931,5.618,-1.138,0.000,0.979,-0.118,0.244,-0.427,0.946,66.667,739320.000,1.000
3.864,7.820,179.655,2.182,6.387,9.284,7.587,0.682,-0.002,0.980,-0.119,0.305,-0.519,0.824,66.667,739321.000,1.000
4.532,8.735,186.349,2.252,7.330,12.345,9.879,2.707,0.000,0.979,-0.117,0.244,-0.519,0.824,66.667,739322.000,1.000
4.888,8.948,192.788,2.409,8.056,14.660,11.702,4.513,-0.002,0.978,-0.118,0.366,-0.427,0.732,66.667,739323.000,1.000
4.334,8.373,197.265,2.096,8.481,15.689,12.494,5.766,-0.005,0.979,-0.116,0.397,-0.458,0.793,66.667,739324.000,1.000
2.529,6.947,198.379,0.932,8.333,14.934,12.139,6.263,-0.003,0.980,-0.115,0.458,-0.458,0.793,66.667,739325.000,1.000
-0.269,4.867,195.819,-0.946,7.411,12.514,11.249,6.159,-0.005,0.979,-0.116,0.397,-0.580,0.854,66.667,739326.000,1.000
-3.219,2.790,190.831,-2.825,5.974,9.469,10.746,5.948,-0.006,0.978,-0.116,0.458,-0.641,0.732,66.667,739327.000,1.000
-5.305,1.624,185.776,-3.813,4.669,7.273,10.930,6.034,-0.005,0.979,-0.119,0.427,-0.641,0.793,66.667,739328.000,1.000
-5.911,1.984,182.891,-3.423,4.097,6.923,11.351,6.443,-0.005,0.978,-0.117,0.519,-0.793,0.854,66.667,739329.000,1.000
-5.139,3.782,183.085,-1.863,4.389,8.255,11.465,6.994,-0.006,0.981,-0.115,0.427,-0.854,0.854,66.667,739330.000,1.000
-3.659,6.247,185.523,0.129,5.109,10.007,11.104,7.550,-0.006,0.981,-0.117,0.519,-0.946,0.793,66.667,739331.000,1.000
-2.313,8.291,188.153,1.655,5.493,10.695,10.398,7.977,-0.007,0.982,-0.117,0.458,-1.007,0.824,66.667,739332.000,1.000
-1.797,8.958,188.785,2.004,4.831,9.543,9.387,7.981,-0.005,0.980,-0.116,0.458,-1.251,0.824,66.667,739333.000,1.000
-2.530,7.756,186.070,0.877,2.800,6.740,7.954,7.240,-0.007,0.982,-0.117,0.488,-1.404,1.007,66.667,739334.000,1.000
-4.549,4.812,179.910,-1.558,-0.430,3.075,5.970,5.572,-0.006,0.982,-0.118,0.397,-1.373,0.946,66.667,739335.000,1.000
-7.384,0.818,171.385,-4.748,-4.312,-0.538,3.160,2.857,-0.004,0.981,-0.117,0.336,-1.373,1.160,66.667,739336.000,1.000
-10.104,-3.212,162.309,-7.907,-8.051,-3.301,-0.581,-0.744,-0.003,0.983,-0.117,0.397,-1.495,1.129,66.667,739337.000,1.000
-11.685,-6.273,154.458,-10.189,-10.738,-4.613,-4.451,-4.318,-0.005,0.982,-0.115,0.366,-1.556,1.099,66.667,739338.000,1.000
-11.541,-7.731,148.891,-11.013,-11.745,-4.277,-7.035,-6.592,-0.004,0.980,-0.111,0.305,-1.648,1.129,66.667,739339.000,1.000
-9.866,-7.548,145.797,-10.389,-11.140,-2.699,-7.552,-6.988,-0.004,0.981,-0.112,0.305,-1.740,1.190,66.667,739340.000,1.000
-7.496,-6.160,144.861,-8.857,-9.547,-0.643,-6.346,-5.885,-0.003,0.982,-0.118,0.244,-1.709,1.251,66.667,739341.000,1.000
-5.341,-4.135,145.661,-7.118,-7.663,1.206,-4.322,-4.087,-0.003,0.981,-0.115,0.153,-1.709,1.251,66.667,739342.000,1.000
-3.897,-2.027,147.698,-5.771,-6.033,2.317,-2.470,-2.453,-0.002,0.979,-0.115,0.153,-1.801,1.129,66.667,739343.000,1.000
-3.160,-0.367,150.280,-5.205,-5.027,2.336,-1.691,-1.689,-0.002,0.980,-0.119,0.061,-1.709,1.190,66.667,739344.000,1.000
-2.868,0.420,152.612,-5.512,-4.779,1.301,-2.419,-1.978,-0.001,0.980,-0.119,0.092,-1.770,1.221,66.667,739345.000,1.000
-2.727,0.142,153.988,-6.491,-5.159,-0.415,-4.255,-2.818,0.000,0.982,-0.117,0.000,-1.740,1.190,66.667,739346.000,1.000
-2.474,-1.022,153.948,-7.712,-5.766,-2.230,-6.024,-3.340,0.000,0.981,-0.120,0.031,-1.770,1.190,66.667,739347.000,1.000
-1.829,-2.440,152.495,-8.583,-5.932,-3.272,-6.336,-2.834,0.000,0.981,-0.116,-0.061,-1.648,1.190,66.667,739348.000,1.000
-0.601,-3.253,150.131,-8.591,-5.072,-2.686,-4.466,-1.228,0.001,0.980,-0.120,-0.214,-1.556,1.221,66.667,739349.000,1.000
1.160,-2.838,147.556,-7.596,-3.230,-0.417,-1.034,0.768,0.002,0.980,-0.117,-0.214,-1.526,1.190,66.667,739350.000,1.000
3.175,-1.105,145.389,-5.808,-1.002,2.630,2.466,2.247,0.003,0.979,-0.120,-0.183,-1.312,1.129,66.667,739351.000,1.000
4.980,1.475,143.900,-3.618,0.997,5.366,5.012,2.838,0.001,0.981,-0.119,-0.214,-1.251,1.282,66.667,739352.000,1.000
5.964,4.010,142.702,-1.554,2.350,7.165,6.430,2.721,0.002,0.980,-0.118,-0.275,-1.221,1.251,66.667,739353.000,1.000
5.633,5.610,140.815,-0.128,2.801,7.890,6.823,2.291,0.001,0.979,-0.117,-0.214,-1.251,1.221,66.667,739354.000,1.000
3.984,5.865,137.196,0.409,2.378,7.809,6.526,1.918,0.003,0.979,-0.116,-0.244,-1.038,1.099,66.667,739355.000,1.000
1.493,4.910,131.223,0.099,1.364,7.347,6.207,1.645,0.003,0.979,-0.116,-0.244,-1.007,1.190,66.667,739356.000,1.000
-1.288,3.078,122.850,-0.915,-0.102,6.542,6.121,1.085,0.003,0.979,-0.119,-0.275,-0.977,1.129,66.667,739357.000,1.000
-4.031,0.705,112.594,-2.447,-2.110,5.002,5.514,-0.149,0.001,0.980,-0.117,-0.183,-0.916,1.160,66.667,739358.000,1.000
-6.574,-1.740,101.452,-4.173,-4.513,2.727,3.481,-1.929,0.000,0.980,-0.120,-0.122,-0.793,1.068,66.667,739359.000,1.000
-8.707,-3.588,90.584,-5.607,-6.581,0.705,0.383,-3.457,0.000,0.980,-0.116,-0.122,-0.702,1.221,66.667,739360.000,1.000
-10.160,-4.288,80.819,-6.311,-7.394,0.272,-2.064,-3.654,0.000,0.980,-0.116,-0.122,-0.641,1.129,66.667,739361.000,1.000
-10.832,-3.854,72.327,-6.240,-6.709,1.827,-2.297,-2.110,0.000,0.980,-0.115,-0.214,-0.641,1.129,66.667,739362.000,1.000
-10.906,-2.918,64.727,-5.828,-5.285,4.380,-0.377,0.307,-0.001,0.980,-0.118,-0.153,-0.580,1.160,66.667,739363.000,1.000
-10.697,-2.317,57.538,-5.665,-4.248,6.402,2.192,2.068,-0.001,0.981,-0.119,-0.122,-0.549,1.221,66.667,739364.000,1.000
-10.485,-2.592,50.632,-6.012,-4.216,6.860,3.705,2.184,-0.003,0.981,-0.121,-0.092,-0.580,1.160,66.667,739365.000,1.000
-10.322,-3.651,44.474,-6.567,-5.002,5.565,3.146,0.757,-0.002,0.979,-0.120,0.031,-0.519,1.099,66.667,739366.000,1.000
-9.960,-4.817,39.895,-6.713,-5.931,3.013,0.592,-1.346,0.000,0.979,-0.117,-0.031,-0.336,1.129,66.667,739367.000,1.000
-9.013,-5.306,37.529,-5.974,-6.278,0.107,-2.671,-3.060,-0.001,0.978,-0.115,0.000,-0.397,1.099,66.667,739368.000,1.000
-7.194,-4.707,37.442,-4.209,-5.526,-2.197,-4.744,-3.557,-0.003,0.978,-0.115,0.061,-0.366,1.129,66.667,739369.000,1.000
-4.490,-3.093,39.205,-1.556,-3.526,-3.249,-4.394,-2.504,-0.002,0.980,-0.115,0.000,-0.336,1.129,66.667,739370.000,1.000
-1.257,-0.901,42.050,1.631,-0.576,-2.914,-1.932,-0.130,-0.001,0.981,-0.114,-0.031,-0.366,1.312,66.667,739371.000,1.000
1.861,1.267,44.905,4.814,2.624,-1.594,1.216,2.926,-0.002,0.980,-0.116,0.031,-0.397,1.251,66.667,739372.000,1.000
4.179,2.837,46.579,7.355,5.188,-0.051,3.644,5.885,-0.004,0.980,-0.118,0.092,-0.397,1.221,66.667,739373.000,1.000
5.181,3.400,46.156,8.664,6.330,0.908,4.590,7.998,-0.002,0.980,-0.117,0.122,-0.427,1.251,66.667,739374.000,1.000
4.671,2.870,43.360,8.399,5.720,0.972,3.987,8.655,-0.003,0.980,-0.116,0.214,-0.458,1.312,66.667,739375.000,1.000
3.006,1.693,38.808,6.768,3.855,0.704,2.491,7.763,-0.003,0.981,-0.115,0.275,-0.458,1.251,66.667,739376.000,1.000
1.104,0.735,33.864,4.615,1.932,1.072,1.328,6.016,-0.004,0.980,-0.116,0.305,-0.488,1.251,66.667,739377.000,1.000
-0.021,0.750,29.945,3.058,1.162,2.472,1.576,4.547,-0.005,0.983,-0.117,0.244,-0.580,1.465,66.667,739378.000,1.000
0.242,1.965,27.724,2.924,2.062,4.364,3.263,4.203,-0.004,0.983,-0.114,0.122,-0.519,1.404,66.667,739379.000,1.000
1.895,4.039,26.838,4.305,4.178,5.762,5.200,5.046,-0.004,0.984,-0.115,0.183,-0.732,1.373,66.667,739380.000,1.000
4.420,6.307,26.299,6.530,6.413,6.007,6.012,6.458,-0.005,0.982,-0.116,0.244,-0.671,1.312,66.667,739381.000,1.000
7.062,8.148,25.182,8.574,7.728,5.227,5.251,7.643,-0.005,0.980,-0.118,0.275,-0.763,1.312,66.667,739382.000,1.000
9.236,9.289,23.027,9.636,7.682,4.150,3.296,8.034,-0.004,0.978,-0.116,0.366,-0.793,1.251,66.667,739383.000,1.000
10.823,9.910,19.930,9.554,6.606,3.540,0.952,7.570,-0.003,0.978,-0.118,0.427,-0.824,1.343,66.667,739384.000,1.000
12.042,10.477,16.328,8.779,5.361,3.840,-0.583,6.705,-0.002,0.981,-0.114,0.488,-0.824,1.312,66.667,739385.000,1.000
12.953,11.279,12.482,7.856,4.701,5.049,-0.358,5.910,-0.002,0.983,-0.115,0.458,-0.946,1.312,66.667,739386.000,1.000
13.196,12.070,8.118,6.932,4.727,6.705,1.350,5.199,-0.002,0.981,-0.114,0.488,-0.916,1.251,66.667,739387.000,1.000
12.407,12.233,2.680,5.848,4.966,8.042,3.137,4.287,-0.001,0.981,-0.114,0.488,-1.068,1.160,66.667,739388.000,1.000
10.729,11.296,-4.171,4.505,4.823,8.346,3.642,3.011,0.000,0.979,-0.115,0.488,-1.129,1.129,66.667,739389.000,1.000
8.742,9.286,-12.348,3.027,3.964,7.368,2.454,1.477,-0.002,0.983,-0.116,0.641,-1.099,1.129,66.667,739390.000,1.000
7.112,6.771,-21.299,1.756,2.626,5.579,0.274,0.018,-0.001,0.981,-0.116,0.610,-1.068,1.068,66.667,739391.000,1.000
6.420,4.706,-30.054,1.160,1.617,4.028,-1.419,-0.891,0.000,0.981,-0.118,0.488,-1.129,1.007,66.667,739392.000,1.000
7.023,3.989,-37.604,1.573,1.689,3.624,-1.479,-0.953,0.000,0.981,-0.117,0.549,-1.129,1.129,66.667,739393.000,1.000
8.786,4.826,-43.473,2.875,2.793,4.338,-0.239,-0.350,-0.001,0.979,-0.119,0.519,-1.160,1.068,66.667,739394.000,1.000
11.044,6.587,-47.884,4.527,4.174,5.306,0.893,0.433,-0.002,0.978,-0.117,0.519,-1.129,1.038,66.667,739395.000,1.000
13.030,8.306,-51.432,5.972,5.135,5.696,0.941,0.994,-0.003,0.980,-0.113,0.458,-1.099,0.885,66.667,739396.000,1.000
14.366,9.238,-54.738,6.951,5.400,5.230,0.089,1.144,0.000,0.981,-0.116,0.519,-1.190,0.977,66.667,739397.000,1.000
15.166,9.100,-58.131,7.531,5.015,4.128,-0.914,0.844,0.000,0.980,-0.118,0.610,-1.099,0.977,66.667,739398.000,1.000
15.786,8.169,-61.304,8.017,4.303,3.020,-1.556,0.235,-0.002,0.979,-0.118,0.549,-1.129,1.038,66.667,739399.000,1.000
16.512,7.137,-63.509,8.776,3.757,2.709,-1.685,-0.264,-0.003,0.980,-0.118,0.580,-1.190,1.007,66.667,739400.000,1.000
17.329,6.559,-64.505,9.877,3.621,3.450,-1.381,-0.172,-0.004,0.980,-0.118,0.610,-1.190,0.854,66.667,739401.000,1.000
17.919,6.448,-65.166,10.955,3.711,4.629,-0.843,0.695,-0.004,0.982,-0.117,0.580,-1.190,0.824,66.667,739402.000,1.000
17.950,6.526,-66.836,11.597,3.834,5.598,-0.031,2.233,-0.004,0.981,-0.118,0.641,-1.251,0.885,66.667,739403.000,1.000
17.282,6.555,-70.279,11.680,4.048,6.270,1.441,4.202,-0.002,0.981,-0.116,0.549,-1.221,0.946,66.667,739404.000,1.000
15.924,6.289,-75.373,11.227,4.343,6.624,3.736,6.253,0.000,0.982,-0.117,0.488,-1.282,0.977,66.667,739405.000,1.000
13.940,5.426,-81.424,10.200,4.428,6.395,6.329,7.947,0.000,0.982,-0.118,0.458,-1.160,1.007,66.667,739406.000,1.000
11.372,3.736,-87.736,8.497,3.875,5.309,8.147,8.768,0.000,0.980,-0.118,0.458,-1.282,0.977,66.667,739407.000,1.000
8.259,1.205,-94.087,6.096,2.396,3.253,8.253,8.268,-0.002,0.980,-0.118,0.427,-1.190,1.038,66.667,739408.000,1.000
4.795,-1.886,-100.818,3.205,0.123,0.463,6.656,6.404,0.000,0.979,-0.117,0.427,-1.221,1.068,66.667,739409.000,1.000
1.371,-5.041,-108.539,0.228,-2.419,-2.441,4.106,3.559,-0.002,0.978,-0.117,0.519,-1.099,1.099,66.667,739410.000,1.000
-1.535,-7.754,-117.504,-2.396,-4.639,-4.780,1.080,0.271,-0.003,0.978,-0.118,0.610,-1.190,1.099,66.667,739411.000,1.000
-3.481,-9.554,-127.024,-4.275,-6.029,-6.011,-2.259,-2.787,-0.003,0.978,-0.119,0.671,-1.190,1.068,66.667,739412.000,1.000
-4.228,-10.056,-135.601,-5.143,-6.137,-5.773,-5.322,-4.789,-0.003,0.979,-0.117,0.702,-1.251,1.099,66.667,739413.000,1.000
-3.913,-9.233,-141.817,-5.026,-4.808,-4.238,-7.234,-5.225,-0.003,0.981,-0.117,0.732,-1.190,1.160,66.667,739414.000,1.000
-3.031,-7.546,-145.164,-4.279,-2.432,-2.338,-7.729,-4.484,-0.004,0.981,-0.118,0.671,-1.251,1.160,66.667,739415.000,1.000
-2.221,-5.655,-146.089,-3.346,0.273,-1.181,-7.356,-3.567,-0.002,0.983,-0.115,0.671,-1.251,1.099,66.667,739416.000,1.000
-2.000,-3.984,-145.423,-2.460,2.749,-1.157,-6.659,-3.103,-0.004,0.983,-0.116,0.549,-1.343,1.068,66.667,739417.000,1.000
-2.476,-2.444,-143.820,-1.595,4.839,-1.622,-5.538,-2.859,-0.004,0.982,-0.116,0.427,-1.312,1.007,66.667,739418.000,1.000
-3.235,-0.521,-141.522,-0.602,6.656,-1.365,-3.603,-2.194,-0.003,0.980,-0.118,0.397,-1.343,0.946,66.667,739419.000,1.000
-3.650,2.144,-138.519,0.583,8.236,0.424,-0.908,-0.780,-0.004,0.977,-0.118,0.397,-1.404,0.916,66.667,739420.000,1.000
-3.517,5.073,-134.949,1.746,9.238,3.279,1.788,0.987,-0.004,0.979,-0.122,0.488,-1.343,0.763,66.667,739421.000,1.000
-3.388,6.971,-131.367,2.394,9.000,5.563,3.289,2.098,-0.005,0.979,-0.121,0.641,-1.404,0.702,66.667,739422.000,1.000
-4.128,6.627,-128.510,2.066,7.092,5.766,2.636,1.562,-0.004,0.979,-0.118,0.641,-1.465,0.671,66.667,739423.000,1.000
-6.115,3.848,-126.780,0.759,3.844,3.663,-0.058,-0.728,-0.002,0.979,-0.120,0.702,-1.434,0.671,66.667,739424.000,1.000
-8.881,-0.357,-126.002,-0.957,0.298,0.242,-3.385,-3.653,0.000,0.978,-0.122,0.641,-1.404,0.763,66.667,739425.000,1.000
-11.358,-4.300,-125.570,-2.220,-2.337,-2.943,-5.463,-5.499,0.001,0.976,-0.119,0.488,-1.343,0.824,66.667,739426.000,1.000
-12.492,-6.439,-124.789,-2.381,-3.314,-4.445,-5.208,-5.130,0.000,0.975,-0.119,0.488,-1.312,0.916,66.667,739427.000,1.000
-11.849,-6.101,-123.189,-1.382,-2.657,-3.688,-2.971,-2.659,0.001,0.973,-0.119,0.519,-1.251,1.007,66.667,739428.000,1.000
-9.776,-3.685,-120.602,0.284,-0.979,-1.283,0.001,0.844,0.000,0.974,-0.118,0.580,-1.221,1.099,66.667,739429.000,1.000
-7.071,-0.325,-117.133,1.857,0.887,1.453,2.371,3.968,0.000,0.976,-0.120,0.610,-1.160,1.007,66.667,739430.000,1.000
-4.555,2.585,-113.132,2.620,2.132,3.244,3.077,5.419,-0.002,0.977,-0.124,0.702,-1.129,1.099,66.667,739431.000,1.000
-2.810,4.001,-108.952,2.268,2.267,3.415,1.779,4.598,-0.001,0.978,-0.122,0.580,-1.007,1.129,66.667,739432.000,1.000
-2.048,3.752,-104.657,1.117,1.396,2.097,-0.887,2.024,-0.002,0.980,-0.120,0.549,-0.977,1.190,66.667,739433.000,1.000
-2.145,2.436,-100.227,-0.192,0.026,-0.065,-3.841,-1.031,-0.003,0.980,-0.120,0.549,-1.038,1.343,66.667,739434.000,1.000
-2.733,0.860,-95.991,-1.129,-1.331,-2.320,-6.227,-3.422,-0.003,0.980,-0.118,0.458,-1.038,1.312,66.667,739435.000,1.000
-3.281,-0.327,-92.538,-1.381,-2.244,-3.941,-7.523,-4.593,-0.004,0.980,-0.122,0.366,-0.946,1.373,66.667,739436.000,1.000
-3.355,-0.845,-90.263,-0.847,-2.358,-4.536,-7.510,-4.508,-0.005,0.980,-0.125,0.397,-1.038,1.434,66.667,739437.000,1.000
-2.850,-0.830,-89.036,0.295,-1.583,-4.481,-6.544,-3.528,-0.008,0.981,-0.125,0.488,-0.977,1.434,66.667,739438.000,1.000
-1.822,-0.535,-88.218,1.694,-0.152,-4.561,-5.379,-2.195,-0.007,0.982,-0.126,0.427,-1.190,1.312,66.667,739439.000,1.000
-0.321,-0.034,-87.083,3.034,1.583,-5.094,-4.352,-0.885,-0.006,0.983,-0.123,0.397,-1.343,1.160,66.667,739440.000,1.000
1.474,0.707,-85.452,4.061,3.249,-5.715,-3.139,0.254,-0.009,0.987,-0.123,0.275,-1.404,1.129,66.667,739441.000,1.000
3.182,1.596,-83.899,4.517,4.344,-5.967,-1.590,0.937,-0.009,0.989,-0.123,0.061,-1.434,1.038,66.667,739442.000,1.000
4.393,2.308,-83.301,4.207,4.315,-5.756,-0.348,0.637,-0.009,0.991,-0.120,-0.061,-1.587,1.038,66.667,739443.000,1.000
4.828,2.380,-84.207,3.131,2.922,-5.315,-0.289,-0.968,-0.007,0.992,-0.121,-0.092,-1.556,1.038,66.667,739444.000,1.000
4.428,1.464,-86.593,1.526,0.408,-5.163,-1.809,-3.646,-0.006,0.994,-0.120,-0.275,-1.587,0.977,66.667,739445.000,1.000
3.594,-0.281,-89.839,-0.130,-2.532,-5.977,-4.662,-6.594,-0.003,0.993,-0.118,-0.458,-1.801,1.038,66.667,739446.000,1.000
3.254,-1.958,-92.806,-1.146,-4.802,-7.961,-7.849,-8.583,-0.001,0.993,-0.119,-0.702,-1.862,1.007,66.667,739447.000,1.000
4.354,-2.336,-94.280,-0.948,-5.244,-10.304,-9.817,-8.485,0.000,0.991,-0.120,-0.854,-1.740,1.038,66.667,739448.000,1.000
7.027,-0.805,-93.741,0.391,-3.420,-11.605,-9.371,-6.089,0.000,0.991,-0.120,-1.007,-1.709,1.099,66.667,739449.000,1.000
10.307,2.062,-91.667,2.070,-0.083,-10.946,-6.470,-2.300,0.000,0.992,-0.120,-1.068,-1.709,1.190,66.667,739450.000,1.000
12.762,4.974,-89.004,3.157,3.303,-8.501,-2.077,1.494,0.002,0.989,-0.119,-1.068,-1.648,1.282,66.667,739451.000,1.000
13.546,6.882,-86.448,3.296,5.535,-5.291,2.424,4.201,0.002,0.988,-0.120,-1.099,-1.526,1.373,66.667,739452.000,1.000
13.005,7.583,-84.025,2.977,6.371,-2.418,5.670,5.548,-0.001,0.985,-0.118,-1.099,-1.434,1.495,66.667,739453.000,1.000
12.352,7.685,-81.140,3.169,6.537,-0.324,7.078,6.174,0.000,0.983,-0.118,-1.129,-1.404,1.434,66.667,739454.000,1.000
12.656,8.039,-77.138,4.492,6.953,1.265,7.184,6.822,0.001,0.980,-0.118,-1.007,-1.312,1.465,66.667,739455.000,1.000
14.065,9.029,-71.997,6.597,7.842,2.707,6.659,7.310,0.000,0.976,-0.118,-1.007,-1.312,1.434,66.667,739456.000,1.000
15.895,10.282,-66.464,8.436,8.617,4.002,5.612,6.742,-0.002,0.975,-0.117,-0.854,-1.282,1.251,66.667,739457.000,1.000
17.228,10.989,-61.576,9.072,8.509,4.840,4.070,4.563,-0.002,0.973,-0.119,-0.732,-1.312,1.221,66.667,739458.000,1.000
17.369,10.476,-58.113,8.256,7.173,4.752,2.272,1.099,-0.002,0.973,-0.115,-0.702,-1.190,1.129,66.667,739459.000,1.000
16.171,8.708,-56.210,6.522,5.005,3.506,0.481,-2.507,-0.003,0.971,-0.115,-0.488,-1.221,0.977,66.667,739460.000,1.000
14.186,6.426,-55.239,4.907,3.083,1.656,-0.908,-4.721,-0.001,0.972,-0.117,-0.305,-1.190,0.854,66.667,739461.000,1.000
12.234,4.648,-54.299,4.246,2.433,0.326,-1.367,-4.562,-0.001,0.969,-0.118,-0.183,-1.221,0.793,66.667,739462.000,1.000
10.589,3.792,-53.053,4.444,2.991,0.130,-0.945,-2.592,-0.002,0.969,-0.115,0.061,-1.099,0.732,66.667,739463.000,1.000
8.715,3.313,-51.950,4.485,3.474,0.573,-0.642,-0.766,-0.001,0.968,-0.115,0.183,-1.129,0.641,66.667,739464.000,1.000
5.930,2.335,-51.462,3.400,2.602,0.703,-1.480,-0.821,0.000,0.968,-0.114,0.397,-1.160,0.549,66.667,739465.000,1.000
2.238,0.603,-51.300,1.204,0.397,0.154,-3.391,-2.726,-0.003,0.968,-0.115,0.641,-1.068,0.427,66.667,739466.000,1.000
-1.617,-1.275,-50.730,-1.225,-1.961,-0.619,-5.307,-4.901,-0.004,0.969,-0.117,0.946,-1.068,0.366,66.667,739467.000,1.000
-4.818,-2.434,-49.529,-2.988,-3.274,-0.912,-6.076,-5.734,-0.005,0.968,-0.117,1.099,-1.129,0.427,66.667,739468.000,1.000
-7.102,-2.521,-48.417,-3.783,-3.159,-0.411,-5.171,-4.723,-0.004,0.970,-0.115,1.282,-1.160,0.336,66.667,739469.000,1.000
-8.863,-1.975,-48.565,-3.955,-2.160,0.551,-2.946,-2.516,-0.005,0.971,-0.116,1.526,-1.129,0.336,66.667,739470.000,1.000
-10.735,-1.676,-50.575,-4.151,-1.325,1.177,-0.557,-0.256,-0.006,0.972,-0.116,1.556,-1.160,0.305,66.667,739471.000,1.000
-13.047,-2.255,-53.743,-4.837,-1.465,0.788,0.728,1.152,-0.006,0.975,-0.116,1.526,-1.160,0.336,66.667,739472.000,1.000
-15.527,-3.621,-56.277,-5.947,-2.524,-0.538,0.647,1.514,-0.007,0.977,-0.117,1.740,-1.160,0.458,66.667,739473.000,1.000
-17.428,-5.075,-56.356,-6.947,-3.644,-2.011,0.395,1.371,-0.006,0.977,-0.115,1.678,-1.221,0.488,66.667,739474.000,1.000
-17.963,-5.880,-53.210,-7.274,-3.938,-2.987,1.454,1.532,-0.005,0.979,-0.121,1.709,-1.251,0.702,66.667,739475.000,1.000
-16.903,-5.849,-47.496,-6.817,-3.278,-3.610,3.684,2.339,-0.006,0.980,-0.121,1.587,-1.282,0.763,66.667,739476.000,1.000
-14.971,-5.568,-40.949,-6.089,-2.436,-4.619,4.970,3.155,-0.007,0.983,-0.119,1.556,-1.404,0.946,66.667,739477.000,1.000
-13.443,-5.895,-35.513,-5.824,-2.378,-6.602,3.094,2.821,-0.006,0.983,-0.119,1.434,-1.404,1.007,66.667,739478.000,1.000
-13.109,-7.131,-32.305,-6.252,-3.356,-9.329,-2.115,0.804,-0.006,0.984,-0.121,1.282,-1.282,1.068,66.667,739479.000,1.000
-13.590,-8.645,-31.044,-6.831,-4.674,-11.646,-8.371,-2.186,-0.005,0.984,-0.118,1.221,-1.434,1.251,66.667,739480.000,1.000
-13.642,-9.272,-30.351,-6.664,-5.152,-11.990,-12.291,-4.605,-0.006,0.985,-0.120,1.099,-1.465,1.343,66.667,739481.000,1.000
-12.159,-8.149,-28.827,-5.200,-3.909,-9.393,-11.503,-5.081,-0.006,0.985,-0.119,1.038,-1.465,1.465,66.667,739482.000,1.000
-8.981,-5.411,-26.054,-2.661,-1.041,-4.419,-6.383,-3.368,-0.005,0.987,-0.121,0.946,-1.495,1.404,66.667,739483.000,1.000
-4.883,-2.122,-22.661,0.091,2.372,0.975,0.090,-0.582,-0.006,0.986,-0.121,0.641,-1.556,1.495,66.667,739484.000,1.000
-1.008,0.458,-19.736,2.053,4.959,4.737,4.495,1.504,-0.007,0.988,-0.124,0.427,-1.556,1.495,66.667,739485.000,1.000
1.690,1.581,-18.364,2.585,5.828,5.954,5.116,1.586,-0.006,0.987,-0.123,0.397,-1.556,1.556,66.667,739486.000,1.000
2.897,1.309,-19.254,1.748,4.939,5.061,2.573,-0.334,-0.006,0.987,-0.120,0.214,-1.526,1.526,66.667,739487.000,1.000
3.128,0.434,-22.303,0.327,3.095,3.368,-0.879,-2.888,-0.006,0.988,-0.123,0.153,-1.526,1.495,66.667,739488.000,1.000
3.271,-0.037,-26.630,-0.678,1.444,2.328,-2.939,-4.297,-0.006,0.986,-0.115,0.000,-1.556,1.556,66.667,739489.000,1.000
3.751,0.310,-31.287,-0.806,0.614,2.567,-2.912,-3.730,-0.004,0.985,-0.118,-0.092,-1.526,1.465,66.667,739490.000,1.000
4.298,0.990,-35.793,-0.396,0.332,3.433,-1.890,-1.830,-0.003,0.983,-0.117,-0.244,-1.526,1.404,66.667,739491.000,1.000
4.397,1.148,-39.973,-0.167,-0.125,3.682,-1.331,-0.005,-0.002,0.979,-0.121,-0.427,-1.404,1.282,66.667,739492.000,1.000
3.711,0.239,-43.578,-0.686,-1.306,2.581,-1.822,0.641,-0.001,0.977,-0.121,-0.519,-1.282,1.343,66.667,739493.000,1.000
2.177,-1.718,-46.196,-2.065,-3.285,0.327,-3.008,-0.071,0.002,0.974,-0.120,-0.397,-1.221,1.221,66.667,739494.000,1.000
-0.006,-4.211,-47.472,-3.890,-5.618,-2.294,-4.064,-1.427,0.005,0.973,-0.121,-0.366,-1.160,1.190,66.667,739495.000,1.000
-2.448,-6.577,-47.392,-5.481,-7.622,-4.600,-4.231,-2.354,0.006,0.978,-0.126,-0.214,-1.007,1.190,66.667,739496.000,1.000
-4.785,-8.482,-46.395,-6.402,-8.923,-6.544,-3.402,-2.247,0.003,0.979,-0.124,-0.061,-0.763,1.221,66.667,739497.000,1.000
-6.793,-10.007,-45.004,-6.746,-9.714,-8.451,-2.359,-1.501,0.002,0.979,-0.124,-0.092,-0.610,1.160,66.667,739498.000,1.000
-8.280,-11.238,-43.310,-6.885,-10.381,-10.260,-2.219,-1.161,0.006,0.978,-0.122,-0.153,-0.580,1.282,66.667,739499.000,1.000
-9.065,-11.981,-40.977,-7.051,-11.070,-11.417,-3.626,-2.017,0.005,0.979,-0.123,-0.122,-0.366,1.343,66.667,739500.000,1.000
-9.163,-12.008,-37.810,-7.215,-11.639,-11.538,-6.326,-4.042,0.005,0.980,-0.121,-0.122,-0.275,1.373,66.667,739501.000,1.000
-8.897,-11.455,-34.272,-7.270,-11.864,-10.887,-9.257,-6.496,0.003,0.978,-0.118,0.000,-0.122,1.434,66.667,739502.000,1.000
-8.771,-10.923,-31.500,-7.285,-11.738,-10.296,-11.274,-8.447,-0.001,0.978,-0.120,0.122,0.061,1.495,66.667,739503.000,1.000
-9.261,-11.212,-30.818,-7.557,-11.629,-10.755,-11.955,-9.370,-0.005,0.978,-0.119,0.061,0.092,1.434,66.667,739504.000,1.000
-10.588,-12.746,-32.917,-8.346,-11.990,-12.714,-11.657,-9.426,-0.007,0.978,-0.118,0.031,0.031,1.068,66.667,739505.000,1.000
-12.402,-15.014,-37.097,-9.441,-12.740,-15.341,-10.825,-9.039,-0.010,0.976,-0.119,0.000,-0.122,1.038,66.667,739506.000,1.000
-13.759,-16.671,-41.352,-10.044,-13.045,-16.722,-9.480,-8.257,-0.012,0.974,-0.118,0.031,-0.153,0.977,66.667,739507.000,1.000
-13.660,-16.436,-43.604,-9.295,-11.937,-15.372,-7.495,-6.750,-0.008,0.975,-0.117,0.031,-0.305,0.763,66.667,739508.000,1.000
-11.746,-13.967,-42.976,-6.981,-9.143,-11.483,-5.047,-4.340,-0.010,0.973,-0.119,0.031,-0.427,0.641,66.667,739509.000,1.000
-8.482,-9.932,-39.809,-3.686,-5.238,-6.446,-2.519,-1.254,-0.009,0.971,-0.118,0.122,-0.519,0.580,66.667,739510.000,1.000
-4.831,-5.514,-34.871,-0.408,-1.190,-1.719,-0.204,2.039,-0.006,0.972,-0.117,0.244,-0.549,0.519,66.667,739511.000,1.000
-1.862,-1.924,-29.047,1.895,2.062,1.666,1.716,4.980,-0.006,0.977,-0.118,0.366,-0.641,0.641,66.667,739512.000,1.000
-0.310,0.075,-23.293,2.740,3.955,3.288,3.170,7.094,-0.004,0.978,-0.123,0.366,-0.793,0.671,66.667,739513.000,1.000
-0.261,0.526,-18.364,2.356,4.557,3.536,4.326,8.205,-0.004,0.978,-0.121,0.336,-0.793,0.763,66.667,739514.000,1.000
-1.349,0.055,-14.695,1.384,4.343,3.291,5.485,8.350,-0.001,0.979,-0.123,0.397,-0.885,0.946,66.667,739515.000,1.000
-3.157,-0.762,-12.551,0.327,3.687,3.151,6.632,7.496,-0.004,0.979,-0.120,0.458,-0.854,1.007,66.667,739516.000,1.000
-5.306,-1.731,-11.997,-0.689,2.625,2.995,7.238,5.599,-0.005,0.982,-0.118,0.549,-0.916,1.251,66.667,739517.000,1.000
-7.296,-2.833,-12.562,-1.723,1.100,2.350,6.838,3.003,-0.005,0.984,-0.121,0.519,-0.977,1.373,66.667,739518.000,1.000
-8.497,-3.873,-13.053,-2.719,-0.691,1.124,5.809,0.528,-0.005,0.985,-0.121,0.549,-1.038,1.556,66.667,739519.000,1.000
-8.445,-4.465,-12.071,-3.514,-2.350,-0.292,4.977,-1.118,-0.005,0.985,-0.121,0.549,-1.068,1.526,66.667,739520.000,1.000
-7.215,-4.339,-8.915,-4.060,-3.598,-1.398,4.687,-1.852,-0.007,0.986,-0.120,0.427,-1.038,1.587,66.667,739521.000,1.000
-5.466,-3.544,-3.971,-4.420,-4.364,-1.759,4.850,-2.033,-0.007,0.987,-0.118,0.305,-1.160,1.740,66.667,739522.000,1.000
-4.058,-2.470,1.686,-4.599,-4.730,-1.232,5.196,-2.091,-0.005,0.988,-0.118,0.214,-1.190,1.770,66.667,739523.000,1.000
-3.529,-1.704,6.929,-4.479,-4.872,-0.338,5.086,-2.307,-0.004,0.988,-0.117,0.214,-1.221,1.770,66.667,739524.000,1.000
-3.700,-1.574,11.074,-3.832,-4.784,0.130,4.042,-2.534,-0.003,0.985,-0.119,0.183,-1.312,1.678,66.667,739525.000,1.000
-3.761,-1.804,13.977,-2.457,-4.098,-0.020,2.680,-2.248,-0.002,0.986,-0.121,0.061,-1.251,1.709,66.667,739526.000,1.000
-2.954,-1.823,15.727,-0.510,-2.532,-0.374,2.312,-1.160,-0.002,0.987,-0.122,0.031,-1.221,1.648,66.667,739527.000,1.000
-1.156,-1.248,16.558,1.438,-0.338,-0.481,3.500,0.383,0.000,0.983,-0.119,-0.092,-1.160,1.678,66.667,739528.000,1.000
1.267,0.083,17.096,2.845,1.973,0.090,5.539,1.780,-0.001,0.982,-0.119,-0.122,-1.221,1.617,66.667,739529.000,1.000
3.837,2.140,18.223,3.540,4.005,1.724,7.245,2.639,0.000,0.982,-0.120,-0.122,-1.160,1.617,66.667,739530.000,1.000
6.086,4.551,20.431,3.655,5.483,4.316,7.897,2.811,0.001,0.980,-0.119,-0.092,-1.099,1.526,66.667,739531.000,1.000
7.568,6.664,23.396,3.424,6.229,7.135,7.613,2.353,0.000,0.978,-0.123,-0.092,-1.007,1.343,66.667,739532.000,1.000
7.968,7.786,26.120,3.023,6.188,9.165,6.960,1.538,0.001,0.976,-0.121,-0.092,-0.946,1.251,66.667,739533.000,1.000
7.232,7.432,27.539,2.430,5.379,9.561,6.229,0.696,0.000,0.974,-0.119,0.000,-1.007,1.190,66.667,739534.000,1.000
5.661,5.617,27.285,1.517,3.911,8.022,5.193,0.019,0.002,0.973,-0.121,0.153,-0.916,1.099,66.667,739535.000,1.000
3.808,2.919,26.005,0.285,2.054,4.887,3.428,-0.522,0.000,0.972,-0.125,0.366,-0.946,0.916,66.667,739536.000,1.000
2.177,0.173,24.869,-1.040,0.187,1.000,0.805,-1.118,0.000,0.970,-0.125,0.458,-0.763,0.793,66.667,739537.000,1.000
1.088,-1.840,24.750,-2.115,-1.279,-2.516,-2.151,-1.868,-0.001,0.972,-0.122,0.549,-0.671,0.610,66.667,739538.000,1.000
0.696,-2.578,25.765,-2.649,-1.993,-4.603,-4.340,-2.510,0.000,0.972,-0.121,0.671,-0.610,0.610,66.667,739539.000,1.000
1.005,-1.908,27.394,-2.543,-1.869,-4.745,-4.750,-2.564,-0.001,0.973,-0.122,0.732,-0.580,0.549,66.667,739540.000,1.000
1.951,-0.147,29.015,-1.938,-1.256,-3.290,-3.302,-1.913,-0.003,0.973,-0.119,0.824,-0.671,0.397,66.667,739541.000,1.000
3.433,2.080,30.299,-1.168,-0.858,-1.349,-1.244,-1.245,-0.004,0.974,-0.119,0.946,-0.702,0.580,66.667,739542.000,1.000
5.220,4.089,31.241,-0.571,-1.260,-0.086,-0.249,-1.510,-0.005,0.977,-0.118,0.946,-0.702,0.488,66.667,739543.000,1.000
7.009,5.468,32.107,-0.229,-2.292,0.234,-0.628,-2.787,-0.007,0.978,-0.120,0.977,-0.641,0.427,66.667,739544.000,1.000
8.594,6.280,33.390,0.125,-3.023,0.430,-1.041,-4.057,-0.007,0.978,-0.121,0.916,-0.671,0.458,66.667,739545.000,1.000
9.890,6.884,35.518,0.882,-2.542,1.449,-0.180,-4.135,-0.007,0.981,-0.119,0.854,-0.854,0.427,66.667,739546.000,1.000
10.805,7.522,38.378,2.196,-0.707,3.395,2.113,-2.576,-0.007,0.984,-0.120,0.793,-0.824,0.427,66.667,739547.000,1.000
11.171,8.036,41.135,3.799,1.809,5.524,5.233,0.057,-0.007,0.982,-0.123,0.702,-1.007,0.610,66.667,739548.000,1.000
10.657,7.854,42.425,4.975,3.818,6.787,8.119,2.306,-0.009,0.982,-0.122,0.702,-1.068,0.671,66.667,739549.000,1.000
8.874,6.310,40.945,4.873,4.107,6.333,9.271,2.515,-0.009,0.981,-0.119,0.702,-1.129,0.671,66.667,739550.000,1.000
5.835,3.259,36.497,3.192,2.231,4.066,7.682,0.101,-0.009,0.982,-0.121,0.519,-1.251,0.702,66.667,739551.000,1.000
2.265,-0.556,30.602,0.560,-1.060,0.924,3.964,-3.867,-0.008,0.981,-0.118,0.305,-1.373,0.793,66.667,739552.000,1.000
-0.748,-3.855,25.778,-1.862,-4.328,-1.659,0.008,-7.490,-0.008,0.980,-0.120,0.305,-1.465,0.854,66.667,739553.000,1.000
-2.460,-5.624,23.922,-3.122,-6.373,-2.710,-2.389,-9.336,-0.010,0.981,-0.121,0.153,-1.556,0.854,66.667,739554.000,1.000
-2.916,-5.720,25.062,-2.977,-6.867,-2.219,-2.435,-9.137,-0.009,0.981,-0.120,0.092,-1.648,0.977,66.667,739555.000,1.000
-2.831,-4.897,27.393,-1.924,-6.398,-0.940,-0.488,-7.670,-0.008,0.982,-0.117,0.031,-1.678,1.099,66.667,739556.000,1.000
-3.057,-4.286,28.564,-0.884,-6.025,0.088,2.110,-6.242,-0.008,0.982,-0.120,-0.122,-1.740,1.129,66.667,739557.000,1.000
-4.019,-4.643,27.318,-0.659,-6.516,-0.005,3.701,-5.930,-0.008,0.980,-0.119,-0.183,-1.709,1.160,66.667,739558.000,1.000
-5.493,-5.863,24.200,-1.465,-7.786,-1.537,3.477,-6.919,-0.007,0.979,-0.122,-0.305,-1.770,1.160,66.667,739559.000,1.000
-6.859,-7.210,20.857,-2.946,-9.106,-4.101,1.911,-8.517,-0.007,0.977,-0.122,-0.366,-1.801,1.068,66.667,739560.000,1.000
-7.632,-8.060,18.723,-4.570,-9.801,-6.806,-0.106,-9.838,-0.007,0.977,-0.121,-0.366,-1.923,1.068,66.667,739561.000,1.000
-7.778,-8.337,18.278,-5.965,-9.682,-8.684,-2.046,-10.438,-0.006,0.976,-0.121,-0.336,-1.862,1.129,66.667,739562.000,1.000
-7.507,-8.229,19.326,-6.878,-8.872,-8.959,-3.576,-10.380,-0.004,0.976,-0.121,-0.336,-1.923,1.190,66.667,739563.000,1.000
-6.982,-7.822,21.454,-7.113,-7.576,-7.449,-4.404,-9.921,-0.004,0.978,-0.120,-0.458,-1.892,1.190,66.667,739564.000,1.000
-6.446,-7.215,23.949,-6.733,-6.169,-4.959,-4.624,-9.360,-0.002,0.979,-0.118,-0.427,-1.801,1.190,66.667,739565.000,1.000
-6.331,-6.649,25.684,-6.178,-5.139,-2.786,-4.609,-8.955,-0.003,0.978,-0.122,-0.458,-1.831,1.221,66.667,739566.000,1.000
-6.987,-6.276,25.547,-5.924,-4.777,-1.704,-4.448,-8.685,-0.003,0.979,-0.120,-0.366,-1.678,1.129,66.667,739567.000,1.000
-8.292,-5.973,23.140,-6.020,-5.005,-1.709,-3.921,-8.178,-0.002,0.979,-0.118,-0.580,-1.617,1.221,66.667,739568.000,1.000
-9.588,-5.471,19.051,-6.068,-5.495,-2.430,-2.846,-7.056,-0.001,0.983,-0.121,-0.610,-1.587,1.221,66.667,739569.000,1.000
-9.990,-4.586,14.558,-5.578,-5.857,-3.397,-1.302,-5.345,-0.002,0.980,-0.120,-0.671,-1.495,1.312,66.667,739570.000,1.000
-8.843,-3.299,11.066,-4.289,-5.728,-4.154,0.243,-3.452,0.000,0.980,-0.120,-0.610,-1.404,1.312,66.667,739571.000,1.000
-6.225,-1.806,9.356,-2.348,-4.927,-4.436,1.150,-1.783,0.000,0.979,-0.125,-0.641,-1.282,1.373,66.667,739572.000,1.000
-3.014,-0.498,9.087,-0.276,-3.652,-4.209,1.115,-0.530,0.000,0.980,-0.123,-0.702,-1.038,1.404,66.667,739573.000,1.000
-0.242,0.323,9.205,1.337,-2.396,-3.500,0.304,0.232,0.000,0.980,-0.120,-0.641,-0.885,1.526,66.667,739574.000,1.000
1.692,0.723,8.974,2.243,-1.556,-2.315,-0.793,0.499,-0.001,0.981,-0.117,-0.671,-0.702,1.465,66.667,739575.000,1.000
3.183,1.153,8.612,2.654,-1.040,-0.637,-1.384,0.485,-0.001,0.983,-0.117,-0.671,-0.580,1.465,66.667,739576.000,1.000
4.862,2.085,8.878,2.913,-0.438,1.486,-0.710,0.515,-0.001,0.981,-0.121,-0.885,-0.458,1.526,66.667,739577.000,1.000
6.885,3.527,10.117,3.080,0.433,3.714,1.099,0.653,-0.001,0.980,-0.120,-0.763,-0.366,1.587,66.667,739578.000,1.000
8.826,5.044,11.905,3.001,1.372,5.478,2.780,0.682,-0.003,0.980,-0.121,-0.793,-0.275,1.648,66.667,739579.000,1.000
10.192,6.263,13.469,2.683,2.138,6.454,3.028,0.559,-0.003,0.980,-0.118,-0.732,-0.244,1.587,66.667,739580.000,1.000
10.918,7.287,14.297,2.482,2.865,7.029,2.045,0.837,-0.002,0.979,-0.116,-0.793,0.000,1.495,66.667,739581.000,1.000
11.497,8.716,14.549,2.999,4.183,8.298,1.831,2.430,-0.002,0.978,-0.118,-0.763,-0.031,1.495,66.667,739582.000,1.000
12.687,11.226,14.943,4.664,6.773,11.299,4.344,5.686,-0.003,0.979,-0.121,-0.824,0.092,1.526,66.667,739583.000,1.000
14.878,14.863,16.042,7.190,10.510,15.815,9.148,9.677,-0.001,0.977,-0.121,-0.763,0.153,1.373,66.667,739584.000,1.000
17.680,18.724,17.713,9.597,14.257,20.100,13.429,12.667,-0.002,0.976,-0.121,-0.641,0.214,1.373,66.667,739585.000,1.000
20.144,21.417,19.195,10.878,16.623,22.063,14.429,13.382,-0.001,0.977,-0.119,-0.519,0.122,1.312,66.667,739586.000,1.000
21.388,21.916,19.586,10.606,16.801,20.723,11.500,11.835,-0.002,0.979,-0.120,-0.488,0.275,1.312,66.667,739587.000,1.000
21.151,20.212,18.495,9.107,14.964,16.776,6.252,9.214,-0.004,0.978,-0.119,-0.458,0.397,1.312,66.667,739588.000,1.000
19.796,17.231,16.291,7.214,12.107,12.075,1.371,7.090,-0.004,0.979,-0.119,-0.427,0.305,1.251,66.667,739589.000,1.000
17.814,14.078,13.643,5.720,9.423,8.358,-0.978,6.456,-0.004,0.980,-0.116,-0.397,0.366,1.282,66.667,739590.000,1.000
15.526,11.499,11.088,5.006,7.781,6.358,-0.126,7.342,-0.005,0.979,-0.118,-0.214,0.275,1.282,66.667,739591.000,1.000
13.115,9.855,8.994,4.999,7.536,5.888,3.161,9.130,-0.004,0.981,-0.115,-0.092,0.305,1.312,66.667,739592.000,1.000
10.582,9.073,7.466,5.259,8.397,6.348,7.188,10.967,-0.008,0.978,-0.115,-0.031,0.244,1.312,66.667,739593.000,1.000
7.642,8.526,6.241,5.152,9.430,7.016,10.049,12.027,-0.008,0.979,-0.118,0.031,0.214,1.343,66.667,739594.000,1.000
3.915,7.326,5.020,4.193,9.533,7.265,10.641,11.756,-0.007,0.978,-0.117,0.092,0.061,1.434,66.667,739595.000,1.000
-0.537,5.072,4.046,2.434,8.240,6.894,9.236,10.165,-0.008,0.979,-0.117,0.122,0.031,1.434,66.667,739596.000,1.000
-4.920,2.278,4.081,0.490,6.082,6.216,6.980,7.891,-0.008,0.978,-0.119,0.153,-0.061,1.373,66.667,739597.000,1.000
-8.097,-0.065,5.507,-0.879,4.136,5.754,4.997,5.874,-0.008,0.981,-0.117,0.183,-0.183,1.221,66.667,739598.000,1.000
-9.298,-1.222,7.618,-1.198,3.324,5.964,4.110,4.901,-0.008,0.981,-0.118,0.183,-0.214,1.373,66.667,739599.000,1.000
-8.558,-1.028,9.029,-0.489,3.936,7.074,4.750,5.177,-0.007,0.981,-0.120,0.183,-0.244,1.404,66.667,739600.000,1.000
-6.691,0.150,8.732,0.716,5.425,8.737,6.445,6.096,-0.006,0.981,-0.120,0.183,-0.458,1.465,66.667,739601.000,1.000
-4.856,1.579,6.763,1.644,6.688,9.997,7.876,6.668,-0.006,0.982,-0.119,0.214,-0.519,1.404,66.667,739602.000,1.000
-3.972,2.493,4.083,1.761,6.835,9.923,8.027,6.340,-0.002,0.980,-0.117,0.244,-0.671,1.434,66.667,739603.000,1.000
-4.409,2.389,1.818,0.955,5.702,8.212,7.035,5.107,-0.004,0.979,-0.116,0.183,-0.702,1.465,66.667,739604.000,1.000
-6.033,1.176,0.519,-0.608,3.664,5.273,5.571,2.989,-0.004,0.978,-0.118,0.183,-0.671,1.434,66.667,739605.000,1.000
-8.238,-0.758,0.095,-2.510,1.289,2.000,3.825,0.043,-0.002,0.979,-0.118,0.244,-0.671,1.434,66.667,739606.000,1.000
-10.060,-2.666,0.245,-4.068,-0.871,-0.613,1.635,-3.257,-0.003,0.981,-0.118,0.244,-0.793,1.343,66.667,739607.000,1.000
-10.595,-3.807,0.855,-4.640,-2.414,-1.828,-0.781,-6.069,-0.003,0.980,-0.119,0.244,-0.885,1.465,66.667,739608.000,1.000
-9.468,-3.809,2.092,-4.018,-3.138,-1.280,-2.624,-7.555,-0.004,0.980,-0.122,0.214,-0.885,1.373,66.667,739609.000,1.000
-7.016,-2.819,4.097,-2.518,-3.009,1.034,-2.989,-7.239,-0.001,0.978,-0.120,0.366,-0.977,1.343,66.667,739610.000,1.000
-4.082,-1.471,6.544,-0.749,-2.183,4.548,-1.762,-5.369,-0.002,0.977,-0.116,0.336,-0.946,1.343,66.667,739611.000,1.000
-1.599,-0.626,8.600,0.667,-1.092,7.794,-0.166,-3.031,-0.004,0.979,-0.119,0.366,-0.977,1.373,66.667,739612.000,1.000
-0.157,-0.858,9.544,1.397,-0.221,8.892,0.147,-1.442,-0.004,0.979,-0.117,0.427,-1.007,1.251,66.667,739613.000,1.000
0.280,-1.902,9.524,1.662,0.412,7.084,-1.087,-0.890,-0.004,0.981,-0.118,0.366,-1.068,1.190,66.667,739614.000,1.000
0.348,-2.654,9.651,2.132,1.356,3.626,-2.286,-0.616,-0.003,0.982,-0.115,0.549,-1.099,1.312,66.667,739615.000,1.000
0.805,-2.040,11.224,3.328,3.092,0.757,-1.654,0.170,-0.001,0.981,-0.116,0.366,-1.099,1.129,66.667,739616.000,1.000
1.921,0.057,14.766,5.063,5.413,0.042,1.176,1.448,-0.002,0.982,-0.116,0.397,-1.129,1.099,66.667,739617.000,1.000
3.393,2.778,19.692,6.612,7.623,1.767,5.147,2.611,-0.002,0.983,-0.117,0.366,-1.160,1.160,66.667,739618.000,1.000
4.668,4.961,24.698,7.257,9.040,5.135,8.639,3.098,-0.002,0.981,-0.117,0.336,-1.251,1.160,66.667,739619.000,1.000
5.179,5.689,28.311,6.536,9.160,8.577,10.204,2.673,-0.001,0.984,-0.118,0.244,-1.251,1.099,66.667,739620.000,1.000
4.585,4.681,29.505,4.339,7.763,10.488,9.310,1.487,-0.001,0.982,-0.121,0.305,-1.068,1.099,66.667,739621.000,1.000
3.030,2.433,28.206,1.026,5.091,10.162,6.621,-0.032,-0.001,0.982,-0.118,0.244,-1.160,1.099,66.667,739622.000,1.000
1.093,-0.170,25.279,-2.693,1.712,7.920,3.226,-1.598,-0.001,0.982,-0.117,0.153,-1.099,1.007,66.667,739623.000,1.000
-0.556,-2.477,21.939,-6.139,-1.897,4.401,-0.221,-3.315,-0.001,0.980,-0.119,0.092,-1.068,1.068,66.667,739624.000,1.000
-1.547,-4.343,19.037,-8.957,-5.527,0.056,-3.539,-5.406,0.000,0.979,-0.120,0.092,-1.068,1.129,66.667,739625.000,1.000
-2.051,-5.963,16.751,-11.128,-9.074,-4.719,-6.657,-7.878,-0.001,0.978,-0.120,0.031,-1.160,1.099,66.667,739626.000,1.000
-2.621,-7.567,14.941,-12.833,-12.358,-9.360,-9.476,-10.596,-0.002,0.979,-0.120,0.000,-1.068,1.038,66.667,739627.000,1.000
-3.620,-9.175,13.857,-14.184,-15.020,-13.177,-11.750,-13.336,-0.002,0.979,-0.122,0.000,-0.977,1.221,66.667,739628.000,1.000
-4.676,-10.379,14.404,-14.898,-16.396,-15.369,-12.751,-15.492,-0.001,0.980,-0.119,-0.031,-0.885,1.251,66.667,739629.000,1.000
-4.783,-10.463,17.579,-14.330,-15.749,-15.264,-11.689,-16.178,-0.001,0.980,-0.120,0.031,-0.946,1.190,66.667,739630.000,1.000
-3.079,-9.022,23.436,-12.048,-12.919,-12.913,-8.849,-14.974,0.000,0.982,-0.118,-0.061,-0.885,1.099,66.667,739631.000,1.000
0.370,-6.486,30.585,-8.346,-8.657,-9.332,-5.708,-12.309,-0.002,0.983,-0.115,-0.244,-0.885,1.099,66.667,739632.000,1.000
4.524,-3.848,36.809,-4.116,-4.185,-5.897,-3.741,-9.018,-0.002,0.981,-0.115,-0.275,-0.824,1.190,66.667,739633.000,1.000
8.044,-1.964,40.237,-0.295,-0.520,-3.598,-3.468,-5.823,-0.003,0.979,-0.114,-0.244,-0.885,1.160,66.667,739634.000,1.000
10.024,-1.232,40.122,2.485,1.807,-2.820,-4.466,-3.249,-0.003,0.979,-0.118,-0.244,-0.854,1.007,66.667,739635.000,1.000
10.260,-1.692,36.936,3.909,2.681,-3.488,-5.770,-1.648,-0.006,0.978,-0.121,-0.244,-0.885,0.946,66.667,739636.000,1.000
9.012,-3.153,31.970,3.847,2.182,-5.197,-6.441,-1.174,-0.003,0.977,-0.122,-0.244,-0.977,0.916,66.667,739637.000,1.000
6.747,-5.214,26.752,2.359,0.463,-7.401,-6.298,-1.865,-0.002,0.979,-0.120,-0.183,-1.007,0.916,66.667,739638.000,1.000
4.075,-7.324,22.547,-0.184,-2.171,-9.650,-6.137,-3.621,-0.001,0.976,-0.120,-0.275,-0.977,0.854,66.667,739639.000,1.000
1.654,-9.007,20.002,-3.137,-5.204,-11.728,-7.135,-6.080,0.001,0.978,-0.119,-0.305,-0.793,0.854,66.667,739640.000,1.000
-0.019,-10.056,19.051,-5.799,-8.034,-13.555,-9.852,-8.624,0.000,0.977,-0.119,-0.244,-0.732,0.854,66.667,739641.000,1.000
-0.819,-10.517,19.054,-7.658,-10.145,-14.955,-13.681,-10.601,0.002,0.976,-0.120,-0.244,-0.793,0.916,66.667,739642.000,1.000
-1.111,-10.638,18.959,-8.610,-11.357,-15.703,-17.474,-11.704,0.001,0.973,-0.121,-0.153,-0.702,1.007,66.667,739643.000,1.000
-1.641,-10.877,17.613,-9.046,-12.015,-15.930,-20.535,-12.163,-0.001,0.973,-0.118,-0.031,-0.671,1.068,66.667,739644.000,1.000
-3.010,-11.587,14.465,-9.506,-12.656,-16.090,-22.563,-12.341,-0.002,0.973,-0.116,-0.061,-0.702,1.160,66.667,739645.000,1.000
-5.106,-12.544,10.188,-10.128,-13.383,-16.319,-22.977,-12.103,-0.002,0.977,-0.119,-0.031,-0.580,1.160,66.667,739646.000,1.000
-7.261,-13.081,6.275,-10.600,-13.832,-16.274,-21.158,-11.045,-0.002,0.977,-0.120,-0.031,-0.519,1.221,66.667,739647.000,1.000
-8.985,-12.821,3.829,-10.616,-13.725,-15.685,-17.520,-9.312,-0.001,0.979,-0.120,0.061,-0.641,1.312,66.667,739648.000,1.000
-10.395,-12.029,2.823,-10.187,-13.131,-14.690,-13.599,-7.619,-0.003,0.981,-0.120,0.031,-0.580,1.495,66.667,739649.000,1.000
-11.904,-11.216,2.413,-9.533,-12.274,-13.611,-10.819,-6.513,-0.003,0.984,-0.119,-0.061,-0.580,1.556,66.667,739650.000,1.000
-13.646,-10.628,1.759,-8.830,-11.316,-12.711,-9.556,-6.013,-0.003,0.982,-0.123,-0.183,-0.519,1.465,66.667,739651.000,1.000
-15.191,-10.102,0.633,-8.010,-10.266,-12.098,-9.253,-5.767,-0.003,0.982,-0.122,-0.183,-0.549,1.434,66.667,739652.000,1.000
-15.765,-9.272,-0.442,-6.824,-9.005,-11.643,-9.075,-5.310,-0.003,0.984,-0.122,-0.305,-0.610,1.556,66.667,739653.000,1.000
-14.867,-7.944,-0.623,-5.183,-7.473,-11.022,-8.559,-4.408,-0.002,0.983,-0.124,-0.336,-0.671,1.617,66.667,739654.000,1.000
-12.761,-6.298,0.483,-3.393,-5.837,-9.939,-7.754,-3.270,-0.004,0.985,-0.123,-0.366,-0.702,1.648,66.667,739655.000,1.000
-10.386,-4.729,2.347,-1.988,-4.351,-8.252,-6.832,-2.292,-0.005,0.984,-0.121,-0.366,-0.824,1.587,66.667,739656.000,1.000
-8.799,-3.548,3.749,-1.337,-3.099,-5.953,-5.714,-1.607,-0.007,0.987,-0.120,-0.519,-0.854,1.587,66.667,739657.000,1.000
-8.549,-2.811,3.637,-1.368,-1.916,-3.199,-4.114,-0.909,-0.009,0.990,-0.118,-0.580,-0.916,1.495,66.667,739658.000,1.000
-9.340,-2.354,1.980,-1.641,-0.569,-0.296,-1.797,0.271,-0.007,0.990,-0.115,-0.793,-0.916,1.495,66.667,739659.000,1.000
-10.290,-1.965,-0.143,-1.728,0.979,2.420,1.111,2.064,-0.005,0.993,-0.115,-1.038,-1.038,1.251,66.667,739660.000,1.000
-10.515,-1.562,-1.215,-1.539,2.495,4.544,3.809,4.005,-0.005,0.993,-0.117,-1.251,-1.160,1.221,66.667,739661.000,1.000
-9.542,-1.176,-0.089,-1.272,3.625,5.564,5.074,5.352,-0.003,0.993,-0.119,-1.434,-1.190,1.190,66.667,739662.000,1.000
-7.394,-0.758,3.471,-1.100,4.221,5.312,4.377,5.772,-0.003,0.992,-0.117,-1.556,-1.312,1.099,66.667,739663.000,1.000
-4.492,-0.081,8.765,-0.948,4.568,4.453,2.582,5.635,-0.002,0.990,-0.121,-1.617,-1.373,1.038,66.667,739664.000,1.000
-1.517,1.001,14.550,-0.606,5.103,3.910,1.054,5.551,0.000,0.989,-0.118,-1.709,-1.343,0.916,66.667,739665.000,1.000
0.772,2.145,19.457,-0.032,5.858,3.751,0.205,5.739,0.000,0.985,-0.118,-1.831,-1.282,0.885,66.667,739666.000,1.000
1.853,2.710,22.533,0.598,6.452,3.297,-0.492,6.010,0.000,0.985,-0.116,-1.862,-1.343,0.885,66.667,739667.000,1.000
1.818,2.529,23.902,1.224,6.703,2.308,-1.175,6.296,-0.001,0.983,-0.113,-1.801,-1.312,0.854,66.667,739668.000,1.000
1.231,2.091,24.580,1.990,6.803,1.319,-1.126,6.685,-0.001,0.982,-0.115,-1.801,-1.312,1.038,66.667,739669.000,1.000
0.562,1.888,25.426,2.939,6.864,0.826,0.225,6.914,0.001,0.981,-0.115,-1.678,-1.312,0.946,66.667,739670.000,1.000
0.060,2.097,26.662,4.032,6.894,0.982,2.597,6.665,0.003,0.979,-0.114,-1.648,-1.221,1.038,66.667,739671.000,1.000
-0.005,2.812,28.147,5.410,7.096,1.889,5.224,6.240,0.001,0.978,-0.113,-1.648,-1.007,1.007,66.667,739672.000,1.000
0.609,3.985,29.504,7.196,7.578,3.322,7.071,6.169,0.000,0.977,-0.114,-1.434,-1.038,0.946,66.667,739673.000,1.000
1.840,5.140,30.145,9.123,7.901,4.356,6.914,6.402,-0.001,0.977,-0.112,-1.343,-1.068,0.916,66.667,739674.000,1.000
3.363,5.666,29.755,10.694,7.495,4.089,4.272,6.477,-0.002,0.976,-0.111,-1.190,-1.099,0.977,66.667,739675.000,1.000
4.958,5.503,28.800,11.682,6.426,2.711,0.326,6.269,-0.003,0.977,-0.111,-1.007,-1.068,0.916,66.667,739676.000,1.000
6.592,5.160,28.061,12.141,5.290,1.285,-2.803,6.039,-0.003,0.975,-0.111,-0.824,-1.038,1.038,66.667,739677.000,1.000
8.148,5.068,27.662,12.044,4.442,0.591,-3.784,5.889,-0.003,0.975,-0.111,-0.702,-1.068,0.977,66.667,739678.000,1.000
9.318,5.243,26.939,11.267,3.738,0.603,-2.808,5.656,-0.003,0.974,-0.111,-0.549,-0.977,0.916,66.667,739679.000,1.000
9.772,5.434,25.175,9.830,2.839,0.777,-1.001,5.209,-0.004,0.975,-0.113,-0.336,-1.007,0.793,66.667,739680.000,1.000
9.321,5.320,22.268,7.952,1.502,0.542,0.454,4.496,-0.003,0.973,-0.112,-0.275,-1.068,0.793,66.667,739681.000,1.000
8.052,4.719,18.968,5.985,-0.240,-0.279,0.951,3.463,-0.003,0.974,-0.110,-0.092,-1.068,0.702,66.667,739682.000,1.000
6.482,3.874,16.602,4.375,-1.919,-1.291,0.691,2.214,-0.005,0.973,-0.112,0.153,-1.099,0.732,66.667,739683.000,1.000
5.425,3.470,16.269,3.571,-2.756,-1.760,0.401,1.206,-0.003,0.972,-0.112,0.214,-1.007,0.793,66.667,739684.000,1.000
5.409,4.144,18.027,3.776,-2.173,-1.068,0.712,0.992,-0.006,0.972,-0.114,0.519,-1.007,0.732,66.667,739685.000,1.000
6.177,5.922,20.943,4.763,-0.203,1.003,1.890,1.797,-0.005,0.975,-0.116,0.610,-1.099,0.702,66.667,739686.000,1.000
6.788,8.134,23.878,5.932,2.512,4.059,3.889,3.346,-0.005,0.975,-0.117,0.763,-1.129,0.702,66.667,739687.000,1.000
6.206,9.757,26.123,6.577,4.977,6.946,6.175,5.011,-0.006,0.975,-0.115,0.885,-1.068,0.763,66.667,739688.000,1.000
3.863,9.930,27.474,6.218,6.285,8.239,7.837,6.217,-0.004,0.974,-0.115,1.007,-1.099,0.763,66.667,739689.000,1.000
-0.201,8.267,27.858,4.754,5.994,7.137,8.133,6.748,-0.004,0.975,-0.113,1.007,-1.160,0.885,66.667,739690.000,1.000
-5.462,4.902,27.066,2.401,4.161,3.778,6.693,6.572,-0.002,0.976,-0.115,1.221,-1.099,0.885,66.667,739691.000,1.000
-10.901,0.540,25.145,-0.325,1.271,-0.912,3.566,5.600,-0.003,0.977,-0.116,1.312,-1.099,0.946,66.667,739692.000,1.000
-15.168,-3.619,22.884,-2.616,-1.802,-5.528,-0.531,3.894,-0.003,0.979,-0.112,1.343,-1.068,0.946,66.667,739693.000,1.000
-17.254,-6.453,21.431,-3.748,-4.074,-8.768,-4.166,1.969,-0.003,0.979,-0.112,1.312,-1.099,0.977,66.667,739694.000,1.000
-17.053,-7.498,21.546,-3.524,-4.869,-9.969,-5.741,0.642,-0.002,0.981,-0.116,1.312,-1.129,1.129,66.667,739695.000,1.000
-15.293,-7.084,23.198,-2.362,-4.136,-9.271,-4.572,0.483,-0.001,0.983,-0.116,1.343,-1.068,1.099,66.667,739696.000,1.000
-13.138,-6.173,25.480,-1.102,-2.595,-7.545,-1.550,1.349,-0.002,0.984,-0.118,1.282,-1.099,1.099,66.667,739697.000,1.000
-11.758,-5.911,26.938,-0.669,-1.372,-5.971,1.555,2.515,-0.002,0.983,-0.115,1.099,-0.946,1.190,66.667,739698.000,1.000
-11.822,-6.947,26.475,-1.622,-1.315,-5.339,3.290,3.118,-0.003,0.983,-0.116,1.007,-0.977,1.190,66.667,739699.000,1.000
-13.091,-9.015,24.143,-3.829,-2.636,-5.732,2.955,2.500,-0.004,0.985,-0.117,0.885,-1.038,1.221,66.667,739700.000,1.000
-14.534,-11.183,21.026,-6.497,-4.980,-6.786,0.640,0.559,-0.002,0.987,-0.117,0.885,-0.946,1.251,66.667,739701.000,1.000
-15.132,-12.544,18.264,-8.655,-7.680,-8.015,-2.752,-2.099,-0.003,0.987,-0.117,0.702,-0.946,1.221,66.667,739702.000,1.000
-14.643,-12.794,16.320,-9.764,-10.076,-8.976,-6.014,-4.608,-0.003,0.987,-0.117,0.519,-0.854,1.312,66.667,739703.000,1.000
-13.441,-12.199,15.229,-9.818,-11.675,-9.354,-8.291,-6.377,-0.002,0.988,-0.117,0.366,-0.885,1.312,66.667,739704.000,1.000
-11.716,-10.967,15.196,-8.929,-12.067,-8.968,-9.209,-7.144,-0.001,0.988,-0.116,0.214,-0.824,1.221,66.667,739705.000,1.000
-9.243,-8.920,16.461,-7.131,-10.946,-7.760,-8.753,-6.864,-0.002,0.987,-0.118,0.000,-0.763,1.099,66.667,739706.000,1.000
-5.941,-5.893,18.645,-4.625,-8.420,-5.898,-7.182,-5.789,-0.004,0.987,-0.116,-0.153,-0.854,1.099,66.667,739707.000,1.000
-2.183,-2.120,20.704,-1.834,-5.032,-3.679,-4.805,-4.348,-0.003,0.984,-0.115,-0.336,-0.916,1.099,66.667,739708.000,1.000
1.510,1.953,21.651,0.903,-1.373,-1.360,-1.869,-2.796,-0.003,0.980,-0.116,-0.549,-0.824,0.977,66.667,739709.000,1.000
4.775,5.925,21.103,3.450,2.144,0.717,1.113,-1.185,-0.002,0.978,-0.115,-0.580,-0.763,1.038,66.667,739710.000,1.000
7.337,9.355,19.165,5.629,5.202,2.087,3.305,0.311,0.000,0.977,-0.118,-0.702,-0.671,1.068,66.667,739711.000,1.000
8.900,11.707,16.063,7.108,7.532,2.467,4.206,1.309,0.002,0.978,-0.120,-0.641,-0.549,1.099,66.667,739712.000,1.000
9.302,12.626,12.061,7.672,9.010,2.004,4.036,1.574,0.002,0.980,-0.118,-0.610,-0.488,1.099,66.667,739713.000,1.000
8.613,12.138,7.495,7.417,9.624,1.018,3.269,1.277,-0.001,0.980,-0.115,-0.549,-0.427,1.160,66.667,739714.000,1.000
6.921,10.450,2.577,6.578,9.288,-0.387,2.156,0.734,0.000,0.979,-0.115,-0.610,-0.397,1.221,66.667,739715.000,1.000
4.318,7.826,-2.650,5.421,8.003,-2.194,1.123,0.263,0.000,0.979,-0.118,-0.671,-0.366,1.251,66.667,739716.000,1.000
1.234,4.765,-8.039,4.337,6.192,-4.097,1.024,0.211,0.001,0.977,-0.119,-0.580,-0.397,1.373,66.667,739717.000,1.000
-1.520,1.959,-13.114,3.725,4.491,-5.658,2.053,0.604,0.001,0.976,-0.118,-0.488,-0.275,1.465,66.667,739718.000,1.000
-3.272,-0.054,-17.213,3.669,3.210,-6.688,2.943,0.847,0.000,0.977,-0.118,-0.458,-0.244,1.587,66.667,739719.000,1.000
-3.949,-1.141,-19.946,3.828,2.208,-7.186,2.144,0.193,-0.003,0.979,-0.116,-0.427,-0.183,1.434,66.667,739720.000,1.000
-4.006,-1.495,-21.479,3.699,1.225,-7.079,-0.583,-1.508,-0.006,0.979,-0.113,-0.458,-0.244,1.404,66.667,739721.000,1.000
-3.945,-1.318,-22.273,3.020,0.231,-6.145,-3.925,-3.583,-0.011,0.979,-0.113,-0.458,-0.366,1.373,66.667,739722.000,1.000
-3.871,-0.566,-22.538,2.003,-0.435,-4.108,-5.890,-4.932,-0.012,0.979,-0.115,-0.458,-0.427,1.190,66.667,739723.000,1.000
-3.547,0.887,-22.042,1.138,-0.314,-0.979,-5.153,-4.763,-0.010,0.977,-0.113,-0.427,-0.488,1.068,66.667,739724.000,1.000
-2.865,2.749,-20.576,0.721,0.630,2.520,-2.180,-3.259,-0.010,0.977,-0.112,-0.458,-0.580,1.038,66.667,739725.000,1.000
-2.148,4.193,-18.549,0.602,1.822,5.058,0.991,-1.459,-0.009,0.976,-0.115,-0.427,-0.641,0.946,66.667,739726.000,1.000
-1.922,4.399,-16.836,0.413,2.505,5.511,2.275,-0.432,-0.004,0.976,-0.117,-0.275,-0.793,0.885,66.667,739727.000,1.000
-2.425,3.199,-15.976,-0.059,2.298,3.811,0.957,-0.585,-0.004,0.976,-0.118,-0.244,-0.854,0.702,66.667,739728.000,1.000
-3.314,1.228,-15.677,-0.698,1.448,1.081,-1.949,-1.520,-0.003,0.977,-0.117,-0.244,-0.824,0.854,66.667,739729.000,1.000
-3.821,-0.398,-15.067,-1.092,0.726,-0.918,-4.364,-2.330,-0.003,0.979,-0.117,-0.244,-0.854,0.793,66.667,739730.000,1.000
-3.261,-0.672,-13.341,-0.743,1.007,-0.689,-4.424,-2.107,-0.002,0.983,-0.116,-0.214,-0.916,0.854,66.667,739731.000,1.000
-1.605,0.629,-10.433,0.518,2.534,1.989,-1.697,-0.529,-0.004,0.983,-0.116,-0.214,-1.007,0.916,66.667,739732.000,1.000
0.378,2.639,-7.315,2.208,4.530,5.685,2.521,1.859,-0.004,0.985,-0.118,-0.214,-0.977,1.007,66.667,739733.000,1.000
1.608,3.921,-5.473,3.426,5.718,8.229,6.240,3.920,-0.006,0.986,-0.120,-0.183,-0.916,0.946,66.667,739734.000,1.000
1.466,3.456,-5.748,3.519,5.241,8.083,8.062,4.573,-0.007,0.986,-0.119,-0.153,-1.007,1.068,66.667,739735.000,1.000
