EEG 1,EEG 2,EEG 3,EEG 4,EEG 5,EEG 6,EEG 7,EEG 8,Accelerometer X,Accelerometer Y,Accelerometer Z,Gyroscope X,Gyroscope Y,Gyroscope Z,Battery Level,Counter,Validation Indicator
-13.635,2.328,-2.139,-4.107,-4.181,-9.163,4.222,5.756,0.028,0.973,-0.144,0.397,-0.458,1.495,73.333,38337.000,1.000
-14.969,1.273,-3.490,-5.978,-3.989,-7.443,8.528,8.772,0.026,0.971,-0.145,0.488,-0.366,1.617,73.333,38338.000,1.000
-16.352,0.904,-4.169,-7.145,-3.110,-4.800,11.834,10.706,0.026,0.969,-0.148,0.549,-0.244,1.587,73.333,38339.000,1.000
-17.169,1.629,-3.642,-6.987,-1.607,-1.583,13.285,11.707,0.026,0.969,-0.149,0.702,-0.092,1.617,73.333,38340.000,1.000
-17.207,3.162,-2.077,-5.510,0.146,1.430,12.761,12.154,0.026,0.972,-0.148,0.916,0.000,1.709,73.333,38341.000,1.000
-16.661,4.666,-0.265,-3.448,1.505,3.426,10.728,12.110,0.028,0.972,-0.147,1.007,0.092,1.709,73.333,38342.000,1.000
-15.918,5.161,0.828,-1.912,1.809,3.913,7.908,11.252,0.030,0.977,-0.149,1.038,0.244,1.678,73.333,38343.000,1.000
-15.351,4.127,0.587,-1.693,0.758,2.804,5.053,9.322,0.029,0.980,-0.150,1.068,0.183,1.740,73.333,38344.000,1.000
-15.296,1.812,-1.045,-2.847,-1.428,0.396,2.638,6.565,0.026,0.979,-0.149,1.007,0.305,1.770,73.333,38345.000,1.000
-15.972,-1.079,-3.594,-4.769,-4.053,-2.657,0.472,3.689,0.027,0.980,-0.147,0.946,0.336,1.801,73.333,38346.000,1.000
-17.413,-3.676,-6.332,-6.691,-6.328,-5.381,-1.519,1.522,0.025,0.981,-0.148,0.793,0.336,1.801,73.333,38347.000,1.000
-19.239,-5.063,-8.449,-8.025,-7.596,-6.670,-2.496,0.828,0.022,0.984,-0.146,0.793,0.336,1.678,73.333,38348.000,1.000
-20.671,-4.575,-9.312,-8.527,-7.586,-5.874,-1.365,1.974,0.019,0.982,-0.147,0.732,0.305,1.556,73.333,38349.000,1.000
-20.998,-2.349,-8.866,-8.337,-6.745,-3.522,1.756,4.502,0.017,0.985,-0.144,0.488,0.427,1.343,73.333,38350.000,1.000
-19.894,0.620,-7.575,-7.668,-5.832,-1.076,5.283,7.501,0.016,0.988,-0.145,0.427,0.275,1.221,73.333,38351.000,1.000
-17.689,3.112,-6.153,-6.716,-5.381,0.157,7.809,10.294,0.016,0.987,-0.144,0.183,0.183,1.129,73.333,38352.000,1.000
-15.240,4.232,-5.212,-5.738,-5.493,-0.231,8.945,12.522,0.015,0.987,-0.146,0.031,-0.031,0.946,73.333,38353.000,1.000
-13.393,3.776,-4.993,-4.967,-6.035,-1.733,8.852,13.763,0.017,0.986,-0.144,-0.061,-0.275,0.641,73.333,38354.000,1.000
-12.630,2.172,-5.449,-4.588,-7.042,-3.484,7.631,13.315,0.018,0.985,-0.146,-0.214,-0.305,0.641,73.333,38355.000,1.000
-12.876,0.108,-6.268,-4.599,-8.562,-4.816,5.314,10.751,0.019,0.984,-0.144,-0.244,-0.458,0.610,73.333,38356.000,1.000
-13.617,-1.641,-6.888,-4.756,-10.338,-5.463,2.689,6.681,0.020,0.982,-0.141,-0.397,-0.549,0.519,73.333,38357.000,1.000
-14.222,-2.474,-6.730,-4.739,-11.845,-5.638,0.945,2.615,0.019,0.981,-0.142,-0.458,-0.671,0.366,73.333,38358.000,1.000
-14.269,-2.195,-5.591,-4.450,-12.665,-5.813,0.528,0.050,0.019,0.980,-0.145,-0.549,-0.763,0.549,73.333,38359.000,1.000
-13.632,-0.944,-3.763,-4.046,-12.693,-6.270,0.859,-0.374,0.020,0.980,-0.146,-0.549,-0.916,0.549,73.333,38360.000,1.000
-12.305,0.926,-1.708,-3.670,-12.004,-6.868,0.746,0.841,0.018,0.979,-0.144,-0.702,-0.916,0.732,73.333,38361.000,1.000
-10.541,2.927,0.115,-3.390,-10.859,-7.287,-0.520,2.510,0.019,0.979,-0.143,-0.732,-1.099,0.732,73.333,38362.000,1.000
-8.797,4.566,1.468,-3.093,-9.430,-7.224,-2.299,3.969,0.020,0.978,-0.140,-0.732,-1.190,0.824,73.333,38363.000,1.000
-7.342,5.725,2.546,-2.443,-7.511,-6.306,-2.835,5.651,0.018,0.978,-0.140,-0.732,-1.343,0.946,73.333,38364.000,1.000
-6.222,6.684,3.668,-1.302,-4.975,-4.358,-1.014,7.974,0.018,0.977,-0.140,-0.824,-1.373,0.977,73.333,38365.000,1.000
-5.514,7.624,4.851,-0.045,-2.197,-1.787,2.210,10.397,0.015,0.977,-0.141,-0.885,-1.465,1.068,73.333,38366.000,1.000
-5.486,8.461,5.740,0.748,0.144,0.645,5.085,12.177,0.016,0.978,-0.143,-0.763,-1.648,1.190,73.333,38367.000,1.000
-6.260,9.104,6.087,0.977,1.760,2.495,6.787,13.338,0.017,0.978,-0.142,-0.763,-1.709,1.251,73.333,38368.000,1.000
-7.506,9.717,6.065,1.109,2.966,4.020,7.737,14.441,0.018,0.978,-0.138,-0.793,-1.831,1.312,73.333,38369.000,1.000
-8.704,10.536,5.957,1.527,4.170,5.675,8.923,15.887,0.020,0.980,-0.137,-0.824,-1.831,1.312,73.333,38370.000,1.000
-9.478,11.409,5.765,2.088,5.410,7.343,10.797,17.525,0.017,0.979,-0.139,-0.854,-1.953,1.404,73.333,38371.000,1.000
-9.854,11.717,5.044,2.131,6.099,8.236,12.836,18.520,0.018,0.977,-0.136,-0.885,-1.923,1.343,73.333,38372.000,1.000
-10.093,10.751,3.283,1.145,5.525,7.577,13.802,18.004,0.019,0.974,-0.137,-0.671,-2.045,1.373,73.333,38373.000,1.000
-10.342,8.407,0.498,-0.590,3.640,5.359,12.841,16.121,0.020,0.975,-0.139,-0.671,-2.045,1.465,73.333,38374.000,1.000
-10.614,5.408,-2.646,-2.195,1.163,2.403,10.460,14.016,0.023,0.974,-0.139,-0.549,-2.106,1.465,73.333,38375.000,1.000
-10.782,2.827,-5.071,-2.810,-0.797,-0.123,8.118,12.932,0.023,0.971,-0.137,-0.519,-1.953,1.465,73.333,38376.000,1.000
-10.767,1.507,-5.913,-2.164,-1.462,-1.383,7.149,13.380,0.025,0.970,-0.139,-0.397,-2.014,1.434,73.333,38377.000,1.000
-10.760,1.540,-5.096,-0.687,-0.812,-1.397,7.609,14.913,0.026,0.970,-0.140,-0.244,-1.892,1.465,73.333,38378.000,1.000
-11.151,2.291,-3.336,0.829,0.569,-0.926,8.465,16.561,0.027,0.969,-0.140,-0.092,-1.892,1.465,73.333,38379.000,1.000
-12.171,2.960,-1.642,1.703,1.943,-0.873,8.947,17.559,0.027,0.969,-0.140,0.000,-1.831,1.465,73.333,38380.000,1.000
-13.497,3.150,-0.627,1.810,2.924,-1.584,9.213,17.832,0.027,0.970,-0.143,0.275,-1.709,1.404,73.333,38381.000,1.000
-14.559,3.005,-0.375,1.449,3.403,-2.653,10.050,17.760,0.028,0.969,-0.141,0.427,-1.587,1.343,73.333,38382.000,1.000
-14.948,2.774,-0.688,0.933,3.263,-3.646,11.525,17.461,0.031,0.969,-0.142,0.671,-1.587,1.373,73.333,38383.000,1.000
-14.477,2.543,-1.257,0.387,2.337,-4.710,12.408,16.532,0.030,0.969,-0.141,0.793,-1.465,1.373,73.333,38384.000,1.000
-13.312,2.191,-1.872,-0.219,0.556,-6.311,11.455,14.579,0.030,0.970,-0.141,0.916,-1.343,1.373,73.333,38385.000,1.000
-12.016,1.375,-2.523,-0.925,-1.831,-8.612,8.495,11.829,0.029,0.970,-0.141,1.099,-1.190,1.312,73.333,38386.000,1.000
-11.276,-0.019,-3.302,-1.736,-4.342,-11.145,4.524,9.020,0.029,0.971,-0.144,1.160,-1.038,1.373,73.333,38387.000,1.000
-11.244,-1.478,-4.040,-2.466,-6.277,-12.858,1.189,7.064,0.030,0.973,-0.143,1.221,-0.854,1.221,73.333,38388.000,1.000
-11.409,-2.115,-4.323,-2.736,-6.928,-12.676,0.177,6.837,0.030,0.975,-0.143,1.404,-0.641,1.190,73.333,38389.000,1.000
-11.257,-1.451,-4.046,-2.389,-6.230,-10.481,2.210,8.625,0.030,0.977,-0.142,1.404,-0.458,1.190,73.333,38390.000,1.000
-10.643,0.163,-3.560,-1.664,-4.869,-7.341,6.227,11.710,0.031,0.979,-0.140,1.343,-0.275,1.068,73.333,38391.000,1.000
-9.692,1.956,-3.321,-1.044,-3.832,-4.736,10.105,14.537,0.029,0.982,-0.141,1.404,-0.183,1.038,73.333,38392.000,1.000
-8.570,3.190,-3.551,-0.960,-3.816,-3.763,11.939,15.360,0.026,0.982,-0.143,1.282,-0.122,1.007,73.333,38393.000,1.000
-7.445,3.477,-4.215,-1.625,-4.910,-4.679,11.282,13.301,0.022,0.985,-0.143,1.190,0.061,1.068,73.333,38394.000,1.000
-6.579,2.890,-5.229,-3.051,-6.774,-6.877,9.180,8.960,0.021,0.986,-0.142,1.038,0.061,1.099,73.333,38395.000,1.000
-6.115,1.730,-6.495,-5.024,-8.962,-9.401,6.447,3.703,0.022,0.985,-0.138,0.946,0.122,0.977,73.333,38396.000,1.000
-5.943,0.389,-7.871,-7.168,-11.199,-11.597,3.009,-1.368,0.021,0.981,-0.140,0.732,0.031,0.977,73.333,38397.000,1.000
-5.717,-0.726,-9.066,-8.989,-13.204,-13.243,-1.119,-5.470,0.021,0.977,-0.140,0.671,-0.031,0.916,73.333,38398.000,1.000
-5.096,-1.257,-9.679,-9.981,-14.520,-14.195,-4.990,-7.812,0.021,0.978,-0.143,0.580,0.031,0.977,73.333,38399.000,1.000
-4.073,-0.983,-9.464,-9.902,-14.800,-14.240,-7.065,-7.825,0.021,0.980,-0.143,0.580,-0.061,1.007,73.333,38400.000,1.000
-2.923,0.104,-8.466,-8.884,-13.983,-13.272,-6.326,-5.540,0.023,0.981,-0.145,0.580,-0.122,1.038,73.333,38401.000,1.000
-2.061,1.838,-7.087,-7.388,-12.313,-11.409,-2.685,-1.734,0.025,0.985,-0.145,0.580,-0.092,1.038,73.333,38402.000,1.000
-1.828,3.815,-5.878,-5.889,-10.157,-9.000,2.787,2.407,0.023,0.985,-0.145,0.397,-0.092,1.160,73.333,38403.000,1.000
-2.313,5.459,-5.208,-4.666,-7.924,-6.517,7.982,5.813,0.023,0.983,-0.145,0.214,-0.031,1.312,73.333,38404.000,1.000
-3.291,6.379,-5.053,-3.810,-6.025,-4.320,11.018,7.854,0.026,0.980,-0.145,0.061,-0.061,1.404,73.333,38405.000,1.000
-4.145,6.733,-4.844,-3.090,-4.489,-2.473,11.574,8.609,0.026,0.978,-0.147,0.153,-0.092,1.617,73.333,38406.000,1.000
-4.323,7.083,-3.941,-2.199,-3.073,-0.937,10.798,8.626,0.027,0.977,-0.147,0.214,-0.031,1.801,73.333,38407.000,1.000
-3.743,7.807,-2.207,-1.102,-1.596,0.236,9.827,8.393,0.024,0.976,-0.143,0.366,-0.061,1.892,73.333,38408.000,1.000
-2.597,8.950,0.020,0.013,-0.010,1.053,9.214,8.220,0.020,0.976,-0.146,0.366,0.000,1.862,73.333,38409.000,1.000
-1.119,10.370,2.222,0.956,1.578,1.624,9.176,8.247,0.017,0.977,-0.146,0.336,-0.061,1.862,73.333,38410.000,1.000
0.434,11.797,3.997,1.748,3.047,2.093,9.571,8.549,0.014,0.978,-0.147,0.336,-0.153,1.770,73.333,38411.000,1.000
1.624,12.961,5.122,2.528,4.324,2.651,10.341,9.319,0.017,0.976,-0.147,0.366,-0.305,1.587,73.333,38412.000,1.000
2.106,13.664,5.643,3.393,5.457,3.467,11.685,10.746,0.015,0.972,-0.145,0.366,-0.458,1.526,73.333,38413.000,1.000
2.085,14.037,6.040,4.457,6.716,4.723,14.025,12.817,0.015,0.974,-0.146,0.519,-0.671,1.465,73.333,38414.000,1.000
2.241,14.592,7.058,5.898,8.452,6.623,17.752,15.288,0.019,0.975,-0.147,0.519,-0.885,1.312,73.333,38415.000,1.000
3.235,15.721,9.177,7.888,10.797,9.130,22.313,17.842,0.021,0.975,-0.147,0.671,-1.007,1.282,73.333,38416.000,1.000
5.152,17.255,12.048,10.233,13.212,11.578,25.961,20.063,0.021,0.975,-0.147,0.732,-1.068,1.129,73.333,38417.000,1.000
7.429,18.409,14.584,12.229,14.601,12.750,26.580,21.238,0.021,0.977,-0.146,0.763,-1.099,1.007,73.333,38418.000,1.000
9.144,18.244,15.603,12.938,13.977,11.637,23.168,20.538,0.023,0.978,-0.147,0.702,-1.129,0.946,73.333,38419.000,1.000
9.461,16.353,14.479,11.741,11.113,8.219,16.656,17.650,0.024,0.979,-0.145,0.671,-1.190,1.068,73.333,38420.000,1.000
8.265,13.257,11.618,8.964,6.959,3.718,9.441,13.355,0.024,0.980,-0.145,0.732,-1.190,1.038,73.333,38421.000,1.000
6.194,10.186,8.228,5.771,3.146,0.049,4.528,9.324,0.026,0.981,-0.144,0.671,-1.129,1.068,73.333,38422.000,1.000
4.111,8.177,5.566,3.453,0.938,-1.489,3.717,7.138,0.028,0.981,-0.145,0.580,-1.129,1.160,73.333,38423.000,1.000
2.534,7.374,4.192,2.667,0.417,-1.284,6.092,7.164,0.027,0.983,-0.142,0.580,-1.251,1.099,73.333,38424.000,1.000
1.341,7.018,3.670,3.079,0.562,-1.069,8.866,8.362,0.025,0.980,-0.144,0.488,-1.099,1.129,73.333,38425.000,1.000
0.071,6.097,3.141,3.833,0.354,-2.309,9.648,9.454,0.023,0.979,-0.144,0.519,-1.129,1.190,73.333,38426.000,1.000
-1.628,4.128,2.006,4.133,-0.610,-5.160,7.835,9.838,0.022,0.979,-0.146,0.366,-1.068,1.343,73.333,38427.000,1.000
-3.710,1.364,0.218,3.560,-2.218,-8.708,4.077,9.462,0.021,0.980,-0.145,0.427,-1.129,1.312,73.333,38428.000,1.000
-5.692,-1.239,-1.736,2.262,-3.918,-11.461,-0.166,8.726,0.024,0.978,-0.144,0.366,-1.129,1.312,73.333,38429.000,1.000
-6.949,-2.418,-3.065,0.896,-4.847,-11.988,-2.893,8.521,0.023,0.977,-0.145,0.397,-1.068,1.343,73.333,38430.000,1.000
-6.961,-1.458,-3.019,0.278,-4.260,-9.838,-2.845,9.768,0.025,0.979,-0.144,0.397,-1.160,1.404,73.333,38431.000,1.000
-5.707,1.235,-1.474,0.746,-2.275,-5.936,-0.289,12.489,0.024,0.978,-0.144,0.397,-1.160,1.373,73.333,38432.000,1.000
-3.891,4.191,0.705,1.804,0.041,-1.993,3.226,15.436,0.024,0.977,-0.143,0.458,-1.129,1.282,73.333,38433.000,1.000
-2.683,5.643,2.030,2.456,1.392,0.489,6.016,17.023,0.022,0.976,-0.144,0.397,-1.190,1.282,73.333,38434.000,1.000
-3.073,4.488,1.323,1.925,1.052,0.795,7.508,16.768,0.022,0.977,-0.143,0.366,-1.190,1.190,73.333,38435.000,1.000
-5.092,0.890,-1.355,0.296,-0.671,-0.847,8.270,15.798,0.023,0.977,-0.144,0.244,-1.129,1.160,73.333,38436.000,1.000
-7.750,-3.680,-4.763,-1.639,-2.887,-3.459,9.033,15.726,0.023,0.975,-0.140,0.366,-1.251,1.160,73.333,38437.000,1.000
-9.712,-7.376,-7.432,-3.131,-4.915,-6.005,9.366,16.912,0.024,0.976,-0.143,0.397,-1.282,1.190,73.333,38438.000,1.000
-10.137,-9.163,-8.640,-4.087,-6.676,-7.967,7.961,18.099,0.021,0.976,-0.144,0.427,-1.343,1.099,73.333,38439.000,1.000
-9.005,-9.122,-8.589,-4.940,-8.390,-9.223,4.207,17.652,0.022,0.975,-0.145,0.427,-1.343,1.068,73.333,38440.000,1.000
-6.665,-7.874,-7.729,-5.940,-9.888,-9.606,-1.087,15.020,0.021,0.976,-0.145,0.427,-1.312,1.068,73.333,38441.000,1.000
-3.565,-6.006,-6.368,-6.903,-10.651,-9.010,-5.952,11.181,0.022,0.975,-0.146,0.488,-1.312,1.038,73.333,38442.000,1.000
-0.329,-4.117,-4.746,-7.446,-10.303,-7.816,-8.406,8.026,0.023,0.975,-0.145,0.580,-1.312,1.129,73.333,38443.000,1.000
2.223,-2.812,-3.165,-7.276,-8.878,-6.724,-7.355,7.330,0.024,0.975,-0.144,0.641,-1.221,0.977,73.333,38444.000,1.000
3.281,-2.453,-2.075,-6.478,-6.885,-6.327,-3.129,9.613,0.023,0.975,-0.143,0.732,-1.312,0.946,73.333,38445.000,1.000
2.534,-3.058,-1.910,-5.538,-5.085,-6.928,1.911,13.518,0.023,0.976,-0.143,0.671,-1.190,1.007,73.333,38446.000,1.000
0.434,-4.192,-2.718,-5.017,-4.016,-8.261,4.789,16.808,0.025,0.977,-0.142,0.732,-1.251,0.854,73.333,38447.000,1.000
-1.879,-5.005,-3.839,-4.975,-3.406,-9.320,4.595,18.384,0.024,0.977,-0.143,0.671,-1.312,0.824,73.333,38448.000,1.000
-3.176,-4.690,-4.335,-5.020,-2.536,-8.983,2.992,18.717,0.022,0.977,-0.144,0.732,-1.312,0.854,73.333,38449.000,1.000
-2.980,-3.161,-3.898,-4.980,-1.301,-7.054,1.983,18.380,0.020,0.977,-0.146,0.824,-1.282,0.854,73.333,38450.000,1.000
-1.601,-1.143,-2.939,-4.965,-0.218,-4.407,2.059,17.382,0.020,0.976,-0.144,0.885,-1.312,0.854,73.333,38451.000,1.000
0.363,0.566,-2.004,-4.993,0.278,-2.183,2.965,15.928,0.021,0.977,-0.146,0.946,-1.312,0.824,73.333,38452.000,1.000
2.559,1.691,-1.241,-4.812,0.282,-1.018,4.656,14.850,0.021,0.977,-0.146,0.946,-1.434,0.854,73.333,38453.000,1.000
5.000,2.505,-0.434,-4.181,0.113,-0.876,6.926,14.710,0.021,0.979,-0.144,0.824,-1.587,0.854,73.333,38454.000,1.000
7.741,3.393,0.557,-3.243,-0.271,-1.502,8.849,14.824,0.022,0.979,-0.143,0.854,-1.465,0.763,73.333,38455.000,1.000
10.740,4.457,1.681,-2.309,-1.034,-2.654,9.336,13.841,0.023,0.978,-0.146,0.732,-1.465,0.854,73.333,38456.000,1.000
13.712,5.557,2.759,-1.569,-2.084,-3.959,8.240,11.146,0.023,0.979,-0.143,0.763,-1.587,0.885,73.333,38457.000,1.000
16.092,6.390,3.530,-1.049,-3.102,-5.041,6.072,7.395,0.024,0.979,-0.144,0.671,-1.648,0.916,73.333,38458.000,1.000
17.269,6.599,3.701,-0.708,-3.863,-5.854,3.211,3.884,0.020,0.979,-0.144,0.732,-1.740,0.946,73.333,38459.000,1.000
16.952,5.943,3.049,-0.513,-4.437,-6.670,-0.170,1.632,0.019,0.977,-0.145,0.641,-1.709,1.007,73.333,38460.000,1.000
15.551,4.470,1.705,-0.339,-4.938,-7.615,-3.738,0.926,0.020,0.978,-0.144,0.580,-1.678,1.099,73.333,38461.000,1.000
13.960,2.602,0.108,-0.055,-5.473,-8.474,-6.496,1.277,0.019,0.979,-0.145,0.610,-1.648,1.221,73.333,38462.000,1.000
13.182,0.929,-1.175,0.462,-6.020,-8.969,-7.208,1.969,0.020,0.980,-0.144,0.610,-1.709,1.221,73.333,38463.000,1.000
14.034,0.040,-1.566,1.441,-6.264,-8.935,-5.273,2.919,0.021,0.978,-0.142,0.641,-1.678,1.099,73.333,38464.000,1.000
16.684,0.235,-0.856,2.943,-5.963,-8.497,-1.364,4.443,0.023,0.976,-0.144,0.549,-1.587,1.221,73.333,38465.000,1.000
20.470,1.243,0.551,4.512,-5.402,-8.175,2.379,6.141,0.021,0.978,-0.144,0.488,-1.709,1.190,73.333,38466.000,1.000
24.189,2.476,1.799,5.265,-5.430,-8.636,3.498,6.665,0.021,0.977,-0.142,0.427,-1.770,1.160,73.333,38467.000,1.000
26.909,3.485,2.202,4.679,-6.714,-10.189,0.891,5.119,0.021,0.977,-0.142,0.488,-1.801,1.099,73.333,38468.000,1.000
28.621,4.323,1.825,3.253,-8.984,-12.367,-4.255,2.320,0.021,0.977,-0.144,0.488,-1.678,1.099,73.333,38469.000,1.000
29.964,5.415,1.325,2.128,-11.218,-14.159,-9.291,0.048,0.021,0.977,-0.147,0.397,-1.801,0.916,73.333,38470.000,1.000
31.486,6.954,1.322,2.190,-12.450,-14.813,-12.077,-0.628,0.021,0.977,-0.144,0.366,-1.862,1.007,73.333,38471.000,1.000
33.057,8.564,1.846,3.435,-12.604,-14.486,-12.178,-0.146,0.020,0.977,-0.145,0.397,-1.862,0.977,73.333,38472.000,1.000
34.107,9.547,2.499,5.207,-12.356,-14.019,-10.920,0.118,0.021,0.976,-0.144,0.336,-1.801,0.854,73.333,38473.000,1.000
34.340,9.665,3.110,6.930,-12.193,-13.876,-9.897,-0.707,0.024,0.977,-0.143,0.305,-1.709,0.824,73.333,38474.000,1.000
34.009,9.454,3.899,8.430,-11.973,-13.704,-9.425,-2.147,0.025,0.979,-0.144,0.336,-1.801,0.885,73.333,38475.000,1.000
33.697,9.554,5.032,9.710,-11.286,-13.096,-8.845,-2.961,0.024,0.979,-0.144,0.336,-1.709,0.946,73.333,38476.000,1.000
33.807,10.051,6.164,10.543,-10.129,-12.253,-7.474,-2.399,0.023,0.978,-0.140,0.305,-1.648,0.946,73.333,38477.000,1.000
34.408,10.425,6.729,10.585,-8.956,-11.709,-5.590,-0.942,0.023,0.977,-0.145,0.244,-1.495,0.916,73.333,38478.000,1.000
35.489,10.190,6.671,9.879,-8.154,-11.650,-4.265,0.234,0.021,0.979,-0.144,0.244,-1.434,0.854,73.333,38479.000,1.000
37.184,9.553,6.726,9.110,-7.530,-11.579,-3.922,0.667,0.020,0.978,-0.146,0.153,-1.465,0.854,73.333,38480.000,1.000
39.834,9.461,8.059,9.355,-6.183,-10.563,-3.783,1.256,0.021,0.977,-0.146,0.153,-1.465,1.068,73.333,38481.000,1.000
43.621,11.046,11.392,11.291,-3.271,-7.947,-2.537,3.249,0.021,0.977,-0.144,0.214,-1.373,1.068,73.333,38482.000,1.000
48.311,14.726,16.408,14.676,1.171,-4.024,0.516,6.837,0.022,0.977,-0.144,0.092,-1.251,0.977,73.333,38483.000,1.000
53.288,19.796,21.920,18.531,6.020,-0.113,4.619,10.810,0.022,0.974,-0.144,0.061,-1.373,1.007,73.333,38484.000,1.000
57.809,24.812,26.599,21.794,9.649,2.130,7.672,13.504,0.022,0.976,-0.141,0.122,-1.282,0.977,73.333,38485.000,1.000
61.505,28.510,29.856,24.097,11.211,1.961,7.824,14.303,0.022,0.977,-0.144,0.000,-1.312,0.916,73.333,38486.000,1.000
64.463,30.547,31.916,25.731,11.105,0.079,5.196,13.713,0.023,0.976,-0.141,0.122,-1.251,0.977,73.333,38487.000,1.000
66.970,31.345,33.257,27.042,10.308,-2.229,1.107,12.182,0.024,0.975,-0.141,0.153,-1.282,1.007,73.333,38488.000,1.000
69.302,31.601,34.251,28.102,9.599,-4.007,-3.306,9.825,0.023,0.976,-0.142,0.183,-1.282,1.190,73.333,38489.000,1.000
71.502,31.856,35.038,28.789,9.225,-4.928,-7.234,6.983,0.022,0.978,-0.145,0.153,-1.282,1.190,73.333,38490.000,1.000
73.401,32.201,35.612,29.077,9.095,-5.223,-10.078,4.496,0.022,0.978,-0.145,0.153,-1.221,1.190,73.333,38491.000,1.000
74.691,32.389,35.859,29.141,9.014,-5.356,-11.318,3.460,0.024,0.976,-0.145,0.183,-1.129,1.343,73.333,38492.000,1.000
75.232,32.113,35.734,29.387,9.031,-5.553,-10.676,4.684,0.025,0.976,-0.145,0.336,-1.129,1.373,73.333,38493.000,1.000
75.407,31.503,35.590,30.357,9.671,-5.456,-8.025,8.286,0.023,0.977,-0.145,0.305,-1.129,1.312,73.333,38494.000,1.000
76.039,31.239,36.104,32.382,11.503,-4.436,-3.484,13.496,0.022,0.978,-0.142,0.275,-1.038,1.282,73.333,38495.000,1.000
77.900,31.891,37.754,35.226,14.397,-2.458,1.609,18.516,0.021,0.979,-0.145,0.305,-0.946,1.343,73.333,38496.000,1.000
80.974,33.365,40.307,38.008,17.248,-0.430,4.964,21.114,0.020,0.979,-0.145,0.397,-0.885,1.312,73.333,38497.000,1.000
84.410,35.070,43.079,39.812,18.928,0.555,5.092,20.274,0.021,0.979,-0.146,0.366,-0.977,1.312,73.333,38498.000,1.000
87.118,36.587,45.502,40.362,19.277,0.224,2.657,17.030,0.022,0.979,-0.144,0.397,-0.885,1.221,73.333,38499.000,1.000
88.218,37.853,47.162,39.920,18.900,-0.810,0.081,13.399,0.022,0.979,-0.142,0.427,-0.885,1.190,73.333,38500.000,1.000
87.363,38.751,47.701,38.886,18.505,-1.770,-0.312,11.000,0.021,0.979,-0.144,0.366,-0.885,1.251,73.333,38501.000,1.000
84.750,38.927,46.841,37.477,18.239,-2.413,1.895,10.350,0.021,0.979,-0.146,0.427,-0.885,1.282,73.333,38502.000,1.000
80.955,37.992,44.563,35.685,17.654,-3.045,4.676,10.825,0.021,0.979,-0.145,0.458,-0.885,1.221,73.333,38503.000,1.000
76.646,35.889,41.195,33.409,16.217,-3.972,5.466,11.309,0.022,0.979,-0.146,0.488,-0.885,1.312,73.333,38504.000,1.000
72.376,32.997,37.251,30.563,13.687,-5.131,3.292,10.815,0.023,0.979,-0.143,0.519,-0.824,1.038,73.333,38505.000,1.000
68.766,30.082,33.469,27.426,10.421,-5.971,-1.024,9.020,0.023,0.979,-0.142,0.519,-0.854,0.977,73.333,38506.000,1.000
66.375,28.134,30.671,24.685,7.304,-5.658,-5.300,6.841,0.025,0.977,-0.144,0.366,-0.824,1.068,73.333,38507.000,1.000
65.275,27.678,29.271,22.989,5.172,-3.916,-7.383,5.982,0.022,0.976,-0.143,0.488,-0.824,1.099,73.333,38508.000,1.000
64.913,28.366,28.963,22.432,4.162,-1.663,-6.872,7.296,0.021,0.977,-0.140,0.458,-0.824,1.129,73.333,38509.000,1.000
64.435,29.325,28.947,22.519,3.629,-0.542,-5.278,9.949,0.020,0.976,-0.144,0.519,-0.885,1.099,73.333,38510.000,1.000
63.289,29.807,28.620,22.689,2.899,-1.607,-4.680,12.433,0.021,0.975,-0.146,0.641,-0.854,1.068,73.333,38511.000,1.000
61.474,29.673,27.981,22.693,1.822,-4.441,-5.975,13.883,0.020,0.977,-0.145,0.641,-0.885,0.977,73.333,38512.000,1.000
59.429,29.245,27.497,22.625,0.843,-7.557,-8.396,14.498,0.021,0.976,-0.143,0.702,-0.824,1.160,73.333,38513.000,1.000
57.616,28.860,27.542,22.646,0.552,-9.578,-10.364,15.046,0.020,0.976,-0.143,0.702,-0.824,1.129,73.333,38514.000,1.000
56.044,28.489,27.871,22.649,0.961,-10.202,-10.998,15.792,0.020,0.977,-0.143,0.702,-0.977,1.007,73.333,38515.000,1.000
54.414,27.801,27.903,22.442,1.646,-10.052,-10.711,16.268,0.018,0.974,-0.146,0.793,-0.977,1.160,73.333,38516.000,1.000
52.529,26.676,27.289,22.049,2.330,-9.781,-9.949,16.172,0.021,0.974,-0.142,0.732,-0.977,1.221,73.333,38517.000,1.000
50.530,25.266,26.054,21.614,2.938,-9.726,-8.795,15.579,0.021,0.977,-0.141,0.763,-1.038,1.190,73.333,38518.000,1.000
48.722,23.679,24.355,21.050,3.166,-10.164,-7.624,14.226,0.022,0.976,-0.144,0.732,-1.068,1.129,73.333,38519.000,1.000
47.233,21.865,22.298,20.033,2.466,-11.313,-6.864,11.642,0.020,0.978,-0.141,0.793,-1.129,1.251,73.333,38520.000,1.000
45.994,19.769,20.065,18.413,0.648,-13.115,-6.544,8.102,0.022,0.976,-0.143,0.793,-1.038,1.251,73.333,38521.000,1.000
44.721,17.535,17.814,16.268,-2.101,-15.317,-6.687,4.531,0.024,0.975,-0.143,0.824,-0.977,1.251,73.333,38522.000,1.000
43.020,15.438,15.609,13.784,-5.399,-17.551,-7.949,1.694,0.023,0.975,-0.145,0.824,-1.068,1.312,73.333,38523.000,1.000
40.673,13.820,13.632,11.296,-8.567,-19.116,-10.799,0.122,0.024,0.974,-0.144,0.854,-1.099,1.343,73.333,38524.000,1.000
37.778,13.021,12.224,9.208,-10.739,-19.105,-14.304,0.383,0.021,0.978,-0.146,0.854,-1.099,1.343,73.333,38525.000,1.000
34.688,13.148,11.678,7.820,-11.300,-17.058,-16.383,2.985,0.021,0.979,-0.146,0.885,-1.007,1.526,73.333,38526.000,1.000
31.645,13.928,11.815,6.959,-10.518,-13.572,-15.319,7.594,0.021,0.979,-0.143,0.854,-1.038,1.465,73.333,38527.000,1.000
28.783,14.843,12.115,6.051,-9.428,-10.096,-11.791,12.394,0.018,0.980,-0.140,0.885,-1.099,1.495,73.333,38528.000,1.000
26.482,15.621,12.349,4.787,-8.872,-7.821,-8.631,15.064,0.019,0.978,-0.144,0.854,-1.251,1.587,73.333,38529.000,1.000
25.123,16.310,12.636,3.450,-8.943,-7.071,-8.217,14.538,0.018,0.975,-0.144,0.702,-1.312,1.526,73.333,38530.000,1.000
24.648,16.928,13.085,2.654,-9.131,-7.632,-10.878,11.573,0.019,0.976,-0.145,0.702,-1.373,1.495,73.333,38531.000,1.000
24.564,17.508,13.720,2.941,-8.772,-8.987,-14.908,7.976,0.019,0.974,-0.146,0.732,-1.404,1.312,73.333,38532.000,1.000
24.440,18.134,14.675,4.577,-7.327,-10.376,-17.716,5.426,0.018,0.972,-0.145,0.854,-1.434,1.221,73.333,38533.000,1.000
24.033,18.700,15.997,7.262,-4.826,-11.167,-17.376,4.543,0.018,0.972,-0.146,0.946,-1.465,1.221,73.333,38534.000,1.000
22.943,18.745,17.111,9.843,-2.324,-11.368,-14.017,4.547,0.022,0.971,-0.146,1.068,-1.526,1.099,73.333,38535.000,1.000
20.688,17.686,17.000,10.833,-1.400,-11.556,-10.092,3.785,0.024,0.971,-0.144,1.190,-1.526,1.068,73.333,38536.000,1.000
16.999,15.344,14.931,9.375,-3.011,-12.273,-8.182,1.103,0.025,0.970,-0.145,1.221,-1.556,1.007,73.333,38537.000,1.000
12.064,12.122,11.092,5.920,-6.614,-13.615,-8.682,-2.798,0.026,0.971,-0.146,1.251,-1.617,1.099,73.333,38538.000,1.000
6.484,8.810,6.471,1.832,-10.596,-15.383,-10.014,-5.890,0.028,0.971,-0.147,1.373,-1.404,1.099,73.333,38539.000,1.000
0.888,6.089,2.044,-1.871,-13.760,-17.567,-11.097,-7.213,0.031,0.967,-0.146,1.434,-1.404,1.282,73.333,38540.000,1.000
-4.245,4.136,-1.666,-5.108,-16.033,-20.297,-12.810,-7.926,0.030,0.969,-0.143,1.495,-1.099,1.282,73.333,38541.000,1.000
-8.602,2.852,-4.509,-8.249,-17.977,-23.311,-16.182,-9.652,0.029,0.968,-0.145,1.740,-1.068,1.434,73.333,38542.000,1.000
-11.949,2.078,-6.490,-11.351,-19.945,-25.894,-20.515,-12.496,0.028,0.972,-0.148,1.892,-0.916,1.434,73.333,38543.000,1.000
-14.123,1.700,-7.722,-14.034,-21.730,-27.287,-23.577,-14.868,0.027,0.975,-0.149,1.953,-0.824,1.556,73.333,38544.000,1.000
-15.193,1.655,-8.440,-15.894,-22.787,-27.025,-23.071,-14.763,0.026,0.979,-0.149,1.953,-0.793,1.526,73.333,38545.000,1.000
-15.433,1.782,-8.862,-16.767,-22.630,-25.119,-18.644,-11.355,0.025,0.980,-0.153,1.801,-0.732,1.556,73.333,38546.000,1.000
-15.351,1.796,-9.212,-16.861,-21.350,-22.203,-12.519,-5.848,0.025,0.981,-0.150,1.678,-0.702,1.587,73.333,38547.000,1.000
-15.532,1.429,-9.641,-16.535,-19.489,-19.303,-7.916,-0.559,0.024,0.983,-0.146,1.587,-0.763,1.556,73.333,38548.000,1.000
-16.292,0.739,-10.002,-15.926,-17.438,-17.109,-6.510,2.987,0.024,0.981,-0.150,1.495,-0.763,1.465,73.333,38549.000,1.000
-17.513,0.150,-9.915,-14.913,-15.223,-15.589,-7.428,4.919,0.020,0.979,-0.148,1.404,-0.824,1.404,73.333,38550.000,1.000
-18.653,0.161,-8.938,-13.244,-12.534,-14.252,-8.345,6.553,0.019,0.982,-0.147,1.373,-0.885,1.373,73.333,38551.000,1.000
-19.049,1.133,-6.848,-10.830,-9.054,-12.581,-7.027,9.145,0.015,0.987,-0.148,1.251,-1.007,1.160,73.333,38552.000,1.000
-18.297,3.069,-3.860,-8.016,-4.879,-10.444,-3.010,12.591,0.018,0.989,-0.146,1.038,-1.099,1.038,73.333,38553.000,1.000
-16.573,5.590,-0.618,-5.574,-0.694,-8.266,2.063,15.414,0.018,0.992,-0.149,0.793,-1.129,0.885,73.333,38554.000,1.000
-14.666,8.108,2.075,-4.319,2.545,-6.735,6.177,16.183,0.020,0.994,-0.148,0.641,-1.282,0.793,73.333,38555.000,1.000
-13.370,10.077,3.777,-4.526,4.278,-6.284,8.373,14.508,0.022,0.992,-0.150,0.397,-1.404,0.793,73.333,38556.000,1.000
-12.900,11.273,4.603,-5.814,4.491,-6.904,8.595,10.580,0.023,0.992,-0.149,0.092,-1.373,0.763,73.333,38557.000,1.000
-12.717,11.833,5.111,-7.333,3.707,-8.157,6.931,4.807,0.024,0.993,-0.149,-0.153,-1.404,0.702,73.333,38558.000,1.000
-12.059,12.200,5.865,-8.191,2.797,-9.158,3.906,-1.776,0.027,0.990,-0.147,-0.336,-1.434,0.824,73.333,38559.000,1.000
-10.834,12.758,6.800,-8.075,2.338,-9.001,0.830,-7.599,0.025,0.987,-0.146,-0.610,-1.465,0.854,73.333,38560.000,1.000
-9.717,13.402,7.264,-7.343,2.317,-7.298,-0.732,-11.143,0.024,0.987,-0.145,-0.641,-1.495,0.916,73.333,38561.000,1.000
-9.582,13.623,6.566,-6.655,2.345,-4.374,0.547,-11.401,0.022,0.982,-0.142,-0.732,-1.495,0.977,73.333,38562.000,1.000
-10.861,12.892,4.492,-6.484,2.094,-1.118,4.760,-8.231,0.022,0.980,-0.143,-0.793,-1.373,0.885,73.333,38563.000,1.000
-13.343,11.097,1.371,-6.904,1.479,1.525,10.249,-2.584,0.020,0.980,-0.143,-0.763,-1.465,1.007,73.333,38564.000,1.000
-16.450,8.607,-2.242,-7.752,0.474,2.896,14.569,3.638,0.021,0.979,-0.144,-0.854,-1.587,1.099,73.333,38565.000,1.000
-19.430,6.009,-5.684,-8.681,-0.779,2.760,16.001,8.470,0.022,0.978,-0.142,-0.763,-1.678,1.129,73.333,38566.000,1.000
-21.567,4.022,-8.229,-9.195,-1.811,1.655,14.750,11.047,0.023,0.975,-0.142,-0.671,-1.678,1.221,73.333,38567.000,1.000
-22.308,3.323,-9.203,-8.732,-1.827,0.907,12.674,12.139,0.024,0.972,-0.142,-0.702,-1.770,1.282,73.333,38568.000,1.000
-21.362,4.280,-8.192,-6.827,-0.071,1.930,12.175,13.582,0.025,0.972,-0.141,-0.580,-1.831,1.190,73.333,38569.000,1.000
-18.931,6.703,-5.351,-3.436,3.571,5.299,14.766,16.737,0.021,0.971,-0.144,-0.427,-1.709,1.160,73.333,38570.000,1.000
-15.747,9.836,-1.472,0.812,8.315,10.321,19.768,21.177,0.020,0.969,-0.143,-0.214,-1.648,1.221,73.333,38571.000,1.000
-12.885,12.774,2.238,4.655,12.714,15.403,24.861,24.959,0.021,0.968,-0.139,-0.153,-1.709,1.221,73.333,38572.000,1.000
-11.195,14.854,4.780,6.911,15.553,19.021,27.948,26.412,0.022,0.969,-0.139,0.031,-1.740,1.221,73.333,38573.000,1.000
-10.838,15.920,5.929,7.321,16.628,20.704,28.799,25.641,0.022,0.969,-0.140,0.214,-1.740,1.160,73.333,38574.000,1.000
-11.505,16.176,6.018,6.446,16.435,20.920,28.685,23.871,0.021,0.967,-0.141,0.427,-1.801,1.129,73.333,38575.000,1.000
-12.841,15.739,5.378,4.948,15.465,20.137,28.267,21.685,0.021,0.965,-0.139,0.458,-1.678,1.007,73.333,38576.000,1.000
-14.728,14.578,4.028,3.095,13.891,18.429,27.001,18.739,0.021,0.966,-0.141,0.732,-1.740,0.977,73.333,38577.000,1.000
-17.193,12.725,1.918,0.945,11.958,15.921,24.395,15.048,0.021,0.968,-0.139,0.854,-1.801,0.916,73.333,38578.000,1.000
-20.086,10.571,-0.633,-1.246,10.274,13.185,21.136,11.568,0.021,0.968,-0.139,0.946,-1.801,0.824,73.333,38579.000,1.000
-22.864,8.859,-2.862,-2.947,9.484,10.979,18.600,9.374,0.022,0.970,-0.140,1.129,-1.740,0.793,73.333,38580.000,1.000
-24.750,8.266,-3.902,-3.604,9.879,9.845,17.533,8.884,0.022,0.972,-0.141,1.190,-1.801,0.671,73.333,38581.000,1.000
-25.403,8.987,-3.446,-3.183,11.052,9.906,17.797,9.700,0.023,0.971,-0.142,1.251,-1.892,0.793,73.333,38582.000,1.000
-25.164,10.551,-1.944,-2.243,12.123,10.782,18.721,10.955,0.021,0.971,-0.144,1.343,-1.831,0.793,73.333,38583.000,1.000
-24.637,12.161,-0.198,-1.461,12.403,11.802,19.612,11.934,0.020,0.971,-0.140,1.495,-1.740,0.793,73.333,38584.000,1.000
-24.327,13.044,0.961,-1.315,11.623,12.269,19.847,12.323,0.020,0.972,-0.141,1.587,-1.801,0.916,73.333,38585.000,1.000
-24.520,12.563,0.851,-2.023,9.884,11.741,18.747,12.118,0.023,0.974,-0.145,1.678,-1.740,0.946,73.333,38586.000,1.000
-25.360,10.581,-0.861,-3.600,7.541,10.398,16.508,11.560,0.023,0.974,-0.146,1.709,-1.770,1.007,73.333,38587.000,1.000
-26.693,7.731,-3.827,-5.781,5.234,9.085,14.519,11.011,0.024,0.975,-0.144,1.770,-1.740,1.007,73.333,38588.000,1.000
-28.012,5.161,-7.059,-8.071,3.652,8.701,14.119,10.637,0.024,0.977,-0.141,1.709,-1.709,1.129,73.333,38589.000,1.000
-28.768,3.811,-9.537,-10.019,3.071,9.342,15.184,10.191,0.026,0.977,-0.143,1.587,-1.617,1.190,73.333,38590.000,1.000
-28.534,4.015,-10.555,-11.169,3.563,10.432,16.568,9.699,0.026,0.980,-0.144,1.617,-1.465,1.343,73.333,38591.000,1.000
-27.152,5.682,-9.859,-11.024,5.248,11.653,18.057,10.089,0.026,0.980,-0.145,1.648,-1.526,1.495,73.333,38592.000,1.000
-24.940,8.170,-7.831,-9.453,7.946,12.945,20.088,11.977,0.023,0.980,-0.148,1.709,-1.343,1.465,73.333,38593.000,1.000
-22.711,10.326,-5.445,-7.078,10.795,13.906,22.149,14.180,0.023,0.981,-0.148,1.709,-1.190,1.556,73.333,38594.000,1.000
-21.413,11.207,-3.743,-4.943,12.751,14.035,23.146,14.795,0.023,0.983,-0.148,1.648,-1.129,1.556,73.333,38595.000,1.000
-21.530,10.675,-3.193,-3.730,13.512,13.474,22.835,13.451,0.018,0.982,-0.147,1.434,-1.190,1.434,73.333,38596.000,1.000
-22.940,9.292,-3.670,-3.508,13.417,12.914,22.139,11.375,0.017,0.979,-0.144,1.312,-1.251,1.434,73.333,38597.000,1.000
-25.119,7.652,-4.822,-3.942,12.764,12.687,21.641,9.740,0.016,0.979,-0.146,1.160,-1.221,1.343,73.333,38598.000,1.000
-27.479,5.931,-6.410,-4.656,11.394,12.208,20.477,8.538,0.016,0.975,-0.144,1.221,-1.312,1.282,73.333,38599.000,1.000
-29.601,3.941,-8.394,-5.515,8.919,10.406,17.267,6.921,0.017,0.973,-0.147,1.282,-1.312,1.221,73.333,38600.000,1.000
-31.049,1.613,-10.541,-6.407,5.575,6.913,11.975,4.587,0.020,0.975,-0.148,1.221,-1.343,1.099,73.333,38601.000,1.000
-31.380,-0.515,-12.289,-7.060,2.379,2.733,6.470,2.310,0.022,0.977,-0.150,1.312,-1.312,1.038,73.333,38602.000,1.000
-30.390,-1.589,-13.113,-7.179,0.416,-0.372,2.853,1.022,0.023,0.980,-0.150,1.404,-1.251,1.129,73.333,38603.000,1.000
-28.368,-1.115,-12.949,-6.702,0.119,-1.025,2.159,1.092,0.025,0.982,-0.153,1.282,-1.251,1.251,73.333,38604.000,1.000
-26.144,0.546,-12.320,-5.937,1.002,0.831,4.186,2.290,0.028,0.981,-0.149,1.190,-1.099,1.282,73.333,38605.000,1.000
-24.644,2.275,-11.934,-5.341,2.042,3.806,7.429,3.929,0.030,0.980,-0.151,1.099,-1.007,1.343,73.333,38606.000,1.000
-24.443,3.010,-12.264,-5.319,2.222,5.972,9.925,5.164,0.032,0.981,-0.150,1.068,-0.793,1.556,73.333,38607.000,1.000
-25.460,2.433,-13.274,-6.002,1.197,6.233,10.635,5.694,0.030,0.979,-0.153,1.190,-0.671,1.709,73.333,38608.000,1.000
-26.957,1.126,-14.352,-7.038,-0.357,5.098,10.294,6.286,0.026,0.979,-0.151,1.251,-0.641,1.862,73.333,38609.000,1.000
-28.042,0.067,-14.724,-7.851,-1.337,3.870,10.454,7.854,0.024,0.980,-0.149,1.129,-0.549,1.831,73.333,38610.000,1.000
-28.201,-0.182,-14.048,-8.148,-1.177,3.173,11.509,9.930,0.019,0.980,-0.148,1.129,-0.427,1.923,73.333,38611.000,1.000
-27.619,0.207,-12.784,-8.181,-0.331,2.550,12.559,10.869,0.016,0.981,-0.151,1.038,-0.519,1.831,73.333,38612.000,1.000
-26.925,0.482,-11.908,-8.455,0.151,1.197,12.282,9.414,0.014,0.978,-0.154,0.916,-0.549,1.678,73.333,38613.000,1.000
-26.742,-0.137,-12.277,-9.398,-0.620,-1.225,9.822,5.457,0.016,0.975,-0.152,0.824,-0.641,1.587,73.333,38614.000,1.000
-27.352,-1.745,-13.990,-11.102,-2.641,-4.033,6.082,0.262,0.018,0.972,-0.151,0.854,-0.671,1.526,73.333,38615.000,1.000
-28.342,-3.452,-16.031,-12.895,-4.575,-5.561,3.847,-3.525,0.019,0.972,-0.150,0.854,-0.702,1.343,73.333,38616.000,1.000
-28.897,-4.019,-17.002,-13.741,-4.907,-4.495,5.354,-3.677,0.021,0.972,-0.153,0.946,-0.763,1.343,73.333,38617.000,1.000
-28.518,-3.091,-16.335,-13.225,-3.542,-1.393,9.475,-0.679,0.020,0.972,-0.151,1.007,-0.702,1.221,73.333,38618.000,1.000
-27.376,-1.475,-14.593,-11.932,-1.822,1.739,12.766,2.704,0.022,0.971,-0.152,1.007,-0.702,1.221,73.333,38619.000,1.000
-26.094,-0.284,-12.838,-10.913,-1.276,3.193,12.753,3.856,0.024,0.973,-0.150,1.099,-0.763,1.068,73.333,38620.000,1.000
-25.153,-0.073,-11.763,-10.767,-2.437,2.653,9.378,2.089,0.024,0.974,-0.150,1.038,-0.702,1.068,73.333,38621.000,1.000
-24.800,-0.681,-11.532,-11.402,-4.770,0.915,4.711,-1.326,0.024,0.978,-0.149,1.129,-0.671,1.038,73.333,38622.000,1.000
-25.205,-1.725,-12.040,-12.363,-7.263,-1.205,1.393,-4.378,0.025,0.979,-0.151,1.068,-0.671,1.129,73.333,38623.000,1.000
-26.254,-2.775,-12.902,-13.088,-8.986,-3.340,0.816,-5.628,0.025,0.977,-0.150,1.038,-0.671,1.099,73.333,38624.000,1.000
-27.340,-3.325,-13.471,-13.074,-9.501,-5.286,2.248,-5.035,0.025,0.978,-0.150,1.038,-0.641,1.221,73.333,38625.000,1.000
-27.683,-3.156,-13.197,-12.111,-8.966,-6.841,3.559,-3.792,0.025,0.976,-0.147,1.129,-0.610,1.221,73.333,38626.000,1.000
-27.081,-2.567,-12.163,-10.555,-8.030,-7.909,3.376,-3.145,0.025,0.975,-0.146,0.916,-0.549,1.190,73.333,38627.000,1.000
-26.108,-2.236,-11.086,-9.186,-7.410,-8.602,1.944,-3.378,0.022,0.976,-0.149,0.946,-0.580,1.312,73.333,38628.000,1.000
-25.651,-2.740,-10.843,-8.739,-7.526,-9.196,0.322,-3.956,0.022,0.978,-0.152,0.977,-0.549,1.312,73.333,38629.000,1.000
-26.233,-4.025,-11.892,-9.461,-8.314,-9.802,-0.379,-4.122,0.021,0.976,-0.148,0.946,-0.671,1.404,73.333,38630.000,1.000
-27.481,-5.313,-13.789,-10.834,-9.076,-10.004,0.588,-3.158,0.020,0.978,-0.147,0.946,-0.702,1.404,73.333,38631.000,1.000
-28.506,-5.630,-15.559,-12.075,-9.063,-9.197,3.216,-0.972,0.020,0.979,-0.147,0.885,-0.763,1.404,73.333,38632.000,1.000
-28.672,-4.612,-16.482,-12.863,-8.219,-7.398,6.178,1.311,0.021,0.979,-0.146,0.824,-0.793,1.343,73.333,38633.000,1.000
-27.986,-2.727,-16.498,-13.417,-7.152,-5.408,7.716,2.094,0.020,0.977,-0.146,0.824,-0.946,1.343,73.333,38634.000,1.000
-27.007,-0.940,-16.113,-14.078,-6.570,-4.264,7.356,0.776,0.020,0.977,-0.149,0.732,-1.007,1.312,73.333,38635.000,1.000
-26.250,-0.054,-15.824,-14.838,-6.673,-4.487,5.791,-1.735,0.020,0.977,-0.153,0.702,-1.038,1.312,73.333,38636.000,1.000
-25.778,-0.094,-15.724,-15.407,-7.247,-5.739,3.692,-3.972,0.021,0.975,-0.150,0.702,-1.129,1.282,73.333,38637.000,1.000
-25.395,-0.619,-15.680,-15.591,-8.067,-7.292,1.152,-5.198,0.020,0.973,-0.150,0.885,-1.160,1.251,73.333,38638.000,1.000
-25.169,-1.379,-15.743,-15.530,-9.043,-8.663,-1.614,-5.650,0.019,0.974,-0.148,0.916,-1.129,1.190,73.333,38639.000,1.000
-25.607,-2.485,-16.244,-15.561,-10.090,-9.766,-3.789,-5.855,0.021,0.975,-0.149,0.946,-1.190,1.190,73.333,38640.000,1.000
-27.206,-4.177,-17.475,-15.859,-10.960,-10.754,-4.796,-6.019,0.022,0.975,-0.153,1.007,-1.251,1.160,73.333,38641.000,1.000
-30.126,-6.469,-19.499,-16.392,-11.499,-11.863,-4.772,-6.108,0.021,0.974,-0.150,1.099,-1.221,1.129,73.333,38642.000,1.000
-34.062,-9.065,-22.062,-17.057,-11.808,-13.259,-4.321,-6.297,0.021,0.973,-0.149,1.129,-1.251,1.129,73.333,38643.000,1.000
-38.250,-11.424,-24.638,-17.798,-12.174,-14.812,-4.109,-7.043,0.023,0.974,-0.151,1.099,-1.221,1.190,73.333,38644.000,1.000
-41.764,-13.008,-26.656,-18.620,-12.927,-16.106,-4.664,-8.609,0.024,0.974,-0.152,1.160,-1.251,1.190,73.333,38645.000,1.000
-43.775,-13.501,-27.570,-19.378,-13.973,-16.611,-6.058,-10.566,0.024,0.973,-0.153,1.221,-1.221,1.343,73.333,38646.000,1.000
-43.851,-12.705,-26.952,-19.668,-14.562,-15.796,-7.145,-11.705,0.023,0.973,-0.150,1.343,-1.190,1.251,73.333,38647.000,1.000
-42.071,-10.599,-24.709,-18.926,-13.629,-13.387,-6.166,-10.556,0.024,0.975,-0.150,1.373,-1.343,1.251,73.333,38648.000,1.000
-39.058,-7.534,-21.320,-16.878,-10.711,-9.742,-2.516,-6.628,0.023,0.976,-0.150,1.465,-1.312,1.190,73.333,38649.000,1.000
-35.907,-4.342,-17.862,-14.022,-6.657,-5.943,2.496,-1.285,0.023,0.976,-0.150,1.404,-1.282,1.190,73.333,38650.000,1.000
-33.688,-2.171,-15.505,-11.401,-3.157,-3.377,6.312,2.962,0.023,0.978,-0.152,1.434,-1.312,1.190,73.333,38651.000,1.000
-33.069,-1.980,-15.064,-10.135,-1.830,-3.113,6.760,3.923,0.023,0.978,-0.152,1.404,-1.282,1.190,73.333,38652.000,1.000
-34.166,-4.111,-16.766,-10.958,-3.390,-5.358,3.380,0.942,0.024,0.978,-0.152,1.404,-1.221,1.251,73.333,38653.000,1.000
-36.502,-8.005,-20.096,-13.751,-7.248,-9.262,-2.362,-4.613,0.023,0.979,-0.152,1.404,-1.251,1.160,73.333,38654.000,1.000
-39.132,-12.267,-23.925,-17.432,-11.907,-13.343,-8.194,-10.153,0.021,0.979,-0.153,1.434,-1.251,1.068,73.333,38655.000,1.000
-40.959,-15.300,-26.915,-20.421,-15.702,-16.179,-12.442,-13.419,0.020,0.978,-0.153,1.465,-1.282,1.038,73.333,38656.000,1.000
-41.337,-16.108,-28.226,-21.573,-17.655,-17.018,-14.238,-13.625,0.021,0.979,-0.151,1.404,-1.190,0.916,73.333,38657.000,1.000
-40.236,-14.791,-27.817,-20.702,-17.756,-16.077,-13.495,-11.477,0.022,0.979,-0.152,1.373,-1.221,0.854,73.333,38658.000,1.000
-37.939,-12.243,-26.180,-18.403,-16.591,-14.211,-10.754,-8.263,0.022,0.978,-0.150,1.312,-1.221,0.854,73.333,38659.000,1.000
-34.899,-9.467,-24.043,-15.675,-14.928,-12.313,-6.820,-5.030,0.021,0.978,-0.149,1.343,-1.160,0.885,73.333,38660.000,1.000
-31.648,-7.083,-22.043,-13.405,-13.312,-10.877,-2.675,-2.339,0.023,0.979,-0.151,1.312,-1.160,0.854,73.333,38661.000,1.000
-28.721,-5.112,-20.519,-12.019,-11.977,-9.878,0.873,-0.449,0.024,0.979,-0.152,1.251,-1.160,0.885,73.333,38662.000,1.000
-26.401,-3.327,-19.433,-11.457,-10.910,-8.996,3.178,0.371,0.023,0.977,-0.149,1.190,-1.190,0.854,73.333,38663.000,1.000
-24.645,-1.684,-18.541,-11.453,-10.061,-7.982,3.651,-0.287,0.022,0.973,-0.152,1.282,-1.068,0.702,73.333,38664.000,1.000
-23.322,-0.347,-17.670,-11.763,-9.481,-6.859,2.317,-2.584,0.020,0.973,-0.153,1.282,-1.129,0.732,73.333,38665.000,1.000
-22.230,0.719,-16.548,-11.937,-8.822,-5.519,0.503,-5.629,0.021,0.973,-0.153,1.251,-1.129,0.671,73.333,38666.000,1.000
-21.232,1.943,-14.856,-11.412,-7.362,-3.471,0.460,-7.624,0.020,0.973,-0.152,1.312,-1.068,0.580,73.333,38667.000,1.000
-20.603,3.454,-12.773,-10.087,-4.919,-0.638,3.081,-7.348,0.023,0.973,-0.153,1.343,-1.190,0.580,73.333,38668.000,1.000
-21.032,4.644,-11.137,-8.580,-2.359,2.035,6.861,-5.137,0.021,0.974,-0.153,1.373,-1.221,0.671,73.333,38669.000,1.000
-23.057,4.717,-10.843,-7.713,-0.870,3.342,9.793,-2.301,0.020,0.975,-0.154,1.373,-1.221,0.671,73.333,38670.000,1.000
-26.510,3.248,-12.165,-7.928,-1.038,2.708,10.802,-0.271,0.021,0.976,-0.152,1.343,-1.251,0.671,73.333,38671.000,1.000
-30.702,0.294,-14.851,-9.348,-2.960,0.150,9.514,-0.340,0.021,0.975,-0.151,1.282,-1.221,0.763,73.333,38672.000,1.000
-34.662,-3.547,-18.212,-11.706,-6.232,-3.721,6.124,-2.829,0.021,0.977,-0.154,1.190,-1.190,0.732,73.333,38673.000,1.000
-37.256,-6.960,-21.094,-14.135,-9.677,-7.379,2.171,-6.216,0.021,0.977,-0.153,1.221,-1.282,0.916,73.333,38674.000,1.000
-37.761,-8.582,-22.565,-15.758,-11.992,-9.144,-0.001,-8.230,0.020,0.976,-0.153,1.129,-1.190,0.916,73.333,38675.000,1.000
-36.443,-8.231,-22.747,-16.507,-12.749,-8.612,0.616,-7.839,0.021,0.976,-0.153,1.099,-1.312,1.038,73.333,38676.000,1.000
-34.521,-7.003,-22.734,-17.168,-12.609,-6.871,2.954,-5.942,0.022,0.976,-0.154,1.038,-1.282,1.038,73.333,38677.000,1.000
-33.327,-6.281,-23.558,-18.562,-12.422,-5.386,4.944,-4.407,0.022,0.975,-0.155,1.038,-1.312,0.977,73.333,38678.000,1.000
-33.537,-6.753,-25.394,-20.857,-12.422,-4.989,5.236,-4.430,0.022,0.975,-0.154,0.916,-1.251,0.977,73.333,38679.000,1.000
-35.037,-8.254,-27.721,-23.634,-12.443,-5.802,3.886,-5.855,0.023,0.974,-0.152,1.007,-1.282,1.038,73.333,38680.000,1.000
-36.991,-10.181,-29.795,-26.202,-12.433,-7.556,1.507,-7.840,0.022,0.972,-0.150,0.885,-1.251,1.068,73.333,38681.000,1.000
-38.339,-11.882,-31.115,-27.950,-12.692,-9.733,-1.143,-9.625,0.024,0.973,-0.155,0.946,-1.312,1.099,73.333,38682.000,1.000
-38.385,-12.905,-31.501,-28.381,-13.352,-11.497,-2.794,-10.403,0.022,0.973,-0.154,0.946,-1.312,1.068,73.333,38683.000,1.000
-37.019,-12.945,-30.932,-27.163,-13.909,-11.780,-1.830,-9.294,0.021,0.974,-0.154,1.038,-1.343,1.099,73.333,38684.000,1.000
-34.739,-11.919,-29.596,-24.507,-13.786,-10.048,2.016,-6.413,0.021,0.975,-0.154,0.946,-1.312,1.007,73.333,38685.000,1.000
-32.319,-10.143,-27.842,-21.138,-12.917,-6.943,6.624,-3.201,0.021,0.976,-0.153,0.885,-1.190,1.099,73.333,38686.000,1.000
-30.347,-8.086,-26.020,-17.933,-11.776,-3.894,9.382,-1.215,0.025,0.977,-0.154,0.916,-1.251,1.068,73.333,38687.000,1.000
-28.854,-6.152,-24.388,-15.622,-11.026,-2.192,8.963,-1.204,0.023,0.978,-0.154,0.824,-1.221,1.129,73.333,38688.000,1.000
-27.416,-4.584,-23.083,-14.565,-11.138,-2.276,5.613,-3.103,0.022,0.978,-0.155,0.793,-1.251,1.129,73.333,38689.000,1.000
-25.715,-3.479,-22.134,-14.597,-12.097,-3.731,0.723,-6.212,0.023,0.979,-0.157,0.763,-1.129,1.190,73.333,38690.000,1.000
-23.857,-2.871,-21.405,-15.039,-13.208,-5.799,-3.909,-9.278,0.021,0.977,-0.152,0.641,-1.129,1.099,73.333,38691.000,1.000
-22.299,-2.634,-20.696,-15.089,-13.459,-7.726,-6.411,-10.749,0.022,0.976,-0.154,0.702,-1.007,1.099,73.333,38692.000,1.000
-21.417,-2.539,-19.863,-14.247,-12.188,-8.936,-5.842,-9.563,0.023,0.975,-0.154,0.610,-1.068,1.129,73.333,38693.000,1.000
-21.213,-2.370,-18.896,-12.585,-9.647,-9.170,-3.143,-6.184,0.024,0.977,-0.154,0.549,-0.977,1.160,73.333,38694.000,1.000
-21.466,-1.991,-17.980,-10.754,-6.958,-8.494,-0.292,-2.565,0.023,0.979,-0.154,0.580,-0.885,1.099,73.333,38695.000,1.000
-21.897,-1.406,-17.280,-9.565,-5.225,-7.121,1.290,-0.601,0.024,0.976,-0.155,0.519,-0.732,1.190,73.333,38696.000,1.000
-22.300,-0.526,-16.705,-9.474,-4.813,-5.266,1.526,-0.810,0.024,0.977,-0.158,0.549,-0.763,1.221,73.333,38697.000,1.000
-22.474,0.920,-15.836,-10.142,-5.139,-3.053,1.218,-2.230,0.023,0.978,-0.152,0.549,-0.702,1.221,73.333,38698.000,1.000
-22.312,3.099,-14.289,-10.617,-5.153,-0.410,1.635,-3.076,0.021,0.979,-0.151,0.488,-0.641,1.221,73.333,38699.000,1.000
-22.082,5.542,-12.381,-10.293,-4.359,2.570,3.809,-1.996,0.022,0.980,-0.148,0.397,-0.580,1.282,73.333,38700.000,1.000
-22.300,6.997,-11.136,-9.519,-3.346,4.973,7.016,0.653,0.024,0.978,-0.149,0.336,-0.702,1.312,73.333,38701.000,1.000
-23.407,6.236,-11.577,-9.283,-3.371,5.297,8.953,2.878,0.025,0.979,-0.152,0.275,-0.519,1.282,73.333,38702.000,1.000
-25.421,3.077,-13.881,-10.280,-5.160,2.766,7.752,2.750,0.024,0.979,-0.152,0.244,-0.488,1.373,73.333,38703.000,1.000
-27.921,-1.379,-17.232,-12.406,-8.303,-1.912,3.463,-0.104,0.024,0.977,-0.152,0.305,-0.458,1.495,73.333,38704.000,1.000
-30.397,-5.561,-20.495,-15.048,-11.771,-7.211,-2.239,-4.580,0.023,0.976,-0.153,0.336,-0.336,1.434,73.333,38705.000,1.000
-32.397,-8.392,-22.771,-17.446,-14.457,-11.655,-7.153,-8.907,0.024,0.974,-0.151,0.366,-0.305,1.556,73.333,38706.000,1.000
-33.702,-9.596,-23.757,-19.050,-15.567,-14.271,-9.219,-11.389,0.022,0.974,-0.154,0.366,-0.153,1.465,73.333,38707.000,1.000
-34.465,-9.718,-23.861,-19.815,-14.892,-14.903,-7.491,-11.093,0.021,0.976,-0.150,0.488,-0.183,1.526,73.333,38708.000,1.000
-35.105,-9.764,-23.919,-20.217,-12.909,-14.176,-2.768,-8.428,0.022,0.976,-0.153,0.580,-0.214,1.495,73.333,38709.000,1.000
-35.961,-10.483,-24.602,-20.926,-10.667,-13.140,2.564,-5.373,0.021,0.975,-0.152,0.580,-0.214,1.587,73.333,38710.000,1.000
-36.801,-11.843,-25.803,-22.159,-9.185,-12.610,5.349,-4.519,0.021,0.975,-0.153,0.488,-0.122,1.526,73.333,38711.000,1.000
-36.969,-13.060,-26.719,-23.479,-8.869,-12.513,3.875,-7.148,0.020,0.976,-0.149,0.549,-0.122,1.495,73.333,38712.000,1.000
-36.011,-13.316,-26.531,-24.165,-9.375,-12.150,-0.853,-12.362,0.019,0.976,-0.147,0.671,-0.153,1.434,73.333,38713.000,1.000
-34.157,-12.387,-25.013,-23.804,-10.023,-11.172,-6.234,-18.086,0.019,0.976,-0.151,0.671,-0.305,1.404,73.333,38714.000,1.000
-32.219,-10.669,-22.643,-22.552,-10.324,-10.015,-9.965,-22.405,0.017,0.974,-0.150,0.732,-0.275,1.312,73.333,38715.000,1.000
-30.852,-8.727,-20.051,-20.766,-9.923,-9.223,-11.077,-24.071,0.019,0.972,-0.151,0.702,-0.275,1.312,73.333,38716.000,1.000
-30.160,-6.791,-17.609,-18.678,-8.603,-8.695,-9.581,-22.710,0.019,0.971,-0.151,0.793,-0.275,1.251,73.333,38717.000,1.000
-29.818,-4.887,-15.409,-16.392,-6.457,-7.984,-6.231,-18.960,0.021,0.969,-0.153,0.885,-0.275,1.251,73.333,38718.000,1.000
-29.376,-3.134,-13.434,-14.074,-3.981,-7.014,-2.471,-14.208,0.024,0.968,-0.154,1.007,-0.275,1.251,73.333,38719.000,1.000
-28.585,-1.761,-11.704,-12.020,-1.843,-6.095,0.401,-9.875,0.025,0.967,-0.152,1.038,-0.275,1.190,73.333,38720.000,1.000
-27.421,-0.963,-10.252,-10.427,-0.370,-5.342,2.166,-6.596,0.027,0.967,-0.153,1.068,-0.275,1.251,73.333,38721.000,1.000
-26.063,-0.806,-9.210,-9.438,0.351,-4.640,3.465,-4.354,0.028,0.972,-0.156,1.221,-0.153,1.404,73.333,38722.000,1.000
-24.734,-1.330,-8.757,-9.233,0.234,-4.119,4.517,-3.171,0.027,0.971,-0.154,1.282,-0.061,1.495,73.333,38723.000,1.000
-23.493,-2.390,-8.811,-9.751,-0.586,-4.020,5.078,-3.136,0.026,0.970,-0.156,1.282,0.000,1.526,73.333,38724.000,1.000
-22.270,-3.473,-8.981,-10.518,-1.594,-4.268,5.274,-4.009,0.026,0.970,-0.153,1.312,0.031,1.587,73.333,38725.000,1.000
-21.000,-3.961,-8.851,-10.915,-2.123,-4.515,5.478,-5.189,0.025,0.972,-0.156,1.343,0.153,1.678,73.333,38726.000,1.000
-19.925,-3.611,-8.433,-10.763,-1.968,-4.561,5.856,-6.238,0.026,0.974,-0.156,1.404,0.214,1.740,73.333,38727.000,1.000
-19.506,-2.828,-8.144,-10.351,-1.406,-4.552,6.275,-7.101,0.024,0.976,-0.158,1.373,0.214,1.831,73.333,38728.000,1.000
-19.909,-2.191,-8.265,-9.837,-0.587,-4.526,7.059,-7.410,0.024,0.978,-0.157,1.343,0.244,1.740,73.333,38729.000,1.000
-20.778,-1.928,-8.713,-9.050,0.569,-4.245,8.910,-6.358,0.022,0.979,-0.153,1.282,0.183,1.709,73.333,38730.000,1.000
-21.643,-2.155,-9.430,-8.045,1.774,-3.884,11.158,-3.972,0.025,0.980,-0.155,1.221,0.183,1.587,73.333,38731.000,1.000
-22.628,-3.204,-10.889,-7.636,1.976,-4.341,11.540,-1.954,0.025,0.978,-0.157,1.068,0.153,1.495,73.333,38732.000,1.000
-24.301,-5.344,-13.699,-8.868,0.233,-6.318,8.156,-2.598,0.023,0.977,-0.157,1.038,0.122,1.465,73.333,38733.000,1.000
-26.842,-8.189,-17.751,-11.973,-3.235,-9.327,1.391,-6.804,0.024,0.979,-0.158,0.977,0.031,1.404,73.333,38734.000,1.000
-29.807,-10.825,-22.172,-16.200,-7.186,-11.984,-6.100,-13.221,0.021,0.982,-0.156,1.007,0.031,1.312,73.333,38735.000,1.000
-32.512,-12.551,-25.939,-20.417,-10.226,-13.070,-11.209,-19.189,0.022,0.982,-0.153,0.854,-0.061,1.221,73.333,38736.000,1.000
-34.576,-13.201,-28.546,-23.803,-11.736,-12.348,-12.105,-22.590,0.021,0.983,-0.153,0.854,-0.122,1.190,73.333,38737.000,1.000
-36.029,-13.173,-30.121,-25.996,-12.129,-10.816,-9.442,-23.022,0.021,0.987,-0.152,0.610,-0.183,1.160,73.333,38738.000,1.000
-37.147,-13.118,-31.101,-26.935,-12.299,-9.998,-5.927,-21.588,0.022,0.986,-0.153,0.366,-0.214,1.007,73.333,38739.000,1.000
-38.269,-13.415,-31.851,-26.733,-12.809,-10.623,-3.972,-19.734,0.022,0.988,-0.151,0.183,-0.305,0.854,73.333,38740.000,1.000
-39.584,-14.043,-32.431,-25.585,-13.435,-12.030,-3.861,-18.159,0.022,0.989,-0.154,0.092,-0.397,0.793,73.333,38741.000,1.000
-41.186,-14.833,-32.749,-23.897,-13.650,-12.941,-3.980,-16.759,0.023,0.988,-0.155,-0.061,-0.519,0.824,73.333,38742.000,1.000
-43.003,-15.706,-32.715,-22.203,-13.213,-12.690,-2.991,-15.362,0.026,0.989,-0.154,-0.305,-0.458,0.824,73.333,38743.000,1.000
-44.711,-16.571,-32.260,-20.912,-12.343,-11.624,-1.315,-14.216,0.026,0.986,-0.150,-0.305,-0.458,0.793,73.333,38744.000,1.000
-45.991,-17.292,-31.474,-20.228,-11.607,-10.645,-0.422,-13.845,0.026,0.985,-0.150,-0.519,-0.519,0.824,73.333,38745.000,1.000
-46.612,-17.776,-30.490,-20.019,-11.370,-10.416,-1.096,-14.426,0.025,0.983,-0.152,-0.641,-0.610,0.885,73.333,38746.000,1.000
-46.313,-17.811,-29.270,-19.827,-11.454,-10.917,-2.423,-15.421,0.024,0.980,-0.153,-0.641,-0.671,0.916,73.333,38747.000,1.000
-44.720,-17.087,-27.533,-19.042,-11.253,-11.684,-2.889,-15.847,0.023,0.977,-0.152,-0.824,-0.702,0.854,73.333,38748.000,1.000
-41.636,-15.337,-24.978,-17.240,-10.188,-12.224,-1.756,-14.920,0.022,0.975,-0.152,-0.885,-0.824,1.007,73.333,38749.000,1.000
-37.528,-12.618,-21.725,-14.561,-8.191,-12.252,0.925,-12.633,0.021,0.973,-0.152,-0.763,-0.885,1.007,73.333,38750.000,1.000
-33.412,-9.523,-18.374,-11.645,-5.691,-11.803,4.333,-9.864,0.019,0.971,-0.152,-0.610,-0.977,0.854,73.333,38751.000,1.000
-30.301,-6.982,-15.792,-9.380,-3.585,-11.339,6.633,-8.126,0.020,0.970,-0.150,-0.580,-1.068,0.824,73.333,38752.000,1.000
-28.649,-5.815,-14.709,-8.444,-2.856,-11.589,5.553,-8.807,0.019,0.968,-0.148,-0.488,-1.038,0.732,73.333,38753.000,1.000
-28.216,-6.164,-15.266,-8.867,-3.788,-12.787,0.432,-11.952,0.018,0.968,-0.149,-0.397,-1.129,0.763,73.333,38754.000,1.000
-28.452,-7.376,-16.945,-10.072,-5.634,-14.246,-6.710,-15.923,0.020,0.966,-0.152,-0.275,-1.221,0.702,73.333,38755.000,1.000
-28.812,-8.456,-18.834,-11.237,-7.038,-14.862,-12.660,-18.519,0.021,0.966,-0.148,0.000,-1.343,0.580,73.333,38756.000,1.000
-28.956,-8.550,-20.127,-11.770,-7.024,-13.863,-14.897,-18.544,0.021,0.967,-0.152,0.153,-1.465,0.549,73.333,38757.000,1.000
-28.794,-7.442,-20.487,-11.564,-5.655,-11.278,-12.918,-16.545,0.022,0.967,-0.152,0.397,-1.465,0.580,73.333,38758.000,1.000
-28.505,-5.728,-20.147,-11.098,-4.052,-8.091,-8.443,-14.301,0.022,0.967,-0.153,0.519,-1.495,0.671,73.333,38759.000,1.000
-28.483,-4.503,-19.789,-11.237,-3.769,-5.881,-4.275,-13.638,0.023,0.968,-0.150,0.610,-1.495,0.519,73.333,38760.000,1.000
-28.897,-4.706,-19.988,-12.494,-5.555,-5.773,-2.600,-15.217,0.023,0.969,-0.152,0.641,-1.404,0.458,73.333,38761.000,1.000
-29.503,-6.394,-20.778,-14.534,-8.755,-7.568,-3.557,-18.163,0.024,0.971,-0.151,0.793,-1.465,0.458,73.333,38762.000,1.000
-29.860,-8.788,-21.665,-16.375,-11.811,-9.975,-5.608,-20.827,0.023,0.970,-0.152,0.824,-1.495,0.549,73.333,38763.000,1.000
-29.744,-10.938,-22.057,-17.095,-13.317,-11.563,-6.974,-21.882,0.023,0.970,-0.150,0.916,-1.495,0.427,73.333,38764.000,1.000
-29.451,-12.299,-21.774,-16.449,-12.877,-11.688,-6.761,-20.995,0.023,0.970,-0.151,0.977,-1.465,0.458,73.333,38765.000,1.000
-29.477,-12.766,-20.984,-14.801,-11.056,-10.702,-5.435,-18.845,0.022,0.970,-0.151,0.977,-1.312,0.397,73.333,38766.000,1.000
-30.118,-12.388,-19.900,-12.779,-8.891,-9.459,-4.115,-16.618,0.023,0.970,-0.149,1.068,-1.373,0.458,73.333,38767.000,1.000
-31.297,-11.473,-18.700,-10.992,-7.281,-8.865,-3.733,-15.213,0.025,0.974,-0.150,1.068,-1.343,0.488,73.333,38768.000,1.000
-32.621,-10.611,-17.635,-9.883,-6.681,-9.639,-4.631,-14.851,0.026,0.975,-0.151,1.129,-1.282,0.427,73.333,38769.000,1.000
-33.581,-10.365,-17.088,-9.697,-7.227,-12.036,-6.555,-15.393,0.026,0.975,-0.152,1.129,-1.251,0.427,73.333,38770.000,1.000
-33.685,-10.974,-17.325,-10.326,-8.651,-15.517,-8.765,-16.467,0.026,0.976,-0.151,1.129,-1.190,0.305,73.333,38771.000,1.000
-32.865,-12.194,-18.374,-11.379,-10.284,-18.778,-9.768,-17.309,0.027,0.977,-0.152,1.160,-1.160,0.397,73.333,38772.000,1.000
-31.653,-13.494,-20.052,-12.459,-11.332,-20.447,-8.321,-17.108,0.027,0.979,-0.153,1.068,-1.129,0.397,73.333,38773.000,1.000
-30.733,-14.219,-21.928,-13.335,-11.273,-19.856,-4.917,-15.773,0.027,0.979,-0.154,1.068,-1.007,0.397,73.333,38774.000,1.000
-30.411,-13.833,-23.416,-13.879,-10.062,-17.315,-1.423,-14.007,0.029,0.980,-0.155,1.007,-0.916,0.366,73.333,38775.000,1.000
-30.519,-12.366,-24.045,-13.959,-8.009,-13.899,0.503,-12.599,0.027,0.982,-0.156,0.885,-0.854,0.305,73.333,38776.000,1.000
-30.846,-10.551,-23.874,-13.629,-5.851,-11.014,0.371,-12.094,0.029,0.983,-0.155,0.824,-0.763,0.336,73.333,38777.000,1.000
-31.340,-9.502,-23.483,-13.211,-4.541,-9.776,-1.553,-12.824,0.027,0.984,-0.155,0.702,-0.732,0.336,73.333,38778.000,1.000
-32.098,-10.084,-23.634,-13.198,-4.846,-10.461,-4.710,-14.892,0.026,0.982,-0.155,0.671,-0.702,0.336,73.333,38779.000,1.000
-33.390,-12.470,-24.990,-14.155,-7.136,-12.581,-8.435,-18.276,0.025,0.980,-0.154,0.671,-0.671,0.275,73.333,38780.000,1.000
-35.193,-15.952,-27.528,-16.219,-10.935,-15.150,-12.156,-22.490,0.021,0.977,-0.154,0.488,-0.610,0.214,73.333,38781.000,1.000
-36.766,-18.963,-30.181,-18.727,-14.849,-16.894,-15.002,-26.199,0.021,0.976,-0.155,0.427,-0.671,0.092,73.333,38782.000,1.000
-36.914,-19.875,-31.326,-20.487,-17.186,-16.756,-15.873,-27.786,0.022,0.974,-0.156,0.397,-0.610,0.153,73.333,38783.000,1.000
-34.860,-18.024,-29.854,-20.528,-16.950,-14.565,-14.081,-26.439,0.022,0.973,-0.156,0.458,-0.580,0.031,73.333,38784.000,1.000
-30.952,-14.154,-26.015,-18.762,-14.519,-11.308,-10.096,-22.813,0.023,0.974,-0.155,0.488,-0.610,-0.061,73.333,38785.000,1.000
-26.377,-9.897,-21.137,-15.891,-11.185,-8.492,-5.771,-18.607,0.024,0.976,-0.155,0.458,-0.580,-0.122,73.333,38786.000,1.000
-22.393,-6.568,-16.666,-12.804,-8.125,-7.021,-2.959,-15.298,0.023,0.978,-0.153,0.549,-0.397,-0.153,73.333,38787.000,1.000
-19.822,-4.634,-13.453,-10.063,-5.720,-6.807,-2.113,-13.119,0.024,0.979,-0.155,0.519,-0.580,-0.122,73.333,38788.000,1.000
-18.974,-3.967,-11.761,-7.918,-3.774,-7.233,-2.174,-11.299,0.026,0.978,-0.153,0.427,-0.580,-0.092,73.333,38789.000,1.000
-19.703,-4.228,-11.524,-6.595,-2.210,-7.806,-1.828,-9.340,0.027,0.976,-0.153,0.519,-0.549,-0.061,73.333,38790.000,1.000
-21.324,-5.005,-12.291,-6.274,-1.258,-8.420,-1.156,-7.830,0.026,0.976,-0.154,0.519,-0.519,0.122,73.333,38791.000,1.000
-22.946,-5.802,-13.384,-6.950,-1.255,-9.170,-1.312,-7.786,0.023,0.976,-0.152,0.519,-0.519,0.092,73.333,38792.000,1.000
-23.907,-6.244,-14.238,-8.313,-2.186,-10.074,-2.921,-9.351,0.017,0.978,-0.151,0.610,-0.366,0.122,73.333,38793.000,1.000
-23.966,-6.215,-14.592,-9.828,-3.516,-11.011,-5.195,-11.537,0.013,0.979,-0.151,0.549,-0.458,-0.031,73.333,38794.000,1.000
-23.264,-5.787,-14.423,-10.977,-4.501,-11.733,-6.469,-13.137,0.011,0.981,-0.150,0.366,-0.549,-0.183,73.333,38795.000,1.000
-22.009,-5.036,-13.645,-11.285,-4.433,-11.796,-5.514,-13.423,0.010,0.981,-0.149,0.336,-0.580,-0.305,73.333,38796.000,1.000
-20.453,-3.931,-12.176,-10.456,-3.013,-10.825,-2.320,-12.173,0.010,0.980,-0.147,0.305,-0.793,-0.366,73.333,38797.000,1.000
-18.955,-2.542,-10.141,-8.540,-0.528,-9.048,1.707,-9.560,0.010,0.978,-0.149,0.244,-0.946,-0.488,73.333,38798.000,1.000
-17.786,-1.105,-7.834,-5.953,2.340,-7.209,4.717,-6.310,0.010,0.976,-0.153,0.244,-1.129,-0.610,73.333,38799.000,1.000
-16.944,0.096,-5.612,-3.382,4.733,-6.065,5.524,-3.865,0.011,0.974,-0.153,0.275,-1.251,-0.610,73.333,38800.000,1.000
-16.114,0.822,-3.684,-1.398,5.950,-6.057,3.566,-3.675,0.015,0.973,-0.149,0.305,-1.373,-0.641,73.333,38801.000,1.000
-15.040,1.088,-2.116,-0.236,5.674,-7.066,-0.749,-6.098,0.018,0.973,-0.148,0.366,-1.465,-0.549,73.333,38802.000,1.000
-13.864,1.077,-1.004,0.103,4.107,-8.411,-5.834,-10.153,0.021,0.973,-0.148,0.488,-1.495,-0.488,73.333,38803.000,1.000
-13.027,0.911,-0.495,-0.288,1.877,-9.298,-9.769,-14.222,0.021,0.972,-0.148,0.488,-1.465,-0.366,73.333,38804.000,1.000
-12.878,0.647,-0.568,-1.155,-0.224,-9.287,-11.332,-16.803,0.018,0.974,-0.149,0.641,-1.556,-0.275,73.333,38805.000,1.000
-13.275,0.365,-0.804,-1.976,-1.367,-8.410,-10.389,-16.913,0.019,0.975,-0.149,0.671,-1.526,-0.061,73.333,38806.000,1.000
-13.812,0.119,-0.781,-2.351,-1.160,-7.154,-7.573,-14.649,0.017,0.974,-0.147,0.793,-1.556,0.153,73.333,38807.000,1.000
-14.222,-0.258,-0.522,-2.367,0.038,-6.249,-4.109,-11.398,0.018,0.976,-0.150,0.793,-1.587,0.214,73.333,38808.000,1.000
-14.520,-0.911,-0.411,-2.424,1.444,-5.995,-1.189,-8.807,0.020,0.979,-0.148,0.793,-1.556,0.366,73.333,38809.000,1.000
-15.106,-1.832,-0.988,-2.994,2.225,-6.118,0.535,-7.746,0.020,0.979,-0.149,0.916,-1.526,0.519,73.333,38810.000,1.000
-16.562,-3.194,-2.751,-4.419,1.730,-6.441,0.577,-8.324,0.019,0.979,-0.151,1.007,-1.465,0.580,73.333,38811.000,1.000
-19.170,-5.255,-5.840,-6.740,-0.257,-7.070,-1.071,-10.194,0.020,0.979,-0.151,1.099,-1.465,0.763,73.333,38812.000,1.000
-22.447,-7.840,-9.659,-9.479,-3.138,-7.826,-3.397,-12.530,0.021,0.978,-0.150,1.099,-1.495,0.732,73.333,38813.000,1.000
-25.346,-10.184,-13.019,-11.780,-5.682,-8.051,-4.715,-14.171,0.021,0.977,-0.149,1.068,-1.343,0.946,73.333,38814.000,1.000
-27.084,-11.513,-14.951,-12.987,-6.881,-7.208,-4.003,-14.266,0.021,0.976,-0.147,1.068,-1.312,1.038,73.333,38815.000,1.000
-27.565,-11.641,-15.214,-12.934,-6.416,-5.348,-1.866,-12.613,0.021,0.977,-0.151,1.038,-1.404,1.038,73.333,38816.000,1.000
-27.218,-10.792,-14.204,-11.876,-4.564,-2.810,0.633,-9.360,0.021,0.977,-0.152,1.129,-1.282,1.068,73.333,38817.000,1.000
-26.463,-9.309,-12.532,-10.237,-1.835,0.173,3.161,-4.853,0.022,0.976,-0.151,1.160,-1.160,0.977,73.333,38818.000,1.000
-25.385,-7.547,-10.729,-8.523,1.095,3.285,5.609,-0.104,0.022,0.976,-0.150,1.251,-1.099,0.916,73.333,38819.000,1.000
-23.949,-5.876,-9.236,-7.301,3.359,5.799,7.209,3.163,0.023,0.977,-0.152,1.343,-1.038,0.916,73.333,38820.000,1.000
-22.299,-4.656,-8.376,-6.903,4.377,6.935,6.916,3.736,0.023,0.977,-0.151,1.312,-0.977,0.946,73.333,38821.000,1.000
-21.053,-4.106,-8.436,-7.373,4.085,6.432,4.626,1.822,0.021,0.973,-0.151,1.343,-0.885,0.885,73.333,38822.000,1.000
-21.011,-4.305,-9.591,-8.569,2.770,4.466,0.865,-1.485,0.021,0.973,-0.150,1.465,-0.671,0.885,73.333,38823.000,1.000
-22.382,-5.049,-11.558,-10.074,0.984,1.473,-3.845,-4.913,0.025,0.973,-0.151,1.526,-0.610,0.885,73.333,38824.000,1.000
-24.543,-5.793,-13.544,-11.170,-0.517,-1.794,-8.446,-7.187,0.023,0.972,-0.150,1.556,-0.519,0.793,73.333,38825.000,1.000
-26.504,-6.069,-14.645,-11.146,-0.973,-4.480,-11.352,-7.299,0.023,0.970,-0.154,1.740,-0.397,0.763,73.333,38826.000,1.000
-27.676,-5.866,-14.480,-9.981,-0.283,-6.288,-11.648,-5.386,0.024,0.970,-0.154,1.862,-0.275,0.732,73.333,38827.000,1.000
-28.031,-5.631,-13.359,-8.450,0.790,-7.781,-10.237,-3.084,0.023,0.972,-0.157,1.953,-0.244,0.763,73.333,38828.000,1.000
-27.715,-5.707,-11.826,-7.367,1.400,-9.613,-8.774,-2.150,0.023,0.972,-0.156,2.075,-0.122,0.732,73.333,38829.000,1.000
-26.799,-5.901,-10.219,-6.887,1.412,-11.659,-7.836,-2.816,0.024,0.972,-0.159,2.228,0.031,0.702,73.333,38830.000,1.000
-25.256,-5.736,-8.568,-6.538,1.347,-13.233,-7.181,-4.087,0.023,0.971,-0.156,2.319,0.092,0.793,73.333,38831.000,1.000
-23.205,-4.945,-6.829,-5.849,1.634,-13.860,-6.739,-5.299,0.023,0.972,-0.156,2.350,0.092,0.885,73.333,38832.000,1.000
-20.987,-3.789,-5.023,-4.664,2.334,-13.519,-6.801,-6.559,0.021,0.970,-0.157,2.411,0.275,0.885,73.333,38833.000,1.000
-19.049,-2.791,-3.203,-3.096,3.286,-12.357,-7.376,-7.963,0.022,0.972,-0.158,2.380,0.397,1.007,73.333,38834.000,1.000
-17.822,-2.327,-1.505,-1.497,4.168,-10.634,-7.783,-9.155,0.021,0.972,-0.158,2.441,0.458,1.007,73.333,38835.000,1.000
-17.541,-2.567,-0.182,-0.360,4.574,-8.990,-7.417,-9.690,0.020,0.972,-0.157,2.441,0.488,0.885,73.333,38836.000,1.000
-18.260,-3.559,0.337,-0.225,4.001,-8.439,-6.601,-9.699,0.020,0.973,-0.157,2.380,0.549,1.007,73.333,38837.000,1.000
-19.736,-5.255,-0.238,-1.320,2.173,-9.710,-6.563,-9.867,0.018,0.975,-0.157,2.441,0.519,1.068,73.333,38838.000,1.000
-21.339,-7.350,-1.650,-3.256,-0.594,-12.505,-8.205,-10.757,0.020,0.977,-0.158,2.380,0.549,1.007,73.333,38839.000,1.000
-22.339,-9.241,-3.201,-5.248,-3.483,-15.497,-10.800,-12.304,0.016,0.976,-0.157,2.258,0.519,0.946,73.333,38840.000,1.000
-22.067,-10.151,-3.942,-6.336,-5.240,-16.857,-12.156,-13.504,0.016,0.976,-0.158,2.228,0.519,0.946,73.333,38841.000,1.000
-20.252,-9.445,-3.168,-5.823,-4.796,-15.324,-10.428,-13.012,0.016,0.977,-0.160,2.197,0.549,1.007,73.333,38842.000,1.000
-17.531,-7.444,-1.197,-3.937,-2.312,-11.514,-6.416,-10.627,0.016,0.975,-0.158,2.106,0.458,0.824,73.333,38843.000,1.000
-15.457,-5.560,0.523,-1.934,0.637,-7.721,-3.218,-7.812,0.016,0.976,-0.159,2.045,0.397,0.946,73.333,38844.000,1.000
-15.598,-5.269,0.378,-1.310,2.175,-6.027,-3.439,-6.577,0.015,0.975,-0.158,1.892,0.366,0.977,73.333,38845.000,1.000
-18.361,-7.089,-2.235,-2.761,1.522,-6.840,-7.256,-7.908,0.015,0.977,-0.159,1.801,0.305,0.977,73.333,38846.000,1.000
-22.775,-10.316,-6.641,-5.885,-0.730,-9.110,-12.440,-11.144,0.015,0.976,-0.157,1.709,0.275,1.007,73.333,38847.000,1.000
-27.133,-13.610,-11.374,-9.535,-3.267,-11.417,-16.254,-14.663,0.016,0.976,-0.155,1.709,0.183,0.854,73.333,38848.000,1.000
-29.906,-15.761,-14.942,-12.497,-4.964,-12.800,-17.321,-17.105,0.015,0.975,-0.158,1.617,0.122,0.977,73.333,38849.000,1.000
-30.458,-16.248,-16.485,-14.103,-5.460,-13.031,-15.886,-18.047,0.013,0.975,-0.156,1.465,0.061,0.916,73.333,38850.000,1.000
-29.097,-15.368,-15.879,-14.232,-4.890,-12.422,-13.012,-17.686,0.016,0.976,-0.158,1.312,-0.031,0.824,73.333,38851.000,1.000
-26.771,-13.903,-13.684,-13.189,-3.626,-11.545,-9.666,-16.442,0.014,0.977,-0.159,1.282,-0.153,0.854,73.333,38852.000,1.000
-24.518,-12.739,-10.927,-11.557,-2.116,-11.006,-6.778,-14.921,0.015,0.976,-0.160,1.160,-0.275,0.885,73.333,38853.000,1.000
-23.043,-12.446,-8.660,-9.960,-0.704,-11.124,-5.248,-13.762,0.018,0.975,-0.157,1.007,-0.336,0.732,73.333,38854.000,1.000
-22.719,-13.130,-7.654,-8.939,0.310,-11.874,-5.447,-13.482,0.019,0.974,-0.159,0.977,-0.366,0.763,73.333,38855.000,1.000
-23.554,-14.571,-8.207,-8.846,0.627,-13.037,-7.136,-14.431,0.018,0.974,-0.160,0.824,-0.366,0.946,73.333,38856.000,1.000
-25.171,-16.236,-10.058,-9.725,0.055,-14.137,-9.469,-16.570,0.016,0.975,-0.160,0.763,-0.397,1.038,73.333,38857.000,1.000
-26.894,-17.528,-12.434,-11.167,-1.155,-14.518,-11.356,-19.106,0.015,0.976,-0.161,0.671,-0.458,1.068,73.333,38858.000,1.000
-28.118,-18.164,-14.456,-12.519,-2.383,-13.836,-12.078,-20.815,0.017,0.975,-0.161,0.549,-0.519,1.007,73.333,38859.000,1.000
-28.691,-18.290,-15.692,-13.356,-3.217,-12.482,-11.746,-21.059,0.015,0.976,-0.159,0.458,-0.549,1.007,73.333,38860.000,1.000
-28.679,-18.185,-16.130,-13.495,-3.521,-11.112,-10.880,-20.012,0.015,0.976,-0.164,0.366,-0.641,1.068,73.333,38861.000,1.000
-28.099,-17.918,-15.935,-12.917,-3.334,-9.960,-9.301,-18.165,0.015,0.974,-0.161,0.305,-0.732,1.068,73.333,38862.000,1.000
-26.949,-17.517,-15.318,-11.860,-2.856,-9.010,-6.716,-16.250,0.015,0.974,-0.162,0.244,-0.732,0.977,73.333,38863.000,1.000
-25.326,-17.064,-14.400,-10.683,-2.298,-8.406,-3.910,-15.009,0.015,0.975,-0.160,0.122,-0.671,1.038,73.333,38864.000,1.000
-23.511,-16.675,-13.292,-9.620,-1.832,-8.464,-2.417,-14.684,0.017,0.974,-0.160,0.153,-0.732,1.099,73.333,38865.000,1.000
-21.929,-16.633,-12.276,-8.815,-1.691,-9.599,-3.558,-15.102,0.016,0.973,-0.162,0.092,-0.854,1.068,73.333,38866.000,1.000
-21.073,-17.267,-11.852,-8.535,-2.276,-12.091,-7.506,-16.124,0.015,0.971,-0.163,0.031,-0.885,1.007,73.333,38867.000,1.000
-21.158,-18.588,-12.306,-8.955,-3.723,-15.553,-12.915,-17.471,0.015,0.975,-0.164,0.031,-0.793,1.007,73.333,38868.000,1.000
-21.838,-20.001,-13.296,-9.816,-5.512,-18.684,-17.246,-18.279,0.017,0.975,-0.161,-0.061,-0.793,0.946,73.333,38869.000,1.000
-22.559,-20.752,-14.228,-10.676,-6.948,-20.117,-18.331,-17.544,0.018,0.975,-0.158,-0.092,-0.946,0.977,73.333,38870.000,1.000
-23.060,-20.715,-14.860,-11.371,-7.825,-19.515,-16.314,-15.211,0.020,0.974,-0.161,-0.092,-0.916,0.977,73.333,38871.000,1.000
-23.596,-20.370,-15.448,-12.151,-8.547,-17.543,-13.217,-12.536,0.020,0.976,-0.158,-0.153,-0.885,1.007,73.333,38872.000,1.000
-24.554,-20.218,-16.293,-13.236,-9.481,-15.030,-10.920,-11.155,0.019,0.975,-0.162,-0.122,-0.916,1.129,73.333,38873.000,1.000
-25.945,-20.342,-17.296,-14.407,-10.437,-12.432,-9.807,-11.751,0.020,0.975,-0.161,-0.183,-0.916,1.160,73.333,38874.000,1.000
-27.334,-20.519,-18.031,-15.130,-10.878,-10.015,-9.107,-13.604,0.019,0.975,-0.162,-0.244,-0.763,1.099,73.333,38875.000,1.000
-28.121,-20.627,-18.036,-14.951,-10.407,-8.163,-8.381,-15.372,0.020,0.974,-0.159,-0.305,-0.732,1.099,73.333,38876.000,1.000
-28.092,-20.754,-17.216,-13.905,-9.259,-7.419,-8.155,-16.329,0.021,0.975,-0.162,-0.305,-0.732,1.312,73.333,38877.000,1.000
-27.552,-21.121,-15.913,-12.465,-8.173,-8.233,-9.363,-16.742,0.022,0.974,-0.164,-0.244,-0.702,1.221,73.333,38878.000,1.000
-26.986,-21.851,-14.585,-11.157,-7.753,-10.570,-12.183,-17.252,0.021,0.973,-0.163,-0.397,-0.610,1.190,73.333,38879.000,1.000
-26.779,-22.810,-13.586,-10.405,-8.151,-13.888,-15.776,-18.520,0.021,0.972,-0.159,-0.305,-0.519,1.251,73.333,38880.000,1.000
-27.036,-23.714,-13.039,-10.445,-9.060,-17.356,-19.114,-21.025,0.021,0.973,-0.161,-0.275,-0.580,1.282,73.333,38881.000,1.000
-27.577,-24.246,-12.879,-11.275,-9.972,-19.982,-21.149,-24.518,0.021,0.975,-0.161,-0.305,-0.488,1.251,73.333,38882.000,1.000
-27.958,-24.174,-12.829,-12.552,-10.355,-20.856,-20.971,-27.823,0.023,0.976,-0.162,-0.305,-0.458,1.343,73.333,38883.000,1.000
-27.550,-23.296,-12.379,-13.587,-9.774,-19.588,-18.308,-29.481,0.022,0.978,-0.164,-0.305,-0.427,1.434,73.333,38884.000,1.000
-25.848,-21.521,-11.062,-13.641,-8.174,-16.789,-13.961,-28.738,0.021,0.978,-0.164,-0.427,-0.244,1.495,73.333,38885.000,1.000
-22.685,-19.085,-8.719,-12.229,-5.867,-13.888,-9.759,-25.953,0.019,0.978,-0.161,-0.427,-0.214,1.587,73.333,38886.000,1.000
-18.423,-16.371,-5.577,-9.352,-3.285,-12.062,-7.243,-22.138,0.018,0.977,-0.158,-0.397,-0.183,1.617,73.333,38887.000,1.000
-13.865,-13.715,-2.109,-5.537,-0.706,-11.462,-6.605,-18.269,0.017,0.976,-0.157,-0.427,-0.122,1.465,73.333,38888.000,1.000
-9.918,-11.373,1.114,-1.757,1.670,-11.500,-6.899,-15.021,0.017,0.975,-0.160,-0.488,-0.305,1.495,73.333,38889.000,1.000
-7.227,-9.531,3.574,0.892,3.500,-11.574,-6.929,-12.844,0.017,0.974,-0.160,-0.519,-0.244,1.495,73.333,38890.000,1.000
-5.750,-8.150,5.272,1.952,4.622,-11.276,-6.123,-11.852,0.018,0.975,-0.160,-0.488,-0.153,1.404,73.333,38891.000,1.000
-4.792,-6.791,6.838,1.958,5.248,-10.314,-4.627,-11.747,0.019,0.975,-0.159,-0.427,-0.153,1.404,73.333,38892.000,1.000
-3.537,-5.104,8.946,1.861,5.671,-8.793,-3.317,-12.116,0.021,0.974,-0.160,-0.488,-0.092,1.404,73.333,38893.000,1.000
-1.674,-3.272,11.645,2.133,5.891,-7.290,-3.316,-12.763,0.022,0.972,-0.160,-0.488,-0.122,1.434,73.333,38894.000,1.000
0.412,-1.771,14.302,2.519,5.745,-6.291,-4.685,-13.517,0.024,0.970,-0.160,-0.397,-0.031,1.434,73.333,38895.000,1.000
2.071,-0.968,16.092,2.512,5.315,-5.716,-6.180,-13.877,0.024,0.965,-0.159,-0.336,0.061,1.465,73.333,38896.000,1.000
2.664,-1.084,16.244,1.604,4.572,-5.329,-6.832,-13.693,0.024,0.963,-0.159,-0.183,0.153,1.587,73.333,38897.000,1.000
1.774,-2.330,14.285,-0.559,3.093,-5.355,-7.283,-13.840,0.024,0.962,-0.159,-0.061,0.153,1.617,73.333,38898.000,1.000
-0.479,-4.593,10.450,-3.835,0.594,-6.165,-8.651,-15.375,0.024,0.963,-0.159,0.183,0.305,1.648,73.333,38899.000,1.000
-3.455,-7.302,5.667,-7.588,-2.619,-7.684,-11.147,-18.552,0.024,0.966,-0.161,0.214,0.427,1.587,73.333,38900.000,1.000
-6.230,-9.733,1.236,-10.938,-5.598,-9.346,-14.215,-22.677,0.024,0.969,-0.159,0.458,0.488,1.678,73.333,38901.000,1.000
-8.003,-11.150,-1.623,-13.017,-7.125,-10.457,-16.671,-26.232,0.025,0.970,-0.161,0.519,0.519,1.678,73.333,38902.000,1.000
-8.404,-11.109,-2.282,-13.217,-6.374,-10.680,-17.282,-27.510,0.025,0.973,-0.162,0.519,0.519,1.740,73.333,38903.000,1.000
-7.650,-9.815,-1.067,-11.560,-3.532,-10.188,-15.569,-25.726,0.023,0.973,-0.158,0.580,0.549,1.923,73.333,38904.000,1.000
-6.528,-8.127,0.832,-8.911,0.143,-9.464,-12.063,-21.637,0.020,0.974,-0.161,0.549,0.671,1.892,73.333,38905.000,1.000
-6.000,-7.156,2.027,-6.620,3.025,-9.104,-8.389,-17.170,0.021,0.977,-0.162,0.549,0.671,1.862,73.333,38906.000,1.000
-6.743,-7.571,1.630,-5.834,3.902,-9.516,-6.361,-14.266,0.019,0.978,-0.160,0.519,0.610,1.953,73.333,38907.000,1.000
-8.633,-9.187,-0.209,-6.692,2.707,-10.460,-6.436,-13.520,0.017,0.980,-0.158,0.397,0.580,1.953,73.333,38908.000,1.000
-10.666,-11.059,-2.376,-8.227,0.490,-11.120,-7.354,-13.931,0.017,0.981,-0.158,0.244,0.488,1.862,73.333,38909.000,1.000
-11.658,-12.188,-3.695,-9.282,-1.665,-11.039,-7.809,-14.357,0.016,0.984,-0.157,0.031,0.427,1.770,73.333,38910.000,1.000
-10.935,-12.183,-3.615,-9.277,-3.245,-10.578,-7.798,-14.655,0.016,0.983,-0.158,-0.092,0.427,1.617,73.333,38911.000,1.000
-8.621,-11.234,-2.257,-8.267,-4.126,-10.272,-7.736,-15.182,0.016,0.985,-0.156,-0.305,0.244,1.526,73.333,38912.000,1.000
-5.397,-9.896,-0.149,-6.635,-4.271,-10.309,-7.893,-15.893,0.019,0.984,-0.157,-0.519,0.122,1.373,73.333,38913.000,1.000
-2.079,-8.814,2.021,-4.887,-3.793,-10.663,-8.654,-16.432,0.017,0.982,-0.158,-0.610,0.000,1.282,73.333,38914.000,1.000
0.602,-8.390,3.543,-3.594,-3.106,-11.316,-10.244,-16.812,0.016,0.981,-0.159,-0.732,-0.092,1.282,73.333,38915.000,1.000
2.281,-8.674,4.005,-3.111,-2.666,-12.188,-12.249,-17.350,0.017,0.981,-0.157,-0.916,-0.244,1.190,73.333,38916.000,1.000
3.042,-9.402,3.443,-3.415,-2.761,-13.133,-13.726,-18.154,0.018,0.980,-0.158,-0.916,-0.214,1.190,73.333,38917.000,1.000
3.274,-10.185,2.286,-4.089,-3.314,-13.982,-14.213,-19.018,0.019,0.979,-0.158,-1.068,-0.336,1.129,73.333,38918.000,1.000
3.353,-10.592,1.135,-4.547,-3.855,-14.473,-14.053,-19.516,0.020,0.977,-0.157,-1.160,-0.336,1.099,73.333,38919.000,1.000
3.252,-10.435,0.276,-4.575,-4.066,-14.515,-13.948,-19.393,0.022,0.976,-0.154,-1.190,-0.488,1.221,73.333,38920.000,1.000
2.745,-10.007,-0.443,-4.469,-4.062,-14.393,-14.600,-18.904,0.021,0.976,-0.157,-1.312,-0.519,1.404,73.333,38921.000,1.000
1.907,-9.734,-1.284,-4.639,-4.147,-14.433,-16.000,-18.568,0.021,0.974,-0.154,-1.343,-0.427,1.404,73.333,38922.000,1.000
1.229,-9.828,-2.251,-5.134,-4.344,-14.686,-17.416,-18.702,0.020,0.974,-0.153,-1.343,-0.458,1.434,73.333,38923.000,1.000
1.168,-10.138,-3.005,-5.501,-4.241,-14.896,-17.877,-19.048,0.019,0.978,-0.152,-1.373,-0.610,1.526,73.333,38924.000,1.000
1.741,-10.206,-3.084,-5.098,-3.228,-14.562,-16.427,-18.734,0.020,0.976,-0.151,-1.373,-0.519,1.556,73.333,38925.000,1.000
2.725,-9.581,-2.116,-3.512,-0.810,-13.108,-12.573,-16.785,0.019,0.977,-0.150,-1.434,-0.641,1.648,73.333,38926.000,1.000
3.864,-8.155,-0.209,-1.067,2.797,-10.416,-7.036,-13.163,0.019,0.976,-0.150,-1.526,-0.641,1.709,73.333,38927.000,1.000
4.914,-6.406,1.910,1.153,6.487,-7.298,-2.237,-9.290,0.021,0.976,-0.150,-1.526,-0.732,1.709,73.333,38928.000,1.000
5.721,-5.020,3.380,2.038,8.953,-4.865,-0.700,-7.018,0.021,0.975,-0.150,-1.556,-0.824,1.678,73.333,38929.000,1.000
6.240,-4.348,3.805,1.280,9.550,-3.651,-2.915,-7.120,0.019,0.977,-0.150,-1.648,-0.854,1.617,73.333,38930.000,1.000
6.538,-4.344,3.484,-0.428,8.620,-3.663,-7.407,-8.872,0.020,0.975,-0.151,-1.648,-0.885,1.556,73.333,38931.000,1.000
6.578,-4.677,3.031,-2.030,7.076,-4.680,-11.647,-10.751,0.020,0.973,-0.151,-1.587,-0.977,1.587,73.333,38932.000,1.000
6.175,-4.994,2.942,-2.776,5.902,-6.188,-13.287,-11.512,0.019,0.973,-0.149,-1.526,-0.885,1.709,73.333,38933.000,1.000
5.184,-5.099,3.410,-2.468,5.702,-7.448,-11.693,-10.995,0.021,0.973,-0.152,-1.495,-0.977,1.617,73.333,38934.000,1.000
3.615,-4.952,4.272,-1.400,6.364,-7.936,-8.428,-10.079,0.022,0.970,-0.151,-1.434,-1.068,1.617,73.333,38935.000,1.000
1.791,-4.595,5.226,0.058,7.355,-7.485,-5.945,-9.734,0.022,0.971,-0.151,-1.465,-1.099,1.587,73.333,38936.000,1.000
0.265,-3.963,6.066,1.721,8.153,-6.153,-5.476,-10.267,0.024,0.971,-0.153,-1.404,-1.068,1.617,73.333,38937.000,1.000
-0.450,-2.979,6.777,3.506,8.478,-4.330,-6.477,-11.335,0.023,0.970,-0.154,-1.251,-0.977,1.526,73.333,38938.000,1.000
-0.265,-1.798,7.374,5.163,8.204,-2.847,-7.745,-12.434,0.023,0.968,-0.151,-1.160,-1.038,1.526,73.333,38939.000,1.000
0.218,-0.904,7.599,6.195,7.211,-2.539,-8.747,-13.251,0.025,0.968,-0.151,-1.007,-0.946,1.526,73.333,38940.000,1.000
0.158,-0.766,7.164,6.293,5.686,-3.521,-9.771,-13.409,0.025,0.968,-0.152,-0.916,-0.916,1.587,73.333,38941.000,1.000
-0.988,-1.332,6.099,5.627,4.162,-5.063,-10.745,-12.410,0.026,0.968,-0.153,-0.702,-0.793,1.495,73.333,38942.000,1.000
-3.228,-2.219,4.702,4.621,3.079,-6.342,-11.177,-10.314,0.026,0.968,-0.153,-0.519,-0.732,1.526,73.333,38943.000,1.000
-6.090,-3.161,3.199,3.585,2.384,-7.172,-10.978,-8.065,0.026,0.969,-0.154,-0.488,-0.580,1.343,73.333,38944.000,1.000
-8.833,-4.181,1.578,2.531,1.580,-8.028,-10.516,-6.872,0.027,0.969,-0.152,-0.427,-0.519,1.312,73.333,38945.000,1.000
-10.687,-5.496,-0.190,1.240,0.210,-9.491,-10.284,-7.353,0.026,0.969,-0.149,-0.305,-0.549,1.434,73.333,38946.000,1.000
-11.397,-7.298,-2.148,-0.740,-2.011,-11.809,-10.657,-9.355,0.028,0.969,-0.152,-0.183,-0.427,1.495,73.333,38947.000,1.000
-11.380,-9.606,-4.340,-3.754,-5.079,-14.760,-11.933,-12.194,0.028,0.971,-0.154,0.031,-0.336,1.434,73.333,38948.000,1.000
-11.188,-11.957,-6.498,-7.499,-8.369,-17.534,-13.852,-14.746,0.026,0.971,-0.153,0.031,-0.366,1.465,73.333,38949.000,1.000
-11.063,-13.464,-8.052,-11.116,-10.827,-19.004,-15.404,-15.892,0.028,0.975,-0.153,0.061,-0.153,1.465,73.333,38950.000,1.000
-10.947,-13.532,-8.593,-13.836,-11.693,-18.513,-15.824,-15.397,0.028,0.976,-0.150,0.122,-0.183,1.434,73.333,38951.000,1.000
-10.845,-12.361,-8.334,-15.542,-11.100,-16.448,-15.055,-14.124,0.027,0.977,-0.151,-0.092,-0.092,1.404,73.333,38952.000,1.000
-10.872,-10.859,-7.954,-16.620,-9.795,-13.930,-13.585,-13.060,0.025,0.981,-0.150,-0.092,-0.092,1.373,73.333,38953.000,1.000
-10.974,-9.989,-8.058,-17.475,-8.468,-11.817,-12.008,-12.460,0.022,0.981,-0.153,-0.122,0.122,1.434,73.333,38954.000,1.000
-10.972,-10.259,-8.963,-18.377,-7.614,-10.338,-10.645,-12.219,0.020,0.980,-0.151,-0.275,0.153,1.343,73.333,38955.000,1.000
-10.805,-11.714,-10.655,-19.431,-7.480,-9.564,-9.712,-12.414,0.021,0.979,-0.150,-0.366,0.092,1.221,73.333,38956.000,1.000
-10.647,-13.832,-12.738,-20.517,-7.914,-9.551,-9.174,-12.985,0.022,0.977,-0.150,-0.488,0.061,1.129,73.333,38957.000,1.000
-10.645,-15.653,-14.508,-21.197,-8.215,-9.950,-8.589,-13.275,0.023,0.977,-0.150,-0.519,0.031,1.282,73.333,38958.000,1.000
-10.808,-16.341,-15.350,-20.978,-7.531,-9.954,-7.285,-12.457,0.024,0.977,-0.153,-0.488,-0.183,1.282,73.333,38959.000,1.000
-11.199,-15.695,-15.203,-19.828,-5.576,-8.873,-4.960,-10.417,0.025,0.977,-0.152,-0.580,-0.153,1.190,73.333,38960.000,1.000
-11.766,-14.029,-14.411,-18.149,-2.727,-6.597,-2.308,-7.748,0.026,0.981,-0.154,-0.549,0.000,1.129,73.333,38961.000,1.000
-12.239,-11.714,-13.398,-16.445,0.267,-3.487,-0.397,-5.026,0.024,0.983,-0.152,-0.580,0.061,1.190,73.333,38962.000,1.000
-12.349,-9.191,-12.460,-15.051,2.715,-0.133,0.243,-2.496,0.025,0.983,-0.152,-0.824,0.061,1.312,73.333,38963.000,1.000
-11.988,-6.984,-11.613,-13.974,4.369,2.814,0.097,-0.110,0.025,0.982,-0.152,-0.977,0.000,1.495,73.333,38964.000,1.000
-11.181,-5.497,-10.646,-12.978,5.392,4.762,0.288,2.333,0.027,0.980,-0.153,-1.038,-0.031,1.556,73.333,38965.000,1.000
-9.979,-4.869,-9.307,-11.767,6.058,5.394,1.118,4.787,0.028,0.980,-0.155,-1.007,0.031,1.740,73.333,38966.000,1.000
-8.555,-4.869,-7.546,-10.252,6.484,4.930,1.764,6.842,0.026,0.979,-0.154,-0.977,0.061,1.740,73.333,38967.000,1.000
-7.173,-5.067,-5.535,-8.597,6.779,4.106,1.563,8.322,0.023,0.977,-0.152,-0.916,0.153,1.770,73.333,38968.000,1.000
-5.945,-4.955,-3.435,-7.030,7.222,3.859,1.025,9.630,0.022,0.976,-0.150,-0.946,0.031,1.862,73.333,38969.000,1.000
-4.793,-4.120,-1.308,-5.697,8.000,4.764,1.075,11.073,0.019,0.976,-0.152,-0.916,0.031,1.678,73.333,38970.000,1.000
-3.618,-2.636,0.754,-4.618,8.999,6.566,1.600,12.250,0.015,0.977,-0.155,-1.038,-0.092,1.617,73.333,38971.000,1.000
-2.511,-1.047,2.467,-3.822,9.806,8.413,1.690,12.395,0.012,0.976,-0.154,-1.038,-0.214,1.556,73.333,38972.000,1.000
-1.593,-0.014,3.522,-3.317,10.062,9.469,0.660,11.301,0.014,0.973,-0.152,-0.977,-0.366,1.312,73.333,38973.000,1.000
-0.863,0.160,3.850,-3.037,9.719,9.331,-1.350,9.739,0.016,0.972,-0.153,-0.824,-0.549,1.160,73.333,38974.000,1.000
-0.312,-0.298,3.653,-2.840,9.029,8.246,-3.345,8.960,0.018,0.973,-0.154,-0.702,-0.732,1.068,73.333,38975.000,1.000
0.086,-0.936,3.307,-2.479,8.465,7.012,-4.201,9.893,0.019,0.973,-0.152,-0.671,-0.763,1.007,73.333,38976.000,1.000
0.254,-1.523,2.968,-1.887,8.218,6.281,-3.449,12.465,0.020,0.974,-0.151,-0.641,-0.916,1.099,73.333,38977.000,1.000
-0.016,-2.274,2.364,-1.386,7.890,5.986,-1.785,15.478,0.022,0.977,-0.150,-0.580,-0.885,1.068,73.333,38978.000,1.000
-0.776,-3.492,1.165,-1.370,6.979,5.673,-0.417,17.398,0.021,0.979,-0.153,-0.580,-0.824,1.007,73.333,38979.000,1.000
-1.674,-5.076,-0.561,-1.840,5.556,5.111,0.129,17.640,0.023,0.978,-0.149,-0.641,-0.946,1.068,73.333,38980.000,1.000
-2.049,-6.530,-2.273,-2.250,4.450,4.486,0.300,17.194,0.024,0.977,-0.149,-0.519,-0.946,1.129,73.333,38981.000,1.000
-1.530,-7.334,-3.495,-2.065,4.450,4.130,1.136,17.596,0.023,0.978,-0.150,-0.641,-1.038,1.099,73.333,38982.000,1.000
-0.441,-7.448,-4.311,-1.426,5.400,3.968,2.820,19.033,0.023,0.979,-0.149,-0.763,-1.007,1.129,73.333,38983.000,1.000
0.450,-7.334,-5.256,-1.161,6.124,3.286,3.596,19.884,0.025,0.977,-0.149,-0.763,-1.038,1.312,73.333,38984.000,1.000
0.481,-7.586,-6.771,-2.023,5.354,1.252,1.329,18.629,0.024,0.975,-0.150,-0.702,-0.977,1.373,73.333,38985.000,1.000
-0.372,-8.524,-8.639,-3.773,3.051,-2.099,-3.745,16.009,0.024,0.975,-0.150,-0.793,-1.007,1.404,73.333,38986.000,1.000
-1.554,-9.919,-10.141,-5.358,0.417,-5.649,-8.758,14.301,0.024,0.977,-0.147,-0.793,-0.916,1.434,73.333,38987.000,1.000
-2.303,-11.162,-10.609,-5.815,-1.162,-8.001,-11.069,14.774,0.022,0.977,-0.148,-0.732,-1.038,1.495,73.333,38988.000,1.000
-1.994,-11.527,-9.701,-4.751,-0.835,-8.193,-9.969,17.185,0.021,0.977,-0.149,-0.732,-1.099,1.556,73.333,38989.000,1.000
-0.551,-10.574,-7.590,-2.400,1.398,-6.148,-6.190,20.851,0.020,0.976,-0.150,-0.702,-1.099,1.678,73.333,38990.000,1.000
1.479,-8.627,-5.003,0.426,4.573,-2.934,-1.711,24.566,0.020,0.977,-0.150,-0.702,-1.038,1.526,73.333,38991.000,1.000
3.252,-6.566,-2.934,2.560,7.096,-0.232,0.986,26.461,0.021,0.975,-0.153,-0.763,-1.068,1.465,73.333,38992.000,1.000
4.324,-5.154,-1.954,3.243,7.869,0.820,0.621,25.514,0.021,0.974,-0.150,-0.763,-1.099,1.465,73.333,38993.000,1.000
4.956,-4.617,-1.997,2.552,6.929,0.292,-1.871,22.542,0.021,0.973,-0.150,-0.702,-1.160,1.465,73.333,38994.000,1.000
5.552,-4.931,-2.911,0.913,4.855,-1.025,-4.368,19.128,0.024,0.973,-0.148,-0.610,-1.282,1.495,73.333,38995.000,1.000
6.393,-5.954,-4.515,-1.162,2.449,-2.233,-5.357,16.532,0.022,0.973,-0.148,-0.610,-1.251,1.404,73.333,38996.000,1.000
7.906,-7.005,-6.167,-2.919,0.773,-2.500,-4.368,15.596,0.024,0.971,-0.149,-0.519,-1.190,1.373,73.333,38997.000,1.000
10.706,-7.121,-6.914,-3.537,0.728,-1.490,-1.946,16.644,0.026,0.973,-0.147,-0.549,-1.221,1.373,73.333,38998.000,1.000
15.186,-5.715,-6.114,-2.586,2.434,0.346,0.674,19.215,0.023,0.974,-0.149,-0.458,-1.251,1.373,73.333,38999.000,1.000
21.206,-2.779,-3.690,-0.227,5.231,2.270,2.568,22.180,0.024,0.972,-0.149,-0.366,-1.282,1.373,73.333,39000.000,1.000
28.181,1.207,0.043,2.970,8.356,3.907,3.721,24.485,0.024,0.974,-0.151,-0.275,-1.221,1.343,73.333,39001.000,1.000
35.200,5.436,4.444,6.256,11.297,5.348,4.825,25.895,0.025,0.975,-0.152,-0.214,-1.129,1.312,73.333,39002.000,1.000
41.264,8.895,8.657,9.003,13.797,6.764,6.279,26.913,0.025,0.974,-0.152,-0.061,-0.977,1.251,73.333,39003.000,1.000
45.684,10.808,11.993,10.940,15.776,8.045,7.837,28.030,0.026,0.974,-0.148,-0.031,-0.977,1.343,73.333,39004.000,1.000
48.547,11.280,14.389,12.267,17.366,8.957,9.104,29.281,0.027,0.976,-0.147,0.092,-0.946,1.282,73.333,39005.000,1.000
50.910,11.519,16.648,13.781,19.229,9.860,10.243,30.840,0.028,0.975,-0.146,0.031,-0.885,1.312,73.333,39006.000,1.000
53.971,13.110,19.737,16.349,22.171,11.749,12.442,33.409,0.027,0.976,-0.148,0.031,-0.824,1.373,73.333,39007.000,1.000
58.027,16.500,23.657,19.950,26.055,14.846,16.204,37.029,0.028,0.977,-0.149,0.092,-0.793,1.312,73.333,39008.000,1.000
62.386,20.532,27.302,23.488,29.495,17.852,19.814,40.133,0.026,0.977,-0.152,0.122,-0.732,1.251,73.333,39009.000,1.000
65.973,23.513,29.388,25.641,30.970,19.139,21.000,40.779,0.024,0.975,-0.152,0.153,-0.763,1.129,73.333,39010.000,1.000
68.074,24.420,29.406,25.795,30.072,18.143,19.024,38.384,0.025,0.976,-0.151,0.183,-0.641,1.190,73.333,39011.000,1.000
68.760,23.487,27.862,24.307,27.604,15.561,14.932,34.003,0.024,0.975,-0.149,0.153,-0.641,1.160,73.333,39012.000,1.000
68.991,22.000,26.144,22.418,25.154,12.919,10.691,29.714,0.023,0.977,-0.148,0.061,-0.641,1.129,73.333,39013.000,1.000
70.106,21.563,25.927,21.696,24.400,11.993,8.329,27.581,0.023,0.977,-0.152,0.092,-0.671,1.068,73.333,39014.000,1.000
72.853,23.088,28.064,22.994,25.975,13.659,8.664,28.235,0.023,0.978,-0.146,0.061,-0.549,0.946,73.333,39015.000,1.000
76.848,26.010,31.860,25.834,28.888,16.842,10.372,30.393,0.024,0.980,-0.148,0.031,-0.519,0.854,73.333,39016.000,1.000
80.877,28.666,35.437,28.774,31.147,19.137,11.421,32.074,0.023,0.978,-0.148,0.000,-0.580,0.793,73.333,39017.000,1.000
83.903,29.627,37.193,30.621,31.405,18.877,10.977,32.324,0.021,0.978,-0.146,-0.122,-0.610,0.885,73.333,39018.000,1.000
85.785,28.905,37.017,31.255,29.965,16.418,9.590,31.709,0.022,0.977,-0.147,-0.092,-0.610,0.916,73.333,39019.000,1.000
87.051,27.766,36.025,31.314,28.153,13.434,8.113,31.256,0.021,0.977,-0.148,-0.153,-0.580,0.916,73.333,39020.000,1.000
88.387,27.487,35.519,31.547,27.249,11.600,6.932,31.378,0.022,0.977,-0.147,-0.153,-0.671,0.854,73.333,39021.000,1.000
90.080,28.465,36.088,32.310,27.696,11.649,6.140,31.745,0.023,0.976,-0.149,-0.153,-0.671,0.824,73.333,39022.000,1.000
91.861,30.097,37.422,33.444,28.987,12.915,5.467,31.741,0.020,0.977,-0.148,-0.183,-0.702,0.916,73.333,39023.000,1.000
93.219,31.430,38.784,34.514,30.225,14.077,4.592,31.083,0.020,0.977,-0.149,-0.275,-0.854,0.854,73.333,39024.000,1.000
93.790,31.897,39.539,35.107,30.725,14.246,3.631,30.067,0.020,0.977,-0.149,-0.244,-0.824,0.916,73.333,39025.000,1.000
93.753,31.605,39.604,35.152,30.366,13.158,2.590,29.125,0.018,0.975,-0.149,-0.183,-1.038,0.885,73.333,39026.000,1.000
93.728,31.157,39.396,34.921,29.430,11.020,1.264,28.368,0.021,0.976,-0.146,-0.183,-1.129,0.916,73.333,39027.000,1.000
94.269,31.019,39.361,34.791,28.361,8.493,-0.015,27.896,0.021,0.977,-0.146,-0.183,-1.129,0.946,73.333,39028.000,1.000
95.543,31.289,39.696,35.020,27.647,6.596,-0.051,28.060,0.022,0.976,-0.148,-0.183,-1.190,0.977,73.333,39029.000,1.000
97.265,31.877,40.245,35.482,27.417,6.176,1.788,28.702,0.021,0.976,-0.147,-0.305,-1.221,1.068,73.333,39030.000,1.000
98.890,32.619,40.661,35.723,27.343,7.456,4.207,28.948,0.021,0.976,-0.149,-0.275,-1.190,1.129,73.333,39031.000,1.000
99.866,33.545,40.776,35.390,27.135,10.328,5.601,28.352,0.021,0.978,-0.147,-0.275,-1.312,1.221,73.333,39032.000,1.000
99.756,34.696,40.589,34.411,26.721,14.367,5.432,27.022,0.021,0.977,-0.151,-0.275,-1.373,1.221,73.333,39033.000,1.000
98.185,35.582,39.836,32.641,25.749,18.179,3.567,24.618,0.021,0.976,-0.152,-0.305,-1.434,1.312,73.333,39034.000,1.000
95.017,35.355,38.161,29.951,23.700,19.606,0.007,20.790,0.023,0.976,-0.149,-0.336,-1.465,1.251,73.333,39035.000,1.000
90.747,33.698,35.889,26.876,20.843,17.347,-4.571,16.483,0.022,0.975,-0.147,-0.244,-1.587,1.251,73.333,39036.000,1.000
86.263,31.332,34.009,24.510,18.261,12.204,-8.557,13.648,0.022,0.974,-0.148,-0.153,-1.617,1.312,73.333,39037.000,1.000
82.363,29.397,33.367,23.729,17.081,6.638,-10.144,13.913,0.021,0.976,-0.144,-0.122,-1.587,1.251,73.333,39038.000,1.000
79.443,28.603,33.975,24.562,17.803,3.229,-8.135,17.694,0.021,0.978,-0.146,-0.183,-1.556,1.312,73.333,39039.000,1.000
77.116,28.630,34.724,25.933,19.777,3.020,-2.767,23.605,0.020,0.977,-0.144,-0.275,-1.648,1.312,73.333,39040.000,1.000
74.343,28.019,33.853,26.106,21.315,4.772,3.529,28.752,0.021,0.975,-0.145,-0.275,-1.556,1.373,73.333,39041.000,1.000
70.208,25.229,30.107,23.717,20.580,5.905,7.241,30.312,0.024,0.975,-0.147,-0.336,-1.556,1.343,73.333,39042.000,1.000
64.714,19.941,23.801,18.748,16.836,4.336,5.785,27.064,0.023,0.974,-0.146,-0.244,-1.648,1.282,73.333,39043.000,1.000
58.855,13.498,16.845,12.623,10.965,-0.122,-0.980,19.846,0.020,0.976,-0.147,-0.183,-1.678,1.373,73.333,39044.000,1.000
54.162,8.264,11.729,7.484,5.038,-5.446,-10.134,11.289,0.022,0.976,-0.146,-0.122,-1.678,1.434,73.333,39045.000,1.000
52.038,6.378,10.309,5.228,1.376,-8.475,-16.925,4.840,0.022,0.979,-0.146,-0.153,-1.556,1.343,73.333,39046.000,1.000
52.719,8.567,12.774,6.440,1.151,-7.096,-17.697,2.838,0.021,0.978,-0.141,-0.153,-1.587,1.312,73.333,39047.000,1.000
55.049,13.688,17.676,10.169,3.808,-1.735,-12.479,5.316,0.022,0.978,-0.143,-0.214,-1.617,1.160,73.333,39048.000,1.000
57.394,19.488,22.919,14.768,7.754,5.271,-4.368,10.717,0.023,0.976,-0.145,-0.366,-1.556,1.190,73.333,39049.000,1.000
58.423,23.578,26.548,18.652,11.113,10.959,3.034,17.028,0.023,0.975,-0.146,-0.336,-1.495,1.221,73.333,39050.000,1.000
57.611,24.256,27.422,20.752,12.413,12.691,7.087,22.324,0.022,0.973,-0.147,-0.336,-1.587,1.221,73.333,39051.000,1.000
55.410,21.368,25.725,20.751,11.247,9.386,6.943,25.209,0.022,0.973,-0.147,-0.153,-1.465,1.312,73.333,39052.000,1.000
52.953,16.359,22.841,19.188,8.585,2.365,3.606,25.391,0.022,0.974,-0.145,-0.092,-1.465,1.190,73.333,39053.000,1.000
51.349,11.357,20.495,17.172,6.180,-5.409,-0.896,23.885,0.022,0.975,-0.147,-0.061,-1.465,1.099,73.333,39054.000,1.000
50.797,7.763,19.488,15.478,5.181,-11.280,-4.606,22.283,0.023,0.975,-0.146,0.031,-1.404,1.221,73.333,39055.000,1.000
50.564,5.595,19.363,14.106,5.512,-14.166,-6.581,21.622,0.026,0.976,-0.145,0.031,-1.404,1.373,73.333,39056.000,1.000
49.872,4.246,19.236,12.715,6.308,-14.432,-7.108,21.600,0.026,0.976,-0.146,0.092,-1.221,1.343,73.333,39057.000,1.000
48.449,3.119,18.497,11.053,6.545,-13.473,-7.677,20.767,0.026,0.978,-0.145,0.000,-1.129,1.404,73.333,39058.000,1.000
46.204,1.664,16.749,8.849,5.350,-13.007,-9.988,17.854,0.024,0.978,-0.144,0.153,-1.068,1.465,73.333,39059.000,1.000
43.197,-0.287,13.948,5.969,2.533,-13.579,-14.056,13.121,0.026,0.979,-0.141,0.122,-1.190,1.495,73.333,39060.000,1.000
40.265,-2.028,11.007,3.104,-0.835,-13.989,-17.774,8.499,0.024,0.978,-0.141,0.122,-1.190,1.404,73.333,39061.000,1.000
38.544,-2.518,9.298,1.464,-3.249,-13.024,-18.716,6.284,0.023,0.976,-0.141,0.122,-1.129,1.526,73.333,39062.000,1.000
38.063,-1.737,9.249,1.490,-4.269,-11.231,-16.580,7.441,0.023,0.975,-0.143,0.092,-1.038,1.556,73.333,39063.000,1.000
37.469,-0.822,9.926,2.311,-4.800,-10.282,-13.489,10.981,0.022,0.974,-0.147,0.153,-0.946,1.587,73.333,39064.000,1.000
35.100,-1.081,9.821,2.437,-6.225,-11.455,-12.269,14.544,0.022,0.976,-0.146,0.397,-0.916,1.556,73.333,39065.000,1.000
30.110,-3.336,7.810,0.666,-9.448,-15.002,-14.773,15.539,0.022,0.978,-0.146,0.458,-0.946,1.617,73.333,39066.000,1.000
22.940,-7.471,3.691,-3.400,-14.454,-20.150,-20.759,12.450,0.024,0.980,-0.145,0.488,-0.885,1.526,73.333,39067.000,1.000
15.365,-12.258,-1.543,-8.866,-19.982,-25.345,-27.919,6.035,0.024,0.981,-0.144,0.488,-0.885,1.587,73.333,39068.000,1.000
9.566,-15.958,-6.205,-13.748,-23.910,-28.881,-32.954,-0.797,0.027,0.980,-0.143,0.519,-0.977,1.617,73.333,39069.000,1.000
6.378,-17.668,-9.278,-16.453,-24.777,-29.996,-33.538,-5.028,0.026,0.977,-0.142,0.427,-0.854,1.770,73.333,39070.000,1.000
4.588,-18.110,-11.177,-17.059,-22.958,-29.527,-30.205,-5.667,0.027,0.971,-0.144,0.458,-0.702,1.617,73.333,39071.000,1.000
2.131,-18.722,-13.024,-16.931,-20.190,-29.050,-25.490,-3.814,0.028,0.967,-0.146,0.641,-0.793,1.801,73.333,39072.000,1.000
-2.019,-20.297,-15.322,-17.170,-17.964,-29.434,-21.635,-1.084,0.028,0.968,-0.147,0.824,-0.549,1.740,73.333,39073.000,1.000
-7.365,-22.666,-17.729,-18.010,-16.904,-30.553,-19.904,1.023,0.030,0.969,-0.148,1.038,-0.458,1.770,73.333,39074.000,1.000
-12.798,-25.183,-19.733,-19.327,-17.106,-31.777,-20.785,1.113,0.031,0.972,-0.147,1.282,-0.458,1.678,73.333,39075.000,1.000
-17.306,-27.059,-20.929,-20.759,-18.020,-32.179,-23.379,-0.910,0.030,0.973,-0.146,1.373,-0.427,1.709,73.333,39076.000,1.000
-20.535,-27.787,-21.330,-21.863,-18.866,-31.263,-25.486,-3.386,0.031,0.975,-0.150,1.465,-0.305,1.587,73.333,39077.000,1.000
-23.076,-27.858,-21.719,-22.689,-19.599,-29.871,-25.853,-4.715,0.030,0.975,-0.148,1.495,-0.244,1.648,73.333,39078.000,1.000
-25.872,-28.372,-23.071,-23.767,-20.864,-29.381,-25.262,-4.825,0.030,0.976,-0.151,1.343,-0.244,1.709,73.333,39079.000,1.000
-29.123,-29.677,-25.370,-25.180,-22.848,-29.968,-24.812,-4.277,0.028,0.976,-0.151,1.404,-0.153,1.648,73.333,39080.000,1.000
-32.032,-31.101,-27.480,-26.199,-24.714,-30.481,-24.585,-2.932,0.026,0.975,-0.148,1.404,-0.031,1.495,73.333,39081.000,1.000
-34.017,-32.088,-28.609,-26.421,-25.703,-29.912,-24.255,-0.588,0.024,0.977,-0.147,1.404,0.031,1.373,73.333,39082.000,1.000
-35.363,-32.879,-29.046,-26.389,-25.846,-28.144,-23.816,2.139,0.023,0.978,-0.148,1.495,-0.061,1.343,73.333,39083.000,1.000
-36.507,-33.755,-29.271,-26.691,-25.352,-25.587,-22.935,4.594,0.022,0.980,-0.150,1.556,-0.061,1.251,73.333,39084.000,1.000
-37.571,-34.499,-29.318,-27.363,-24.307,-23.162,-20.931,6.669,0.021,0.981,-0.149,1.526,-0.031,0.977,73.333,39085.000,1.000
-38.422,-34.725,-28.912,-28.107,-22.857,-22.006,-18.180,8.206,0.020,0.983,-0.149,1.495,-0.153,0.763,73.333,39086.000,1.000
-38.829,-34.112,-27.749,-28.552,-21.188,-22.415,-16.196,8.705,0.021,0.984,-0.146,1.373,-0.427,0.702,73.333,39087.000,1.000
-38.590,-32.584,-25.699,-28.315,-19.245,-23.474,-16.143,8.003,0.022,0.983,-0.146,1.282,-0.488,0.549,73.333,39088.000,1.000
-37.573,-30.126,-22.832,-27.086,-16.589,-23.475,-17.228,7.025,0.020,0.983,-0.147,1.160,-0.427,0.519,73.333,39089.000,1.000
-35.726,-26.604,-19.423,-24.863,-12.811,-20.901,-17.124,7.209,0.021,0.984,-0.146,1.038,-0.458,0.488,73.333,39090.000,1.000
-33.261,-22.236,-16.056,-22.211,-8.232,-15.811,-14.508,8.840,0.020,0.981,-0.144,0.885,-0.610,0.305,73.333,39091.000,1.000
-30.775,-17.762,-13.513,-20.139,-4.005,-9.952,-9.989,10.573,0.020,0.979,-0.147,0.793,-0.732,0.488,73.333,39092.000,1.000
-28.947,-14.116,-12.294,-19.390,-1.227,-5.496,-5.086,10.857,0.018,0.980,-0.143,0.793,-0.763,0.519,73.333,39093.000,1.000
-28.312,-12.097,-12.487,-20.045,-0.322,-3.995,-1.400,9.269,0.020,0.979,-0.144,0.702,-0.854,0.580,73.333,39094.000,1.000
-29.165,-12.111,-13.932,-21.613,-1.086,-5.787,-0.199,6.677,0.017,0.982,-0.144,0.702,-0.977,0.610,73.333,39095.000,1.000
-31.316,-13.998,-16.213,-23.183,-2.779,-9.796,-1.924,4.745,0.019,0.981,-0.145,0.732,-1.190,0.763,73.333,39096.000,1.000
-34.340,-17.211,-18.955,-23.995,-4.621,-14.099,-5.653,4.913,0.018,0.982,-0.146,0.580,-1.190,0.885,73.333,39097.000,1.000
-37.907,-21.289,-22.092,-23.986,-6.291,-16.800,-9.576,7.429,0.019,0.982,-0.144,0.458,-1.343,1.007,73.333,39098.000,1.000
-41.597,-25.758,-25.509,-23.607,-7.782,-16.713,-11.884,11.480,0.019,0.981,-0.146,0.275,-1.526,1.160,73.333,39099.000,1.000
-44.716,-29.856,-28.673,-23.270,-9.056,-14.055,-11.493,16.031,0.018,0.982,-0.146,0.214,-1.587,1.282,73.333,39100.000,1.000
-46.572,-32.828,-30.821,-23.051,-9.899,-10.431,-8.713,20.269,0.019,0.982,-0.146,0.000,-1.740,1.373,73.333,39101.000,1.000
-46.772,-34.086,-31.383,-22.759,-9.981,-7.442,-4.800,23.702,0.019,0.982,-0.146,-0.153,-1.801,1.495,73.333,39102.000,1.000
-45.098,-33.210,-30.096,-22.053,-8.853,-5.430,-1.089,26.351,0.021,0.982,-0.144,-0.305,-1.892,1.526,73.333,39103.000,1.000
-41.609,-30.171,-27.122,-20.729,-6.302,-3.770,1.511,28.580,0.021,0.980,-0.142,-0.397,-2.075,1.587,73.333,39104.000,1.000
-36.993,-25.557,-23.152,-18.981,-2.741,-1.744,2.879,30.544,0.021,0.978,-0.145,-0.549,-2.014,1.648,73.333,39105.000,1.000
-32.409,-20.485,-19.115,-17.215,1.114,1.101,3.580,32.132,0.020,0.975,-0.144,-0.580,-2.106,1.770,73.333,39106.000,1.000
-29.093,-16.222,-15.888,-15.846,4.567,4.524,4.472,33.353,0.024,0.971,-0.146,-0.671,-2.136,1.678,73.333,39107.000,1.000
-27.839,-13.733,-13.983,-15.084,7.099,7.285,5.873,34.329,0.023,0.969,-0.148,-0.641,-2.167,1.617,73.333,39108.000,1.000
-28.591,-13.221,-13.330,-14.836,8.415,7.939,7.118,34.742,0.025,0.966,-0.148,-0.458,-2.136,1.587,73.333,39109.000,1.000
-30.558,-14.255,-13.560,-14.907,8.418,6.130,7.176,33.831,0.027,0.966,-0.150,-0.275,-2.106,1.587,73.333,39110.000,1.000
-32.647,-16.224,-14.285,-15.089,7.469,2.968,5.700,31.466,0.027,0.966,-0.150,-0.092,-2.106,1.587,73.333,39111.000,1.000
-33.910,-18.272,-15.044,-15.075,6.452,0.348,3.734,28.829,0.028,0.966,-0.150,0.031,-1.984,1.556,73.333,39112.000,1.000
-33.567,-19.248,-15.050,-14.303,6.568,0.027,3.226,27.952,0.029,0.969,-0.148,0.153,-1.892,1.526,73.333,39113.000,1.000
-31.190,-18.345,-13.609,-12.341,8.574,2.619,5.640,30.290,0.029,0.972,-0.147,0.244,-1.709,1.434,73.333,39114.000,1.000
-27.411,-16.139,-11.138,-9.728,11.707,6.588,10.234,35.020,0.028,0.973,-0.149,0.183,-1.617,1.343,73.333,39115.000,1.000
-23.675,-14.317,-9.007,-7.785,14.081,9.177,13.953,39.278,0.030,0.971,-0.146,0.122,-1.556,1.434,73.333,39116.000,1.000
-21.134,-13.960,-8.276,-7.519,14.277,9.047,14.186,40.564,0.031,0.966,-0.149,0.244,-1.465,1.526,73.333,39117.000,1.000
-20.173,-14.896,-9.054,-8.993,12.291,7.136,10.867,38.562,0.030,0.963,-0.152,0.458,-1.312,1.526,73.333,39118.000,1.000
-20.750,-16.397,-10.835,-11.554,9.186,5.128,5.944,34.904,0.031,0.964,-0.153,0.671,-1.190,1.465,73.333,39119.000,1.000
-22.557,-17.833,-12.919,-14.268,6.212,3.777,1.507,31.584,0.031,0.967,-0.149,1.038,-1.099,1.282,73.333,39120.000,1.000
-24.763,-18.764,-14.476,-16.133,4.319,2.831,-1.469,29.807,0.031,0.972,-0.149,1.251,-1.038,1.221,73.333,39121.000,1.000
-26.291,-18.828,-14.818,-16.450,3.909,2.066,-2.781,29.809,0.032,0.976,-0.146,1.312,-0.885,1.160,73.333,39122.000,1.000
-26.425,-17.966,-13.779,-15.162,4.820,1.585,-2.782,31.018,0.031,0.976,-0.146,1.221,-0.763,1.190,73.333,39123.000,1.000
-25.119,-16.516,-11.733,-12.735,6.590,1.444,-2.081,32.581,0.031,0.977,-0.146,1.221,-0.641,1.190,73.333,39124.000,1.000
-23.107,-15.039,-9.453,-9.917,8.642,1.620,-0.691,33.967,0.028,0.976,-0.150,1.221,-0.549,1.129,73.333,39125.000,1.000
-21.587,-14.204,-7.872,-7.517,10.399,2.117,1.894,35.147,0.028,0.971,-0.154,1.190,-0.458,1.099,73.333,39126.000,1.000
-21.656,-14.668,-7.841,-6.348,11.153,2.447,5.469,36.064,0.027,0.968,-0.156,1.221,-0.336,1.007,73.333,39127.000,1.000
-23.635,-16.775,-9.680,-6.963,10.265,1.399,7.899,35.852,0.027,0.967,-0.158,1.495,-0.305,0.977,73.333,39128.000,1.000
-26.452,-19.694,-12.448,-8.921,8.112,-1.483,6.843,33.564,0.025,0.966,-0.152,1.923,-0.305,0.702,73.333,39129.000,1.000
-27.965,-21.330,-14.041,-10.568,6.438,-4.630,2.849,29.926,0.023,0.971,-0.149,2.289,-0.305,0.580,73.333,39130.000,1.000
-26.486,-19.981,-12.716,-10.179,7.093,-5.530,-0.859,27.187,0.024,0.976,-0.147,2.380,-0.366,0.519,73.333,39131.000,1.000
-22.245,-15.852,-8.683,-7.537,10.152,-2.960,-1.333,26.915,0.021,0.979,-0.147,2.350,-0.427,0.549,73.333,39132.000,1.000
-17.323,-11.186,-4.156,-4.272,13.431,1.308,1.092,28.303,0.024,0.980,-0.148,2.136,-0.488,0.702,73.333,39133.000,1.000
-14.371,-9.024,-2.004,-2.796,13.815,3.124,2.802,28.629,0.025,0.980,-0.150,2.075,-0.458,0.580,73.333,39134.000,1.000
-14.879,-10.997,-3.758,-4.478,9.732,-0.331,0.710,25.813,0.025,0.982,-0.150,2.045,-0.519,0.702,73.333,39135.000,1.000
-17.784,-15.650,-8.042,-8.196,3.018,-7.353,-4.473,20.746,0.024,0.986,-0.149,2.014,-0.458,0.702,73.333,39136.000,1.000
-20.276,-19.433,-11.530,-11.157,-2.379,-13.121,-8.911,16.522,0.024,0.987,-0.149,1.923,-0.488,0.824,73.333,39137.000,1.000
-20.186,-19.743,-11.643,-11.155,-3.369,-13.719,-8.840,15.845,0.024,0.986,-0.146,1.740,-0.488,0.885,73.333,39138.000,1.000
-17.277,-16.393,-8.005,-7.811,0.679,-8.281,-2.903,19.602,0.025,0.985,-0.145,1.617,-0.580,1.038,73.333,39139.000,1.000
-12.995,-11.094,-2.265,-2.549,7.819,0.941,6.693,26.260,0.024,0.982,-0.148,1.434,-0.549,1.129,73.333,39140.000,1.000
-9.600,-6.650,2.725,2.031,14.301,9.273,14.452,31.950,0.022,0.978,-0.152,1.343,-0.610,1.160,73.333,39141.000,1.000
-8.904,-5.514,4.402,3.515,16.593,11.931,15.282,32.875,0.021,0.976,-0.154,1.312,-0.641,1.221,73.333,39142.000,1.000
-10.809,-7.922,2.448,1.571,14.057,7.671,8.895,28.716,0.020,0.972,-0.152,1.404,-0.793,1.282,73.333,39143.000,1.000
-13.267,-11.611,-0.905,-1.754,9.346,0.041,0.048,22.940,0.017,0.973,-0.152,1.556,-0.885,1.282,73.333,39144.000,1.000
-14.234,-14.101,-3.135,-4.171,5.546,-6.217,-5.956,19.206,0.015,0.974,-0.154,1.587,-1.068,1.068,73.333,39145.000,1.000
-13.195,-14.800,-3.454,-5.018,3.704,-9.247,-7.544,18.356,0.017,0.972,-0.151,1.709,-1.190,1.068,73.333,39146.000,1.000
-10.924,-14.503,-2.592,-5.030,3.040,-9.927,-6.617,18.827,0.016,0.973,-0.153,1.801,-1.434,0.916,73.333,39147.000,1.000
-8.685,-14.270,-1.775,-5.267,2.287,-9.780,-6.188,18.558,0.017,0.972,-0.153,1.831,-1.556,0.824,73.333,39148.000,1.000
-7.829,-15.116,-2.216,-6.572,0.425,-10.182,-8.311,16.395,0.019,0.973,-0.155,1.831,-1.648,0.763,73.333,39149.000,1.000
-9.031,-17.412,-4.386,-8.987,-2.621,-11.863,-12.622,12.879,0.021,0.974,-0.157,1.984,-1.862,0.824,73.333,39150.000,1.000
-11.526,-20.239,-7.318,-11.361,-5.499,-14.074,-16.625,9.934,0.020,0.975,-0.156,1.953,-1.862,0.610,73.333,39151.000,1.000
-13.793,-22.040,-9.432,-12.311,-6.577,-15.067,-17.566,9.263,0.023,0.979,-0.154,1.984,-1.923,0.549,73.333,39152.000,1.000
-14.568,-21.843,-9.741,-11.251,-5.242,-13.523,-14.187,11.309,0.023,0.982,-0.153,2.014,-2.075,0.427,73.333,39153.000,1.000
-13.416,-19.794,-8.315,-8.568,-2.125,-9.478,-7.147,15.393,0.024,0.982,-0.152,1.953,-2.106,0.458,73.333,39154.000,1.000
-11.415,-17.460,-6.591,-5.740,0.933,-4.818,0.941,19.713,0.024,0.982,-0.154,1.770,-2.106,0.549,73.333,39155.000,1.000
-10.780,-17.271,-6.757,-4.793,1.734,-2.609,6.228,21.906,0.025,0.981,-0.152,1.678,-1.984,0.610,73.333,39156.000,1.000
-13.195,-20.598,-10.111,-6.943,-0.801,-4.983,5.952,20.509,0.026,0.979,-0.154,1.373,-1.953,0.641,73.333,39157.000,1.000
-18.451,-26.623,-16.055,-11.767,-5.962,-11.551,-0.140,15.567,0.028,0.980,-0.157,1.251,-1.862,0.610,73.333,39158.000,1.000
-24.772,-33.103,-22.668,-17.739,-11.988,-19.748,-10.055,8.187,0.027,0.978,-0.156,1.312,-1.984,0.580,73.333,39159.000,1.000
-29.943,-37.697,-27.773,-23.052,-16.993,-26.503,-20.262,0.370,0.028,0.978,-0.157,1.221,-1.862,0.610,73.333,39160.000,1.000
-31.520,-38.281,-29.057,-25.514,-18.794,-29.067,-26.507,-4.732,0.028,0.979,-0.158,1.190,-1.892,0.732,73.333,39161.000,1.000
-27.599,-33.355,-24.816,-23.179,-15.534,-25.414,-25.402,-4.129,0.027,0.977,-0.157,1.099,-1.831,0.702,73.333,39162.000,1.000
-18.981,-24.017,-16.104,-16.498,-7.876,-16.235,-17.274,2.163,0.025,0.978,-0.155,0.916,-1.770,0.702,73.333,39163.000,1.000
-9.488,-14.273,-6.940,-8.840,0.548,-5.675,-6.472,10.616,0.025,0.978,-0.154,0.793,-1.678,0.671,73.333,39164.000,1.000
-3.044,-8.051,-1.257,-3.840,5.883,1.699,2.084,17.124,0.024,0.980,-0.157,0.702,-1.770,0.671,73.333,39165.000,1.000
-1.201,-6.840,-0.387,-2.954,6.556,3.964,5.636,19.554,0.022,0.980,-0.155,0.519,-1.770,0.671,73.333,39166.000,1.000
-3.451,-10.042,-3.516,-5.664,2.959,1.528,3.691,17.489,0.023,0.977,-0.154,0.305,-1.770,0.549,73.333,39167.000,1.000
-8.098,-15.982,-8.780,-10.423,-3.474,-4.436,-2.895,11.455,0.024,0.975,-0.158,0.122,-1.892,0.488,73.333,39168.000,1.000
-12.631,-22.069,-13.620,-14.985,-10.310,-11.887,-11.783,3.460,0.024,0.974,-0.156,0.000,-1.892,0.458,73.333,39169.000,1.000
-14.634,-25.383,-15.557,-17.065,-14.613,-17.604,-19.213,-3.051,0.023,0.974,-0.156,-0.092,-1.953,0.427,73.333,39170.000,1.000
-13.334,-24.627,-13.789,-15.792,-14.723,-19.246,-22.250,-5.272,0.023,0.973,-0.156,-0.031,-2.075,0.366,73.333,39171.000,1.000
-10.595,-21.492,-10.262,-12.782,-11.874,-17.701,-20.786,-3.265,0.023,0.972,-0.154,-0.183,-2.075,0.244,73.333,39172.000,1.000
-9.317,-19.127,-8.046,-10.713,-8.887,-15.823,-16.861,0.718,0.023,0.972,-0.159,-0.153,-2.045,0.214,73.333,39173.000,1.000
-10.737,-19.143,-8.541,-10.762,-7.435,-15.267,-12.662,4.650,0.022,0.973,-0.156,-0.092,-2.075,0.183,73.333,39174.000,1.000
-14.114,-21.075,-11.147,-12.418,-7.627,-15.848,-9.991,7.303,0.020,0.974,-0.156,-0.092,-2.106,0.153,73.333,39175.000,1.000
-18.038,-23.748,-14.569,-14.752,-8.964,-16.684,-10.237,7.760,0.020,0.976,-0.155,-0.122,-2.045,0.031,73.333,39176.000,1.000
-21.360,-26.124,-17.652,-17.031,-10.844,-17.165,-13.414,5.761,0.020,0.974,-0.155,-0.122,-2.106,0.031,73.333,39177.000,1.000
-23.563,-27.797,-19.726,-18.753,-12.717,-17.589,-18.258,2.076,0.020,0.970,-0.156,-0.183,-2.197,0.153,73.333,39178.000,1.000
-24.189,-28.455,-20.151,-19.237,-13.722,-18.229,-22.568,-1.329,0.019,0.969,-0.155,-0.275,-2.258,0.244,73.333,39179.000,1.000
-22.073,-26.940,-17.773,-17.282,-12.405,-17.922,-23.528,-1.793,0.022,0.973,-0.156,-0.092,-2.350,0.153,73.333,39180.000,1.000
-16.316,-22.299,-11.956,-12.193,-7.890,-15.116,-19.748,2.072,0.021,0.979,-0.157,-0.061,-2.380,0.183,73.333,39181.000,1.000
-8.021,-15.509,-4.092,-5.151,-1.406,-10.058,-12.800,8.809,0.021,0.979,-0.153,-0.122,-2.350,0.153,73.333,39182.000,1.000
0.000,-9.229,2.991,1.313,4.378,-4.875,-6.152,15.084,0.021,0.978,-0.152,-0.275,-2.411,0.244,73.333,39183.000,1.000
4.931,-6.041,6.815,4.871,7.182,-1.998,-2.794,17.931,0.020,0.977,-0.153,-0.366,-2.380,0.183,73.333,39184.000,1.000
4.937,-7.386,5.979,4.074,5.812,-3.192,-4.073,15.945,0.019,0.977,-0.154,-0.519,-2.411,0.244,73.333,39185.000,1.000
-0.031,-12.937,0.671,-1.015,0.673,-8.602,-9.458,9.925,0.018,0.977,-0.154,-0.519,-2.441,0.275,73.333,39186.000,1.000
-7.019,-19.442,-6.186,-7.621,-5.281,-15.271,-15.615,3.490,0.017,0.978,-0.154,-0.671,-2.594,0.214,73.333,39187.000,1.000
-10.862,-21.825,-9.660,-11.004,-7.507,-18.111,-17.802,1.425,0.014,0.981,-0.151,-0.824,-2.716,0.153,73.333,39188.000,1.000
-8.402,-17.516,-6.876,-8.412,-3.823,-14.349,-14.119,5.533,0.016,0.983,-0.153,-1.038,-2.838,0.122,73.333,39189.000,1.000
-1.547,-9.117,0.117,-1.745,3.263,-6.428,-7.393,12.811,0.015,0.984,-0.149,-1.282,-2.777,0.031,73.333,39190.000,1.000
5.159,-1.682,6.850,4.869,9.465,0.709,-2.022,18.793,0.015,0.988,-0.150,-1.434,-2.808,0.061,73.333,39191.000,1.000
8.910,1.894,10.685,9.016,12.762,4.349,0.397,21.695,0.015,0.987,-0.152,-1.709,-2.899,0.061,73.333,39192.000,1.000
9.872,1.889,11.793,10.776,13.859,5.043,1.182,22.610,0.016,0.986,-0.149,-1.923,-2.991,0.031,73.333,39193.000,1.000
9.245,-0.349,11.115,10.766,13.815,4.205,1.637,22.746,0.017,0.987,-0.147,-2.228,-3.113,0.061,73.333,39194.000,1.000
7.855,-3.719,9.121,9.134,12.792,2.567,1.792,22.049,0.016,0.987,-0.147,-2.472,-3.204,0.122,73.333,39195.000,1.000
6.609,-7.033,6.531,6.479,11.069,0.706,1.384,20.468,0.016,0.987,-0.147,-2.686,-3.235,0.153,73.333,39196.000,1.000
6.172,-9.300,4.190,3.795,9.151,-0.920,0.411,18.553,0.018,0.989,-0.147,-2.960,-3.326,0.244,73.333,39197.000,1.000
6.178,-10.607,2.230,1.506,7.074,-2.419,-1.443,16.508,0.017,0.991,-0.147,-3.296,-3.448,0.336,73.333,39198.000,1.000
5.977,-11.488,0.554,-0.229,4.902,-3.701,-4.174,14.262,0.020,0.992,-0.147,-3.571,-3.387,0.397,73.333,39199.000,1.000
5.636,-11.972,-0.410,-0.847,3.352,-4.274,-6.501,12.507,0.020,0.992,-0.148,-3.845,-3.326,0.397,73.333,39200.000,1.000
5.759,-11.775,0.080,0.342,3.407,-4.114,-6.615,12.866,0.020,0.990,-0.146,-4.089,-3.296,0.427,73.333,39201.000,1.000
6.569,-10.835,2.216,3.206,5.234,-3.762,-3.671,16.329,0.021,0.987,-0.146,-4.425,-3.174,0.488,73.333,39202.000,1.000
7.606,-9.676,5.169,6.474,7.623,-3.988,0.755,21.493,0.021,0.982,-0.146,-4.730,-3.204,0.519,73.333,39203.000,1.000
8.222,-9.115,7.562,8.462,8.655,-5.649,3.102,25.041,0.023,0.979,-0.146,-4.913,-3.082,0.580,73.333,39204.000,1.000
7.992,-9.727,8.277,8.018,6.996,-9.088,0.473,24.116,0.025,0.975,-0.147,-4.944,-2.899,0.610,73.333,39205.000,1.000
6.806,-11.740,6.936,5.019,2.716,-13.668,-7.532,18.152,0.026,0.970,-0.149,-4.852,-2.655,0.549,73.333,39206.000,1.000
4.716,-15.061,3.817,0.272,-2.987,-18.304,-18.793,8.939,0.029,0.971,-0.149,-4.791,-2.502,0.519,73.333,39207.000,1.000
2.078,-19.069,-0.208,-4.696,-8.213,-22.011,-29.554,-0.163,0.027,0.972,-0.150,-4.608,-2.289,0.610,73.333,39208.000,1.000
-0.231,-22.403,-3.759,-8.128,-10.882,-23.751,-35.740,-5.544,0.030,0.969,-0.148,-4.425,-2.106,0.549,73.333,39209.000,1.000
-1.309,-23.684,-5.643,-9.074,-9.968,-22.753,-35.222,-5.496,0.030,0.967,-0.150,-4.211,-1.984,0.580,73.333,39210.000,1.000
-0.824,-22.600,-5.500,-7.889,-6.246,-19.394,-29.485,-1.385,0.029,0.966,-0.150,-3.998,-1.740,0.641,73.333,39211.000,1.000
0.742,-19.996,-3.887,-5.845,-1.785,-15.212,-22.219,3.496,0.029,0.964,-0.150,-3.754,-1.404,0.580,73.333,39212.000,1.000
2.390,-17.241,-1.824,-4.235,1.434,-11.898,-16.655,6.253,0.032,0.967,-0.146,-3.479,-1.190,0.580,73.333,39213.000,1.000
3.474,-15.248,0.002,-3.449,2.661,-10.316,-13.980,6.199,0.031,0.967,-0.147,-3.326,-0.885,0.427,73.333,39214.000,1.000
4.216,-14.072,1.562,-2.928,2.295,-10.514,-13.702,4.562,0.031,0.968,-0.148,-3.113,-0.641,0.336,73.333,39215.000,1.000
5.303,-13.486,3.019,-2.067,1.036,-12.281,-15.236,2.588,0.030,0.967,-0.146,-3.082,-0.397,0.275,73.333,39216.000,1.000
7.008,-13.379,4.221,-0.949,-0.670,-15.195,-18.250,0.539,0.030,0.969,-0.147,-2.899,-0.153,0.244,73.333,39217.000,1.000
8.991,-13.594,4.905,-0.038,-2.359,-18.251,-21.938,-1.521,0.028,0.969,-0.146,-2.716,0.031,0.366,73.333,39218.000,1.000
10.759,-13.660,5.126,0.490,-3.220,-19.833,-24.609,-2.838,0.029,0.972,-0.147,-2.686,0.336,0.397,73.333,39219.000,1.000
11.987,-13.061,5.163,0.872,-2.514,-18.576,-24.430,-2.434,0.025,0.971,-0.144,-2.472,0.458,0.488,73.333,39220.000,1.000
12.535,-11.906,5.151,1.352,-0.344,-14.901,-21.201,-0.305,0.023,0.971,-0.146,-2.319,0.641,0.610,73.333,39221.000,1.000
12.217,-11.066,4.777,1.625,1.922,-11.487,-17.086,2.060,0.021,0.972,-0.143,-2.045,0.671,0.641,73.333,39222.000,1.000
10.790,-11.592,3.517,0.928,2.517,-11.217,-15.160,2.690,0.020,0.972,-0.146,-2.106,0.793,0.641,73.333,39223.000,1.000
8.341,-13.708,1.327,-1.103,0.807,-14.403,-16.566,0.962,0.018,0.970,-0.143,-2.014,0.732,0.702,73.333,39224.000,1.000
5.593,-16.404,-1.030,-3.837,-2.209,-18.668,-19.545,-1.803,0.018,0.971,-0.144,-2.167,0.732,0.641,73.333,39225.000,1.000
3.650,-18.212,-2.418,-6.013,-4.761,-21.211,-21.589,-3.675,0.015,0.972,-0.142,-1.953,0.702,0.610,73.333,39226.000,1.000
3.170,-18.191,-2.249,-6.794,-5.639,-20.568,-21.390,-3.804,0.015,0.970,-0.145,-1.953,0.641,0.732,73.333,39227.000,1.000
3.958,-16.433,-0.879,-6.332,-4.792,-17.115,-19.503,-2.919,0.013,0.973,-0.146,-1.648,0.610,0.732,73.333,39228.000,1.000
5.110,-14.057,0.695,-5.497,-3.125,-12.853,-17.893,-2.568,0.012,0.976,-0.141,-1.404,0.427,0.763,73.333,39229.000,1.000
5.384,-12.601,1.384,-5.181,-1.769,-9.973,-18.105,-3.778,0.011,0.977,-0.145,-1.556,0.427,0.610,73.333,39230.000,1.000
3.858,-13.037,0.586,-5.743,-1.212,-9.057,-19.720,-6.214,0.011,0.977,-0.142,-1.282,0.275,0.519,73.333,39231.000,1.000
-0.038,-15.562,-1.991,-7.409,-1.632,-9.582,-21.200,-8.907,0.013,0.971,-0.147,-1.678,0.275,0.580,73.333,39232.000,1.000
-6.568,-20.158,-6.564,-10.645,-3.455,-11.644,-22.173,-11.404,0.011,0.969,-0.143,-1.343,0.122,0.488,73.333,39233.000,1.000
-14.707,-25.984,-12.396,-15.264,-6.541,-15.452,-23.309,-13.558,0.014,0.968,-0.144,-1.373,0.031,0.397,73.333,39234.000,1.000
-21.781,-30.799,-17.389,-19.759,-9.537,-20.004,-24.775,-15.048,0.014,0.974,-0.144,-1.099,0.153,0.488,73.333,39235.000,1.000
-25.340,-32.647,-19.628,-22.435,-11.014,-23.745,-26.368,-15.770,0.011,0.981,-0.135,-0.702,-0.061,0.580,73.333,39236.000,1.000
-25.355,-31.803,-19.207,-23.077,-11.051,-26.050,-27.985,-16.214,0.015,0.988,-0.141,-1.068,-0.153,0.671,73.333,39237.000,1.000
-23.704,-30.251,-17.789,-22.776,-10.939,-27.419,-29.616,-17.101,0.013,0.992,-0.132,-0.916,-0.336,0.824,73.333,39238.000,1.000
-22.008,-29.550,-16.754,-22.457,-11.634,-28.489,-31.130,-18.737,0.015,0.990,-0.138,-1.373,-0.488,1.038,73.333,39239.000,1.000
-20.852,-29.924,-16.474,-22.379,-13.180,-29.540,-32.353,-20.997,0.013,0.990,-0.134,-1.465,-0.458,1.129,73.333,39240.000,1.000
-20.286,-30.836,-16.699,-22.480,-14.999,-30.525,-33.383,-23.579,0.012,0.984,-0.136,-1.953,-0.671,1.282,73.333,39241.000,1.000
-20.154,-31.455,-16.917,-22.489,-16.231,-30.868,-34.023,-25.849,0.012,0.982,-0.137,-2.014,-0.732,1.373,73.333,39242.000,1.000
-19.962,-31.030,-16.463,-21.784,-15.951,-29.657,-33.452,-26.704,0.010,0.974,-0.133,-1.984,-0.824,1.465,73.333,39243.000,1.000
-19.346,-29.573,-15.114,-19.959,-13.872,-26.737,-30.928,-25.290,0.012,0.973,-0.140,-2.014,-0.946,1.434,73.333,39244.000,1.000
-19.032,-28.344,-13.863,-17.796,-11.134,-23.521,-26.888,-22.250,0.010,0.971,-0.136,-1.648,-1.068,1.434,73.333,39245.000,1.000
-20.259,-28.928,-14.178,-16.774,-9.484,-21.868,-23.117,-19.543,0.012,0.968,-0.142,-1.709,-1.129,1.373,73.333,39246.000,1.000
-23.058,-31.332,-16.292,-17.416,-9.509,-21.932,-21.075,-18.574,0.013,0.970,-0.139,-1.373,-1.282,1.495,73.333,39247.000,1.000
-25.814,-33.755,-18.805,-18.666,-10.119,-21.939,-20.640,-18.978,0.015,0.966,-0.141,-1.526,-1.404,1.434,73.333,39248.000,1.000
-26.799,-34.315,-20.058,-19.061,-9.882,-20.063,-20.550,-19.379,0.017,0.967,-0.144,-1.099,-1.434,1.434,73.333,39249.000,1.000
-25.686,-32.661,-19.582,-18.196,-8.587,-16.229,-20.069,-19.122,0.016,0.965,-0.141,-0.854,-1.526,1.465,73.333,39250.000,1.000
-23.339,-30.067,-18.114,-16.826,-7.307,-12.712,-20.334,-18.922,0.019,0.968,-0.143,-0.671,-1.465,1.373,73.333,39251.000,1.000
-20.727,-28.080,-16.628,-15.858,-7.135,-12.476,-22.798,-19.607,0.019,0.970,-0.136,-0.092,-1.495,1.343,73.333,39252.000,1.000
-18.206,-27.157,-15.434,-15.402,-7.862,-16.047,-26.814,-20.709,0.021,0.969,-0.144,-0.183,-1.556,1.526,73.333,39253.000,1.000
-15.738,-26.500,-14.193,-14.931,-8.217,-20.832,-29.938,-20.934,0.024,0.975,-0.133,0.092,-1.526,1.495,73.333,39254.000,1.000
-13.639,-25.191,-12.753,-14.269,-7.370,-23.723,-30.294,-19.769,0.025,0.978,-0.141,-0.122,-1.526,1.617,73.333,39255.000,1.000
-12.499,-23.187,-11.457,-13.819,-5.570,-23.417,-27.923,-17.960,0.027,0.984,-0.139,0.000,-1.373,1.770,73.333,39256.000,1.000
-12.453,-20.932,-10.607,-13.895,-3.556,-20.455,-24.008,-16.537,0.028,0.986,-0.133,-0.031,-1.251,1.740,73.333,39257.000,1.000
-12.979,-18.824,-10.094,-14.277,-1.872,-16.319,-20.240,-15.981,0.029,0.991,-0.139,-0.214,-1.129,1.831,73.333,39258.000,1.000
-13.458,-17.258,-9.679,-14.549,-0.825,-12.807,-18.420,-16.316,0.026,0.993,-0.136,-0.275,-1.068,1.923,73.333,39259.000,1.000
-13.537,-16.543,-9.223,-14.408,-0.479,-11.139,-19.201,-17.191,0.028,0.992,-0.139,-0.702,-1.129,1.923,73.333,39260.000,1.000
-12.875,-16.443,-8.361,-13.461,-0.209,-10.831,-21.267,-17.614,0.024,0.991,-0.134,-0.732,-0.977,1.984,73.333,39261.000,1.000
-11.220,-16.147,-6.596,-11.447,0.972,-10.118,-22.115,-16.550,0.024,0.989,-0.137,-1.251,-0.885,2.014,73.333,39262.000,1.000
-8.813,-15.192,-3.921,-8.748,3.377,-8.046,-20.289,-14.105,0.021,0.988,-0.134,-1.221,-0.793,1.923,73.333,39263.000,1.000
-6.357,-14.005,-1.016,-6.285,6.225,-5.612,-16.657,-11.513,0.017,0.983,-0.133,-1.373,-0.916,1.617,73.333,39264.000,1.000
-4.585,-13.363,1.233,-4.869,8.248,-4.636,-13.569,-10.112,0.016,0.987,-0.133,-1.434,-0.854,1.465,73.333,39265.000,1.000
-3.857,-13.709,2.293,-4.688,8.615,-5.982,-13.074,-10.514,0.011,0.989,-0.128,-1.373,-1.129,1.373,73.333,39266.000,1.000
-4.141,-14.857,2.157,-5.372,7.310,-8.977,-15.278,-12.290,0.014,0.991,-0.131,-1.617,-1.221,1.160,73.333,39267.000,1.000
-5.144,-16.294,1.214,-6.337,5.027,-12.259,-18.430,-14.172,0.011,0.989,-0.131,-1.465,-1.373,0.946,73.333,39268.000,1.000
-6.595,-17.655,-0.105,-7.214,2.646,-14.820,-20.531,-14.921,0.016,0.984,-0.134,-1.831,-1.495,0.763,73.333,39269.000,1.000
-8.251,-18.788,-1.495,-7.894,0.777,-16.251,-20.741,-14.192,0.014,0.982,-0.134,-1.617,-1.495,0.702,73.333,39270.000,1.000
-9.444,-19.424,-2.475,-8.108,-0.107,-16.421,-19.565,-12.395,0.017,0.981,-0.133,-1.801,-1.678,0.580,73.333,39271.000,1.000
-9.549,-19.308,-2.655,-7.659,0.129,-15.568,-17.969,-10.234,0.019,0.978,-0.134,-1.617,-1.648,0.610,73.333,39272.000,1.000
-8.878,-18.819,-2.322,-6.966,0.988,-14.403,-16.792,-8.493,0.020,0.981,-0.132,-1.373,-1.709,0.549,73.333,39273.000,1.000
-8.433,-18.711,-2.193,-6.810,1.732,-13.574,-16.420,-7.565,0.023,0.982,-0.134,-1.373,-1.678,0.641,73.333,39274.000,1.000
-9.069,-19.510,-2.894,-7.807,1.737,-13.595,-17.008,-7.335,0.020,0.983,-0.130,-1.160,-1.801,0.854,73.333,39275.000,1.000
-10.953,-21.292,-4.588,-10.009,0.762,-14.910,-18.775,-7.351,0.021,0.978,-0.133,-1.373,-1.892,0.977,73.333,39276.000,1.000
-13.342,-23.286,-6.636,-12.554,-0.656,-17.075,-20.995,-6.681,0.018,0.978,-0.129,-1.068,-1.770,1.099,73.333,39277.000,1.000
-14.801,-24.105,-7.724,-13.883,-1.266,-18.537,-22.063,-4.378,0.018,0.975,-0.131,-1.160,-1.801,1.160,73.333,39278.000,1.000
-14.224,-22.811,-6.835,-12.890,-0.140,-17.896,-21.187,-0.668,0.017,0.973,-0.129,-0.916,-1.831,1.251,73.333,39279.000,1.000
-11.938,-19.724,-4.254,-9.965,2.396,-15.066,-18.898,3.022,0.017,0.971,-0.126,-0.732,-1.984,1.221,73.333,39280.000,1.000
-9.500,-16.210,-1.414,-6.676,5.155,-11.000,-16.017,5.428,0.018,0.973,-0.127,-0.580,-1.831,1.221,73.333,39281.000,1.000
-8.478,-13.691,0.108,-4.656,6.958,-6.814,-12.890,6.125,0.018,0.975,-0.126,-0.336,-1.953,1.251,73.333,39282.000,1.000
-9.282,-12.884,-0.387,-4.627,7.242,-3.578,-10.056,5.203,0.021,0.979,-0.127,-0.305,-1.923,1.404,73.333,39283.000,1.000
-10.994,-13.480,-2.306,-6.072,6.287,-2.130,-8.463,3.324,0.017,0.982,-0.124,-0.031,-2.014,1.404,73.333,39284.000,1.000
-12.343,-14.492,-4.395,-7.857,4.864,-2.522,-8.599,1.648,0.018,0.982,-0.127,-0.183,-2.075,1.434,73.333,39285.000,1.000
-12.728,-15.210,-5.747,-9.119,3.684,-3.933,-10.032,1.160,0.019,0.986,-0.121,0.000,-2.167,1.526,73.333,39286.000,1.000
-12.298,-15.411,-6.078,-9.510,3.204,-5.100,-11.581,2.342,0.020,0.983,-0.125,-0.275,-2.258,1.495,73.333,39287.000,1.000
-11.311,-14.993,-5.336,-8.874,3.733,-5.073,-12.322,5.172,0.019,0.982,-0.123,-0.214,-2.197,1.495,73.333,39288.000,1.000
-10.019,-14.142,-3.822,-7.404,5.051,-4.167,-12.374,8.749,0.020,0.978,-0.124,-0.305,-2.319,1.587,73.333,39289.000,1.000
-9.030,-13.730,-2.579,-6.005,6.058,-3.985,-12.507,11.298,0.021,0.975,-0.126,-0.275,-2.136,1.556,73.333,39290.000,1.000
-8.863,-14.686,-2.641,-5.586,5.781,-5.739,-13.195,11.537,0.020,0.973,-0.124,0.000,-2.228,1.465,73.333,39291.000,1.000
-9.240,-16.797,-3.913,-6.077,4.497,-8.810,-13.956,9.972,0.021,0.971,-0.129,0.092,-2.197,1.404,73.333,39292.000,1.000
-9.220,-18.846,-5.292,-6.580,3.432,-11.474,-14.292,8.258,0.020,0.971,-0.123,0.488,-2.350,1.343,73.333,39293.000,1.000
-8.130,-19.740,-5.812,-6.344,3.521,-12.486,-14.580,7.443,0.022,0.969,-0.131,0.488,-2.319,1.434,73.333,39294.000,1.000
-6.182,-19.153,-5.360,-5.331,4.791,-11.554,-15.088,7.456,0.021,0.971,-0.128,0.946,-2.289,1.282,73.333,39295.000,1.000
-4.117,-17.473,-4.407,-3.982,6.688,-9.072,-15.248,7.983,0.022,0.971,-0.131,0.946,-2.258,1.312,73.333,39296.000,1.000
-2.788,-15.598,-3.741,-3.054,8.154,-6.269,-14.572,8.709,0.021,0.973,-0.131,1.312,-2.197,1.190,73.333,39297.000,1.000
-2.825,-14.673,-4.145,-3.337,8.036,-4.902,-13.450,9.133,0.022,0.974,-0.132,1.312,-2.258,1.190,73.333,39298.000,1.000
-4.083,-15.212,-5.677,-4.946,6.136,-5.709,-12.270,9.066,0.021,0.977,-0.131,1.526,-2.167,1.129,73.333,39299.000,1.000
-5.687,-16.674,-7.529,-7.203,3.371,-7.681,-11.095,8.491,0.021,0.978,-0.127,1.526,-2.167,1.038,73.333,39300.000,1.000
-6.878,-18.270,-8.769,-9.278,0.920,-9.238,-10.463,7.019,0.022,0.976,-0.131,1.465,-2.075,1.129,73.333,39301.000,1.000
-7.731,-19.701,-9.101,-10.769,-0.569,-9.821,-10.927,4.442,0.020,0.977,-0.129,1.648,-2.167,1.038,73.333,39302.000,1.000
-8.743,-21.101,-8.838,-11.581,-1.048,-10.212,-12.275,1.565,0.021,0.977,-0.133,1.495,-2.136,0.916,73.333,39303.000,1.000
-9.836,-22.384,-8.259,-11.537,-0.670,-11.151,-13.459,0.032,0.019,0.979,-0.132,1.678,-2.228,1.007,73.333,39304.000,1.000
-10.344,-23.183,-7.415,-10.545,0.261,-12.408,-13.464,1.068,0.021,0.980,-0.135,1.587,-2.197,1.007,73.333,39305.000,1.000
-9.688,-23.320,-6.269,-8.853,1.279,-13.438,-12.517,4.403,0.021,0.984,-0.136,1.648,-2.075,0.854,73.333,39306.000,1.000
-7.619,-22.550,-4.557,-6.643,2.268,-13.600,-11.332,8.825,0.019,0.986,-0.132,1.556,-2.136,0.763,73.333,39307.000,1.000
-4.434,-20.760,-2.116,-4.007,3.449,-12.291,-10.245,12.998,0.018,0.990,-0.135,1.404,-1.953,0.732,73.333,39308.000,1.000
-1.560,-18.879,0.165,-1.822,4.374,-10.057,-9.835,15.414,0.018,0.991,-0.132,1.251,-2.075,0.549,73.333,39309.000,1.000
-0.839,-18.360,0.822,-1.495,4.073,-8.564,-10.689,15.158,0.017,0.991,-0.134,0.946,-1.923,0.488,73.333,39310.000,1.000
-2.501,-19.349,-0.260,-3.188,2.713,-8.687,-12.186,13.344,0.016,0.987,-0.130,0.732,-2.045,0.275,73.333,39311.000,1.000
-4.891,-20.356,-1.597,-5.503,1.655,-9.578,-12.825,12.312,0.018,0.984,-0.134,0.397,-1.984,0.244,73.333,39312.000,1.000
-6.365,-20.210,-1.973,-7.113,1.699,-10.081,-12.295,13.148,0.020,0.985,-0.131,0.305,-2.136,0.244,73.333,39313.000,1.000
-6.512,-19.238,-1.462,-7.691,2.420,-10.092,-11.577,15.262,0.021,0.986,-0.139,0.061,-2.045,0.305,73.333,39314.000,1.000
-5.612,-18.342,-0.676,-7.369,3.099,-10.215,-11.251,17.788,0.022,0.991,-0.138,0.092,-1.892,0.214,73.333,39315.000,1.000
-4.062,-18.118,-0.126,-6.486,3.309,-10.918,-11.557,19.726,0.022,0.994,-0.137,-0.153,-1.740,0.305,73.333,39316.000,1.000
-2.737,-18.997,-0.554,-6.106,2.508,-12.129,-12.847,19.505,0.022,0.995,-0.140,-0.275,-1.709,0.366,73.333,39317.000,1.000
-2.694,-21.228,-2.587,-7.446,0.427,-13.107,-14.594,16.497,0.023,0.997,-0.133,-0.336,-1.617,0.519,73.333,39318.000,1.000
-3.800,-23.969,-5.489,-10.219,-1.895,-12.678,-14.833,12.793,0.026,0.991,-0.137,-0.854,-1.556,0.641,73.333,39319.000,1.000
-4.398,-25.183,-7.107,-12.361,-2.440,-10.022,-12.000,11.874,0.025,0.990,-0.130,-1.068,-1.373,0.763,73.333,39320.000,1.000
-2.762,-23.144,-5.564,-11.761,0.219,-5.269,-6.876,15.621,0.024,0.983,-0.134,-1.282,-1.251,0.916,73.333,39321.000,1.000
1.166,-17.917,-0.986,-8.135,5.628,0.330,-1.773,23.035,0.022,0.980,-0.136,-1.312,-1.068,1.007,73.333,39322.000,1.000
5.642,-11.531,4.501,-3.259,11.705,4.773,1.168,31.191,0.020,0.975,-0.136,-1.160,-1.099,1.038,73.333,39323.000,1.000
8.555,-6.499,8.450,0.500,16.289,6.781,1.336,37.370,0.016,0.970,-0.138,-1.068,-1.038,1.007,73.333,39324.000,1.000
8.943,-4.113,9.777,1.888,18.462,6.815,0.043,40.636,0.014,0.968,-0.135,-0.702,-1.038,1.007,73.333,39325.000,1.000
7.442,-4.134,9.097,1.314,18.648,6.173,-0.996,41.524,0.016,0.965,-0.137,-0.641,-0.977,0.854,73.333,39326.000,1.000
5.507,-5.450,7.793,0.048,17.810,5.741,-0.976,40.949,0.015,0.961,-0.134,-0.031,-1.221,0.885,73.333,39327.000,1.000
4.402,-6.895,7.050,-0.723,16.884,5.841,0.044,39.780,0.014,0.963,-0.138,0.244,-1.221,0.946,73.333,39328.000,1.000
4.522,-7.790,7.319,-0.494,16.381,6.553,1.610,38.469,0.013,0.966,-0.136,0.824,-1.404,1.007,73.333,39329.000,1.000
5.150,-8.193,8.108,0.235,16.038,7.679,3.013,36.716,0.013,0.968,-0.139,0.885,-1.465,1.068,73.333,39330.000,1.000
5.123,-8.680,8.494,0.468,15.288,8.584,3.439,34.297,0.014,0.970,-0.136,1.160,-1.648,1.068,73.333,39331.000,1.000
3.912,-9.529,8.009,-0.336,13.980,8.525,2.585,31.815,0.014,0.972,-0.139,1.282,-1.648,1.007,73.333,39332.000,1.000
2.084,-10.302,7.061,-1.807,12.680,7.491,0.906,30.242,0.012,0.978,-0.137,1.587,-1.740,1.038,73.333,39333.000,1.000
0.757,-10.097,6.627,-2.923,12.504,6.823,-0.075,30.564,0.013,0.981,-0.136,1.556,-1.892,1.007,73.333,39334.000,1.000
0.612,-8.360,7.389,-2.785,14.297,8.122,1.624,33.470,0.013,0.984,-0.134,1.526,-1.984,1.099,73.333,39335.000,1.000
1.485,-5.674,9.098,-1.315,17.665,11.246,6.115,38.386,0.013,0.985,-0.134,1.556,-2.106,1.038,73.333,39336.000,1.000
2.614,-3.404,10.784,0.654,20.936,14.282,10.965,43.277,0.016,0.985,-0.135,1.434,-2.075,1.068,73.333,39337.000,1.000
3.259,-2.593,11.627,2.103,22.474,15.508,13.214,46.006,0.014,0.985,-0.131,1.495,-2.228,0.977,73.333,39338.000,1.000
3.222,-3.184,11.596,2.614,21.958,14.828,11.830,45.847,0.017,0.986,-0.134,1.312,-2.167,0.977,73.333,39339.000,1.000
2.794,-4.320,11.210,2.401,20.336,13.430,8.474,43.767,0.016,0.986,-0.134,1.404,-2.106,0.946,73.333,39340.000,1.000
