EEG 1,EEG 2,EEG 3,EEG 4,EEG 5,EEG 6,EEG 7,EEG 8,Accelerometer X,Accelerometer Y,Accelerometer Z,Gyroscope X,Gyroscope Y,Gyroscope Z,Battery Level,Counter,Validation Indicator
16.774,12.676,20.059,28.371,11.643,7.836,20.746,-14.841,0.013,0.972,-0.144,3.174,0.885,2.319,73.333,192929.000,1.000
18.239,14.090,22.065,29.261,13.490,9.341,20.720,-16.353,0.014,0.975,-0.145,3.265,0.977,2.258,73.333,192930.000,1.000
18.335,14.061,22.427,28.276,12.871,9.009,16.582,-21.430,0.014,0.981,-0.142,3.174,1.251,2.106,73.333,192931.000,1.000
17.775,13.054,21.714,26.154,10.725,7.401,11.216,-27.148,0.013,0.984,-0.143,3.052,1.251,1.923,73.333,192932.000,1.000
18.214,13.289,21.827,24.828,9.627,7.402,9.281,-29.490,0.013,0.984,-0.145,2.838,1.404,1.740,73.333,192933.000,1.000
20.767,16.720,24.357,25.911,11.731,11.255,13.674,-25.894,0.014,0.984,-0.146,2.808,1.465,1.862,73.333,192934.000,1.000
25.023,23.100,29.115,29.247,16.802,17.931,22.607,-17.723,0.014,0.983,-0.149,2.747,1.495,1.740,73.333,192935.000,1.000
28.839,29.719,33.820,32.636,22.137,23.754,31.227,-9.744,0.011,0.982,-0.147,2.655,1.556,1.678,73.333,192936.000,1.000
30.465,34.140,36.517,34.217,25.651,26.296,36.738,-5.406,0.007,0.986,-0.146,2.533,1.556,1.404,73.333,192937.000,1.000
30.313,36.471,37.460,34.311,27.747,26.458,39.976,-4.186,0.007,0.990,-0.145,2.319,1.526,1.068,73.333,192938.000,1.000
29.986,38.157,38.030,34.321,29.773,26.617,41.951,-4.009,0.005,0.991,-0.142,2.045,1.526,0.946,73.333,192939.000,1.000
30.415,39.954,38.963,34.909,32.134,28.330,42.402,-3.844,0.002,0.988,-0.145,1.617,1.526,0.763,73.333,192940.000,1.000
31.447,41.701,40.151,35.806,34.336,31.807,41.470,-3.510,0.002,0.985,-0.146,1.404,1.434,0.549,73.333,192941.000,1.000
32.587,42.983,41.369,36.644,35.836,36.000,39.971,-2.836,0.004,0.984,-0.149,1.221,1.343,0.488,73.333,192942.000,1.000
33.374,43.421,42.405,37.237,36.242,38.990,38.635,-1.809,0.003,0.984,-0.148,1.190,1.190,0.214,73.333,192943.000,1.000
33.847,43.106,43.314,37.797,35.783,39.774,38.191,-0.565,0.004,0.985,-0.148,1.160,1.099,0.183,73.333,192944.000,1.000
34.991,43.147,44.817,39.167,35.691,39.655,39.846,1.153,0.004,0.985,-0.146,1.038,1.007,0.275,73.333,192945.000,1.000
37.973,44.859,47.653,42.180,37.239,40.735,44.552,3.829,0.001,0.984,-0.144,0.885,0.916,0.122,73.333,192946.000,1.000
42.336,47.658,51.094,46.318,40.086,43.072,51.295,7.133,0.001,0.981,-0.141,0.671,0.854,0.153,73.333,192947.000,1.000
45.277,48.610,52.545,49.217,41.813,44.146,56.866,9.389,-0.002,0.978,-0.143,0.610,0.671,0.183,73.333,192948.000,1.000
44.446,45.602,50.212,48.978,40.484,41.854,58.035,9.134,-0.001,0.972,-0.145,0.519,0.458,0.183,73.333,192949.000,1.000
41.040,40.395,45.771,46.652,37.209,37.279,54.355,6.863,0.000,0.968,-0.146,0.580,0.305,0.214,73.333,192950.000,1.000
38.439,36.729,42.729,45.074,34.834,33.523,48.336,4.371,0.001,0.964,-0.149,0.702,0.244,0.275,73.333,192951.000,1.000
38.469,36.183,42.720,45.723,34.811,32.405,43.063,2.920,0.004,0.965,-0.145,0.946,0.214,0.397,73.333,192952.000,1.000
39.835,37.205,44.274,47.453,36.052,32.881,40.173,2.351,0.003,0.965,-0.147,1.251,0.092,0.427,73.333,192953.000,1.000
39.851,37.370,44.855,48.147,36.614,32.650,39.279,1.824,0.005,0.968,-0.146,1.434,0.000,0.702,73.333,192954.000,1.000
37.067,35.906,43.446,47.018,35.887,30.959,39.226,1.239,0.006,0.970,-0.142,1.526,-0.031,0.793,73.333,192955.000,1.000
32.465,34.286,41.245,45.196,35.006,29.348,39.255,1.261,0.006,0.973,-0.140,1.617,0.000,1.038,73.333,192956.000,1.000
28.232,34.297,39.995,44.207,35.212,29.546,38.520,1.948,0.005,0.975,-0.142,1.709,-0.092,1.282,73.333,192957.000,1.000
25.538,35.964,39.960,44.297,36.239,31.357,36.670,2.560,0.004,0.975,-0.142,1.740,-0.092,1.434,73.333,192958.000,1.000
24.525,38.172,40.525,45.096,37.310,33.535,35.424,3.270,0.004,0.979,-0.144,1.801,-0.244,1.617,73.333,192959.000,1.000
25.118,40.229,41.497,46.553,38.322,35.558,37.417,5.199,0.006,0.979,-0.142,1.892,-0.366,1.617,73.333,192960.000,1.000
26.712,41.962,42.799,48.411,39.244,37.531,42.916,8.427,0.005,0.980,-0.141,1.831,-0.397,1.709,73.333,192961.000,1.000
28.552,43.564,44.385,50.229,39.972,39.646,49.406,11.818,0.008,0.981,-0.141,1.831,-0.549,1.740,73.333,192962.000,1.000
30.311,45.289,46.217,51.739,40.389,41.740,54.005,14.116,0.006,0.980,-0.140,1.953,-0.519,1.862,73.333,192963.000,1.000
31.616,46.544,47.702,52.547,39.966,42.719,54.733,14.351,0.006,0.980,-0.139,1.892,-0.549,1.984,73.333,192964.000,1.000
31.118,45.487,47.283,51.574,37.453,40.527,50.625,11.792,0.006,0.979,-0.139,1.892,-0.610,2.106,73.333,192965.000,1.000
26.803,39.989,43.076,47.324,31.366,33.149,41.629,6.023,0.008,0.981,-0.139,1.953,-0.763,2.411,73.333,192966.000,1.000
18.511,30.050,35.070,39.792,21.887,20.851,28.971,-2.278,0.006,0.981,-0.139,1.862,-0.854,2.380,73.333,192967.000,1.000
9.936,19.614,26.769,32.020,12.366,7.945,16.429,-10.559,0.003,0.979,-0.144,1.587,-0.824,2.289,73.333,192968.000,1.000
7.131,14.980,23.836,28.927,8.326,1.426,10.137,-14.671,0.003,0.976,-0.145,1.556,-0.854,2.075,73.333,192969.000,1.000
13.705,20.044,29.712,33.453,13.446,5.989,15.106,-11.173,0.006,0.974,-0.145,1.587,-0.824,1.801,73.333,192970.000,1.000
27.235,32.722,42.255,43.659,25.987,19.619,30.638,-0.432,0.009,0.975,-0.144,1.587,-0.732,1.709,73.333,192971.000,1.000
40.900,46.378,55.232,54.060,39.758,34.859,49.375,12.839,0.011,0.977,-0.142,1.617,-0.854,1.862,73.333,192972.000,1.000
47.921,54.224,62.426,59.219,48.094,44.122,61.835,22.230,0.014,0.980,-0.140,1.587,-0.763,1.984,73.333,192973.000,1.000
45.339,53.125,61.073,56.913,47.832,44.256,62.950,23.871,0.015,0.983,-0.142,1.617,-0.732,2.167,73.333,192974.000,1.000
35.247,44.943,52.930,49.071,40.679,37.473,54.934,18.899,0.012,0.989,-0.139,1.373,-0.610,2.197,73.333,192975.000,1.000
23.019,34.751,42.586,39.981,31.150,28.670,43.875,11.576,0.011,0.990,-0.142,1.038,-0.519,2.167,73.333,192976.000,1.000
14.153,27.486,34.671,33.508,23.465,22.008,34.764,5.507,0.008,0.990,-0.143,0.671,-0.519,2.075,73.333,192977.000,1.000
11.389,25.410,31.449,31.059,19.353,18.932,29.495,1.668,0.009,0.991,-0.142,0.519,-0.549,1.862,73.333,192978.000,1.000
14.179,27.900,32.448,31.700,18.153,18.548,27.141,-0.729,0.011,0.990,-0.142,0.275,-0.458,1.831,73.333,192979.000,1.000
20.260,33.002,35.887,33.729,18.364,19.363,25.681,-2.597,0.013,0.995,-0.141,0.092,-0.488,1.678,73.333,192980.000,1.000
27.319,38.837,40.114,35.955,18.886,20.426,23.842,-4.244,0.010,0.993,-0.139,-0.183,-0.488,1.770,73.333,192981.000,1.000
33.924,44.260,44.346,38.159,19.626,21.704,21.747,-5.126,0.011,0.986,-0.144,-0.641,-0.519,1.678,73.333,192982.000,1.000
39.144,48.585,48.163,40.404,20.900,23.570,20.535,-4.419,0.013,0.981,-0.143,-0.732,-0.549,1.617,73.333,192983.000,1.000
41.927,50.864,50.749,42.217,22.490,25.617,21.031,-2.078,0.014,0.979,-0.145,-0.885,-0.519,1.434,73.333,192984.000,1.000
41.383,50.083,51.098,42.762,23.476,26.313,22.849,0.852,0.014,0.977,-0.146,-1.007,-0.549,1.282,73.333,192985.000,1.000
37.740,46.217,48.992,41.769,23.049,24.313,24.687,2.890,0.016,0.982,-0.148,-1.007,-0.336,1.343,73.333,192986.000,1.000
32.815,40.714,45.595,40.081,21.397,20.052,25.239,3.043,0.016,0.987,-0.147,-1.099,-0.366,1.190,73.333,192987.000,1.000
28.949,35.649,42.621,38.838,19.374,15.599,24.342,1.168,0.017,0.990,-0.145,-1.251,-0.244,1.099,73.333,192988.000,1.000
27.848,32.714,41.421,38.729,18.063,13.393,23.481,-1.734,0.017,0.990,-0.142,-1.587,-0.214,1.190,73.333,192989.000,1.000
30.001,32.609,42.514,39.829,18.347,14.822,24.601,-3.892,0.016,0.990,-0.144,-1.831,-0.153,1.007,73.333,192990.000,1.000
34.311,34.507,45.122,41.449,20.014,18.882,27.466,-4.384,0.015,0.986,-0.147,-1.953,-0.092,1.160,73.333,192991.000,1.000
38.560,36.428,47.517,42.441,21.771,22.623,29.174,-3.915,0.014,0.984,-0.147,-2.075,0.031,1.129,73.333,192992.000,1.000
40.493,36.578,48.052,41.871,22.254,23.407,27.164,-3.920,0.013,0.981,-0.145,-2.136,0.061,1.038,73.333,192993.000,1.000
39.034,34.406,46.187,39.704,21.113,20.732,21.580,-5.151,0.012,0.980,-0.138,-2.258,0.183,0.916,73.333,192994.000,1.000
34.671,30.643,42.587,36.774,19.067,16.133,15.006,-6.937,0.009,0.978,-0.138,-2.319,0.275,0.793,73.333,192995.000,1.000
28.922,26.629,38.442,34.073,17.087,11.741,10.395,-7.883,0.007,0.975,-0.138,-2.289,0.275,0.610,73.333,192996.000,1.000
23.719,23.755,35.076,32.398,15.973,9.092,9.252,-7.149,0.004,0.972,-0.139,-2.258,0.153,0.549,73.333,192997.000,1.000
20.489,22.934,33.442,32.042,16.003,8.547,11.308,-5.081,0.003,0.968,-0.141,-2.136,-0.122,0.580,73.333,192998.000,1.000
19.526,24.022,33.600,32.590,16.640,9.190,14.201,-3.066,0.004,0.966,-0.146,-1.953,-0.214,0.458,73.333,192999.000,1.000
20.101,25.834,34.674,33.099,16.697,9.410,14.355,-2.922,0.007,0.962,-0.145,-1.770,-0.305,0.397,73.333,193000.000,1.000
21.131,26.958,35.476,32.735,15.264,7.987,9.999,-5.471,0.006,0.958,-0.144,-1.373,-0.549,0.427,73.333,193001.000,1.000
22.004,26.795,35.457,31.495,12.715,5.023,2.979,-9.347,0.007,0.956,-0.143,-0.946,-0.549,0.519,73.333,193002.000,1.000
22.628,25.846,34.793,29.985,10.292,1.878,-2.729,-12.201,0.006,0.955,-0.144,-0.549,-0.580,0.580,73.333,193003.000,1.000
23.120,25.110,33.914,28.812,9.084,0.291,-4.042,-12.840,0.005,0.955,-0.144,-0.122,-0.610,0.549,73.333,193004.000,1.000
23.416,25.205,33.044,28.138,9.303,1.135,-0.462,-11.784,0.004,0.955,-0.140,0.366,-0.671,0.549,73.333,193005.000,1.000
23.088,25.826,32.006,27.609,10.131,3.546,5.981,-10.306,0.003,0.955,-0.138,0.671,-0.885,0.488,73.333,193006.000,1.000
21.815,26.116,30.603,26.844,10.440,5.578,11.939,-9.347,0.006,0.959,-0.141,1.099,-1.038,0.519,73.333,193007.000,1.000
19.706,25.519,28.845,25.682,9.449,5.789,14.727,-9.420,0.003,0.965,-0.141,1.404,-1.068,0.488,73.333,193008.000,1.000
17.437,24.281,27.076,24.232,7.174,4.251,13.598,-10.834,0.005,0.970,-0.139,1.587,-1.190,0.458,73.333,193009.000,1.000
15.900,23.148,25.737,22.665,4.299,2.180,9.878,-13.592,0.004,0.973,-0.138,1.648,-1.312,0.519,73.333,193010.000,1.000
15.439,22.552,24.842,20.887,1.520,0.821,6.011,-17.226,0.003,0.978,-0.138,1.709,-1.434,0.549,73.333,193011.000,1.000
15.703,22.330,24.080,18.817,-0.622,0.867,4.023,-20.689,0.000,0.981,-0.140,1.740,-1.556,0.549,73.333,193012.000,1.000
15.912,21.974,23.147,16.701,-1.798,2.310,4.626,-22.683,-0.003,0.986,-0.139,1.526,-1.740,0.519,73.333,193013.000,1.000
15.373,20.960,21.943,15.086,-1.934,4.477,7.154,-22.301,-0.006,0.987,-0.135,1.282,-1.862,0.427,73.333,193014.000,1.000
13.778,18.929,20.382,14.263,-1.458,6.298,10.291,-19.712,-0.007,0.987,-0.135,1.038,-2.014,0.275,73.333,193015.000,1.000
11.103,15.713,18.125,13.766,-1.419,6.687,12.729,-16.491,-0.004,0.988,-0.137,0.824,-2.075,0.183,73.333,193016.000,1.000
7.688,11.560,14.961,12.917,-2.734,5.088,13.483,-14.770,0.001,0.987,-0.137,0.549,-2.350,0.122,73.333,193017.000,1.000
4.284,7.306,11.204,11.592,-5.469,1.760,12.492,-15.597,0.006,0.985,-0.138,0.305,-2.411,0.031,73.333,193018.000,1.000
1.846,3.941,7.627,10.306,-8.870,-2.496,10.257,-18.192,0.009,0.985,-0.140,0.122,-2.441,0.214,73.333,193019.000,1.000
0.795,1.824,4.803,9.450,-12.220,-6.916,6.925,-21.071,0.013,0.983,-0.143,0.000,-2.289,0.305,73.333,193020.000,1.000
0.592,0.521,2.712,8.814,-15.276,-10.876,2.695,-23.239,0.014,0.982,-0.145,-0.092,-2.136,0.488,73.333,193021.000,1.000
0.361,-0.529,1.176,8.019,-17.723,-13.562,-1.204,-23.953,0.014,0.982,-0.143,-0.092,-2.014,0.671,73.333,193022.000,1.000
-0.630,-1.650,-0.053,6.706,-19.337,-14.513,-3.164,-22.851,0.015,0.981,-0.144,0.000,-1.953,0.885,73.333,193023.000,1.000
-2.586,-2.989,-1.210,4.651,-20.432,-14.422,-3.128,-20.871,0.014,0.979,-0.143,-0.061,-1.831,1.038,73.333,193024.000,1.000
-4.945,-4.395,-2.151,2.149,-21.504,-14.567,-2.335,-19.864,0.012,0.978,-0.141,0.031,-1.678,1.038,73.333,193025.000,1.000
-6.827,-5.530,-2.445,0.021,-22.656,-15.563,-1.546,-20.786,0.011,0.976,-0.139,0.061,-1.526,1.099,73.333,193026.000,1.000
-7.742,-6.347,-1.996,-1.085,-23.806,-17.248,-1.430,-23.267,0.010,0.975,-0.140,0.244,-1.465,1.129,73.333,193027.000,1.000
-8.096,-7.372,-1.614,-1.527,-25.497,-19.567,-3.327,-26.976,0.010,0.974,-0.142,0.305,-1.343,1.221,73.333,193028.000,1.000
-8.711,-9.277,-2.412,-2.258,-28.460,-22.658,-8.080,-31.886,0.006,0.973,-0.141,0.305,-1.221,1.221,73.333,193029.000,1.000
-10.111,-12.216,-4.815,-3.905,-32.721,-26.314,-15.070,-37.688,0.006,0.975,-0.142,0.458,-1.221,1.282,73.333,193030.000,1.000
-12.239,-15.550,-8.206,-6.346,-37.389,-29.685,-22.697,-43.632,0.004,0.973,-0.141,0.488,-1.160,1.190,73.333,193031.000,1.000
-14.369,-18.017,-11.064,-8.600,-40.736,-31.291,-28.813,-48.299,0.005,0.972,-0.143,0.732,-1.282,1.251,73.333,193032.000,1.000
-15.780,-18.711,-12.097,-9.650,-41.277,-30.038,-31.385,-50.197,0.004,0.972,-0.144,0.793,-1.221,1.129,73.333,193033.000,1.000
-16.354,-17.953,-11.251,-9.329,-38.880,-26.440,-30.019,-48.900,0.005,0.973,-0.143,0.977,-1.190,0.977,73.333,193034.000,1.000
-16.384,-16.808,-9.474,-8.234,-34.689,-22.357,-26.134,-45.298,0.006,0.972,-0.144,1.099,-1.129,0.977,73.333,193035.000,1.000
-16.075,-16.066,-7.803,-7.052,-30.233,-19.530,-21.499,-40.851,0.008,0.971,-0.146,1.282,-1.190,1.038,73.333,193036.000,1.000
-15.230,-15.766,-6.604,-6.025,-26.538,-18.490,-17.144,-36.640,0.007,0.969,-0.144,1.282,-1.099,0.946,73.333,193037.000,1.000
-13.669,-15.489,-5.706,-5.159,-24.075,-18.829,-13.355,-33.172,0.006,0.971,-0.143,1.434,-1.068,0.916,73.333,193038.000,1.000
-11.566,-14.878,-4.774,-4.443,-22.886,-19.926,-10.451,-30.680,0.007,0.973,-0.142,1.526,-0.946,0.824,73.333,193039.000,1.000
-9.435,-13.940,-3.612,-3.893,-22.653,-21.216,-8.867,-29.319,0.008,0.975,-0.145,1.526,-0.885,0.763,73.333,193040.000,1.000
-7.866,-12.949,-2.321,-3.535,-22.830,-22.099,-8.382,-29.065,0.008,0.977,-0.145,1.587,-0.885,0.824,73.333,193041.000,1.000
-7.050,-11.999,-1.053,-3.200,-22.677,-21.800,-7.748,-29.358,0.007,0.979,-0.141,1.465,-0.793,0.824,73.333,193042.000,1.000
-6.859,-10.889,0.040,-2.673,-21.677,-19.705,-5.393,-29.200,0.008,0.977,-0.143,1.465,-0.702,0.763,73.333,193043.000,1.000
-7.025,-9.414,0.883,-1.849,-19.782,-15.826,-1.026,-27.732,0.008,0.978,-0.143,1.526,-0.671,0.824,73.333,193044.000,1.000
-7.255,-7.602,1.524,-0.808,-17.426,-11.035,3.907,-24.925,0.006,0.978,-0.145,1.495,-0.610,0.854,73.333,193045.000,1.000
-7.284,-5.697,2.007,0.200,-15.389,-6.874,7.309,-21.816,0.007,0.977,-0.145,1.495,-0.641,0.824,73.333,193046.000,1.000
-6.706,-3.924,2.451,1.074,-14.246,-4.747,7.603,-19.891,0.008,0.977,-0.145,1.404,-0.610,0.732,73.333,193047.000,1.000
-5.304,-2.485,2.928,1.845,-14.173,-5.252,4.610,-20.118,0.005,0.975,-0.143,1.312,-0.488,0.763,73.333,193048.000,1.000
-3.273,-1.609,3.558,2.690,-14.778,-7.843,0.079,-21.827,0.005,0.976,-0.143,1.190,-0.580,0.702,73.333,193049.000,1.000
-1.061,-1.257,4.604,3.928,-15.181,-10.950,-2.793,-22.883,0.004,0.978,-0.144,1.221,-0.580,0.671,73.333,193050.000,1.000
0.692,-1.191,5.993,5.499,-14.943,-13.114,-2.272,-22.139,0.004,0.977,-0.147,1.221,-0.427,0.671,73.333,193051.000,1.000
1.311,-1.464,6.990,6.591,-14.741,-14.180,-0.717,-21.301,0.004,0.977,-0.149,1.160,-0.458,0.732,73.333,193052.000,1.000
0.259,-2.528,6.483,6.025,-15.883,-15.154,-2.245,-23.298,0.005,0.975,-0.148,1.160,-0.366,0.671,73.333,193053.000,1.000
-2.345,-4.588,4.003,3.434,-18.802,-16.807,-8.193,-28.934,0.003,0.976,-0.148,1.160,-0.458,0.702,73.333,193054.000,1.000
-5.643,-7.217,0.203,-0.254,-22.490,-18.895,-15.966,-35.995,0.003,0.974,-0.149,1.129,-0.305,0.824,73.333,193055.000,1.000
-8.774,-9.802,-3.830,-3.692,-25.549,-20.862,-21.806,-41.452,0.003,0.976,-0.149,1.099,-0.305,0.854,73.333,193056.000,1.000
-11.275,-11.934,-7.201,-6.001,-27.155,-22.538,-23.825,-43.694,0.004,0.978,-0.149,1.160,-0.214,0.732,73.333,193057.000,1.000
-13.048,-13.340,-9.407,-7.070,-27.348,-24.028,-22.527,-43.009,0.004,0.975,-0.147,1.068,-0.214,0.854,73.333,193058.000,1.000
-14.050,-13.787,-10.236,-7.246,-26.642,-25.261,-19.904,-40.806,0.006,0.976,-0.150,1.038,-0.183,0.885,73.333,193059.000,1.000
-14.276,-13.208,-9.874,-7.090,-25.700,-25.954,-18.164,-38.860,0.010,0.975,-0.149,1.038,-0.183,0.916,73.333,193060.000,1.000
-13.941,-11.889,-8.972,-7.196,-25.123,-25.950,-18.254,-38.386,0.008,0.975,-0.152,1.068,-0.092,1.038,73.333,193061.000,1.000
-13.298,-10.432,-8.171,-7.758,-25.066,-25.383,-19.332,-39.163,0.008,0.972,-0.150,1.038,-0.061,0.977,73.333,193062.000,1.000
-12.732,-9.644,-7.971,-8.746,-25.557,-24.775,-20.019,-40.351,0.007,0.975,-0.151,1.007,0.000,1.038,73.333,193063.000,1.000
-12.659,-10.143,-8.639,-10.110,-26.620,-24.724,-20.023,-41.762,0.006,0.976,-0.149,1.099,0.031,1.190,73.333,193064.000,1.000
-13.233,-11.786,-10.005,-11.600,-27.896,-25.304,-19.670,-43.548,0.007,0.976,-0.152,1.038,0.183,1.160,73.333,193065.000,1.000
-14.265,-13.704,-11.515,-12.710,-28.629,-25.944,-18.751,-45.229,0.006,0.977,-0.151,1.038,0.122,1.190,73.333,193066.000,1.000
-15.249,-14.855,-12.389,-12.806,-28.026,-25.841,-16.861,-45.571,0.008,0.977,-0.150,1.007,0.183,1.312,73.333,193067.000,1.000
-15.862,-14.708,-12.180,-11.739,-26.005,-24.664,-14.148,-43.761,0.006,0.979,-0.150,0.977,0.214,1.434,73.333,193068.000,1.000
-16.215,-13.543,-11.066,-10.059,-23.355,-22.975,-11.714,-40.521,0.004,0.982,-0.149,0.885,0.183,1.434,73.333,193069.000,1.000
-16.612,-12.140,-9.646,-8.560,-21.274,-21.869,-11.309,-37.907,0.004,0.980,-0.148,0.916,0.183,1.495,73.333,193070.000,1.000
-17.269,-11.259,-8.582,-7.766,-20.705,-22.087,-14.004,-37.678,0.006,0.978,-0.148,0.702,0.244,1.556,73.333,193071.000,1.000
-17.997,-11.183,-8.164,-7.611,-21.583,-23.314,-18.758,-39.569,0.003,0.979,-0.153,0.671,0.214,1.465,73.333,193072.000,1.000
-18.411,-11.646,-8.332,-7.743,-23.067,-24.514,-22.766,-41.764,0.004,0.978,-0.152,0.610,0.214,1.404,73.333,193073.000,1.000
-18.198,-12.143,-8.822,-7.892,-24.262,-24.770,-24.001,-42.878,0.005,0.977,-0.150,0.641,0.275,1.343,73.333,193074.000,1.000
-17.329,-12.348,-9.364,-8.050,-24.781,-23.883,-22.817,-42.989,0.005,0.978,-0.150,0.549,0.336,1.404,73.333,193075.000,1.000
-16.118,-12.301,-9.851,-8.356,-24.740,-22.419,-20.767,-42.888,0.006,0.980,-0.151,0.427,0.275,1.373,73.333,193076.000,1.000
-14.833,-12.072,-10.050,-8.627,-24.063,-20.948,-18.364,-42.572,0.007,0.980,-0.147,0.366,0.366,1.373,73.333,193077.000,1.000
-13.609,-11.490,-9.625,-8.450,-22.449,-19.469,-14.698,-40.980,0.005,0.982,-0.148,0.275,0.305,1.312,73.333,193078.000,1.000
-12.453,-10.334,-8.384,-7.590,-19.898,-17.652,-9.734,-37.466,0.006,0.983,-0.146,0.061,0.275,1.221,73.333,193079.000,1.000
-11.301,-8.662,-6.507,-6.227,-17.071,-15.445,-5.555,-33.183,0.007,0.982,-0.150,-0.092,0.305,1.251,73.333,193080.000,1.000
-10.213,-6.902,-4.571,-4.835,-14.901,-13.253,-4.466,-30.230,0.006,0.980,-0.150,-0.183,0.275,1.129,73.333,193081.000,1.000
-9.337,-5.611,-3.109,-3.709,-13.747,-11.596,-6.740,-29.537,0.005,0.980,-0.150,-0.336,0.366,1.190,73.333,193082.000,1.000
-8.946,-5.311,-2.457,-2.944,-13.467,-11.012,-10.533,-30.407,0.004,0.979,-0.146,-0.458,0.305,1.068,73.333,193083.000,1.000
-9.203,-6.297,-2.632,-2.453,-13.729,-11.930,-13.504,-31.324,0.003,0.978,-0.148,-0.702,0.305,1.068,73.333,193084.000,1.000
-9.999,-8.322,-3.293,-2.064,-14.144,-14.222,-14.059,-30.924,0.005,0.979,-0.148,-0.793,0.336,1.007,73.333,193085.000,1.000
-11.040,-10.580,-3.917,-1.766,-14.425,-17.035,-11.985,-29.055,0.004,0.979,-0.149,-0.916,0.366,0.977,73.333,193086.000,1.000
-11.753,-12.057,-3.824,-1.550,-14.276,-19.174,-8.553,-26.919,0.005,0.979,-0.148,-1.160,0.275,1.007,73.333,193087.000,1.000
-11.572,-12.145,-2.568,-1.322,-13.581,-19.996,-5.681,-26.158,0.006,0.979,-0.146,-1.312,0.275,1.038,73.333,193088.000,1.000
-10.203,-10.854,-0.202,-0.915,-12.477,-19.749,-4.991,-27.703,0.007,0.979,-0.147,-1.373,0.122,1.007,73.333,193089.000,1.000
-7.809,-8.553,2.750,-0.278,-11.263,-19.002,-6.895,-31.169,0.006,0.979,-0.150,-1.434,0.153,1.038,73.333,193090.000,1.000
-5.163,-5.861,5.428,0.319,-10.342,-18.205,-10.262,-35.073,0.006,0.980,-0.149,-1.526,0.214,1.038,73.333,193091.000,1.000
-3.152,-3.495,7.121,0.588,-9.928,-17.598,-13.363,-37.734,0.005,0.983,-0.148,-1.740,0.214,1.129,73.333,193092.000,1.000
-2.288,-1.908,7.563,0.501,-9.953,-17.185,-14.881,-38.311,0.006,0.981,-0.144,-1.770,0.122,1.068,73.333,193093.000,1.000
-2.480,-1.081,7.043,0.457,-9.948,-16.673,-14.113,-36.712,0.005,0.980,-0.145,-1.953,0.061,0.946,73.333,193094.000,1.000
-3.378,-0.844,6.078,0.875,-9.465,-15.903,-11.150,-33.376,0.004,0.978,-0.147,-2.014,0.092,0.916,73.333,193095.000,1.000
-4.839,-1.298,4.879,1.496,-8.821,-15.372,-7.729,-29.745,0.005,0.975,-0.147,-2.106,0.122,0.854,73.333,193096.000,1.000
-6.766,-2.600,3.475,1.647,-8.764,-15.796,-6.659,-27.694,0.006,0.974,-0.148,-1.953,0.061,0.854,73.333,193097.000,1.000
-8.972,-4.593,1.924,0.924,-9.674,-17.223,-9.154,-28.057,0.006,0.972,-0.147,-1.953,0.061,0.854,73.333,193098.000,1.000
-11.006,-6.673,0.525,-0.343,-11.034,-18.702,-13.694,-29.926,0.009,0.971,-0.148,-1.831,0.061,0.916,73.333,193099.000,1.000
-12.212,-8.037,-0.276,-1.426,-11.838,-18.955,-17.349,-31.435,0.010,0.974,-0.148,-1.740,0.153,0.977,73.333,193100.000,1.000
-12.121,-8.247,-0.275,-1.836,-11.526,-17.530,-17.770,-31.171,0.009,0.977,-0.147,-1.648,0.061,0.946,73.333,193101.000,1.000
-10.520,-7.351,0.553,-1.299,-10.139,-15.063,-14.648,-28.822,0.010,0.976,-0.150,-1.648,0.183,1.068,73.333,193102.000,1.000
-7.692,-5.767,2.000,0.154,-8.242,-12.907,-9.854,-25.319,0.012,0.973,-0.148,-1.556,0.214,1.190,73.333,193103.000,1.000
-4.448,-4.193,3.558,2.083,-6.617,-12.441,-6.021,-22.208,0.013,0.970,-0.147,-1.495,0.366,1.190,73.333,193104.000,1.000
-1.754,-3.180,4.708,3.978,-5.677,-14.122,-4.164,-20.035,0.011,0.966,-0.149,-1.373,0.397,1.312,73.333,193105.000,1.000
-0.460,-2.868,5.075,5.424,-5.425,-17.231,-3.483,-18.094,0.011,0.967,-0.149,-1.251,0.305,1.434,73.333,193106.000,1.000
-1.190,-3.329,4.287,5.795,-6.026,-20.735,-3.916,-16.590,0.011,0.967,-0.148,-1.038,0.366,1.526,73.333,193107.000,1.000
-4.249,-4.837,1.911,4.210,-8.061,-24.140,-6.875,-17.535,0.013,0.968,-0.148,-0.854,0.519,1.526,73.333,193108.000,1.000
-8.977,-7.270,-1.750,0.664,-11.388,-27.062,-12.886,-22.035,0.012,0.971,-0.149,-0.702,0.488,1.495,73.333,193109.000,1.000
-13.713,-9.680,-5.336,-3.366,-14.575,-28.700,-19.923,-28.268,0.012,0.973,-0.153,-0.641,0.519,1.556,73.333,193110.000,1.000
-16.910,-11.062,-7.516,-6.065,-16.116,-28.496,-24.789,-33.012,0.014,0.978,-0.149,-0.488,0.580,1.678,73.333,193111.000,1.000
-17.911,-11.172,-7.941,-6.546,-15.488,-26.769,-25.312,-33.951,0.015,0.976,-0.149,-0.488,0.610,1.709,73.333,193112.000,1.000
-17.031,-10.512,-7.307,-5.244,-13.323,-24.480,-21.138,-30.907,0.014,0.977,-0.147,-0.427,0.610,1.587,73.333,193113.000,1.000
-15.067,-9.869,-6.613,-3.328,-10.803,-22.553,-13.952,-25.709,0.013,0.978,-0.146,-0.488,0.671,1.740,73.333,193114.000,1.000
-12.948,-9.987,-6.628,-2.009,-9.143,-21.633,-7.232,-21.157,0.012,0.980,-0.145,-0.427,0.671,1.831,73.333,193115.000,1.000
-11.604,-11.385,-7.803,-2.151,-9.337,-22.213,-4.813,-19.818,0.006,0.980,-0.144,-0.488,0.732,1.740,73.333,193116.000,1.000
-11.397,-13.920,-9.882,-3.729,-11.422,-24.215,-8.224,-22.531,0.004,0.982,-0.145,-0.427,0.610,1.465,73.333,193117.000,1.000
-11.980,-16.615,-11.953,-5.813,-14.306,-26.659,-14.978,-27.613,0.000,0.984,-0.144,-0.519,0.427,1.312,73.333,193118.000,1.000
-12.723,-18.293,-13.072,-7.227,-16.523,-28.285,-20.748,-32.004,0.000,0.984,-0.144,-0.549,0.275,1.160,73.333,193119.000,1.000
-13.352,-18.480,-12.964,-7.445,-17.351,-28.609,-23.014,-33.586,0.000,0.983,-0.143,-0.702,-0.031,0.916,73.333,193120.000,1.000
-14.075,-17.601,-12.149,-6.869,-17.112,-28.091,-22.097,-32.331,0.000,0.985,-0.143,-0.702,-0.183,0.732,73.333,193121.000,1.000
-14.960,-16.306,-11.246,-6.087,-16.374,-27.285,-19.735,-29.576,0.001,0.984,-0.140,-0.793,-0.366,0.671,73.333,193122.000,1.000
-15.735,-14.993,-10.611,-5.377,-15.578,-26.314,-17.567,-27.119,0.001,0.984,-0.140,-0.977,-0.580,0.549,73.333,193123.000,1.000
-15.956,-13.860,-10.293,-4.734,-15.031,-25.055,-16.746,-26.405,0.003,0.982,-0.140,-1.129,-0.824,0.488,73.333,193124.000,1.000
-15.359,-13.019,-10.131,-4.134,-14.880,-23.615,-17.551,-27.669,0.005,0.980,-0.140,-1.160,-0.946,0.427,73.333,193125.000,1.000
-14.053,-12.455,-9.858,-3.548,-14.975,-22.410,-18.904,-29.615,0.003,0.981,-0.139,-1.221,-1.129,0.366,73.333,193126.000,1.000
-12.217,-11.901,-9.040,-2.686,-14.669,-21.649,-18.927,-30.044,0.005,0.980,-0.141,-1.251,-1.251,0.397,73.333,193127.000,1.000
-10.180,-11.156,-7.566,-1.374,-13.426,-21.318,-16.449,-27.532,0.004,0.980,-0.140,-1.251,-1.282,0.488,73.333,193128.000,1.000
-8.504,-10.420,-5.909,0.120,-11.294,-21.408,-12.154,-22.530,0.006,0.979,-0.137,-1.251,-1.312,0.610,73.333,193129.000,1.000
-7.768,-10.058,-4.735,1.284,-8.778,-21.730,-7.802,-16.896,0.006,0.979,-0.138,-1.282,-1.404,0.671,73.333,193130.000,1.000
-8.295,-10.205,-4.464,1.726,-6.551,-21.869,-4.705,-12.690,0.006,0.977,-0.138,-1.343,-1.526,0.671,73.333,193131.000,1.000
-9.833,-10.591,-4.930,1.530,-4.989,-21.415,-3.057,-10.974,0.006,0.975,-0.143,-1.312,-1.526,0.763,73.333,193132.000,1.000
-11.915,-10.923,-5.768,0.928,-4.254,-20.388,-2.209,-11.575,0.006,0.975,-0.142,-1.312,-1.556,0.885,73.333,193133.000,1.000
-14.274,-11.401,-6.911,-0.162,-4.654,-19.599,-2.348,-14.166,0.007,0.976,-0.141,-1.251,-1.495,0.916,73.333,193134.000,1.000
-16.787,-12.479,-8.470,-2.019,-6.554,-20.188,-4.957,-18.967,0.007,0.976,-0.138,-1.343,-1.587,1.160,73.333,193135.000,1.000
-19.047,-14.070,-10.122,-4.398,-9.602,-22.373,-10.542,-25.521,0.009,0.974,-0.138,-1.282,-1.709,1.099,73.333,193136.000,1.000
-20.166,-15.357,-10.888,-6.172,-12.406,-25.088,-17.392,-31.703,0.008,0.974,-0.138,-1.282,-1.770,1.129,73.333,193137.000,1.000
-19.628,-15.689,-10.152,-6.319,-13.794,-27.260,-23.101,-35.240,0.009,0.974,-0.138,-1.190,-1.801,1.221,73.333,193138.000,1.000
-17.789,-15.209,-8.242,-4.725,-13.580,-28.540,-26.020,-35.259,0.010,0.973,-0.139,-1.190,-1.831,1.343,73.333,193139.000,1.000
-15.532,-14.507,-6.019,-2.097,-12.221,-28.895,-25.160,-32.222,0.010,0.973,-0.137,-1.129,-1.892,1.343,73.333,193140.000,1.000
-13.805,-14.124,-4.389,0.356,-10.570,-28.408,-20.741,-27.663,0.012,0.974,-0.137,-1.129,-1.831,1.312,73.333,193141.000,1.000
-13.117,-14.268,-3.867,1.548,-9.580,-27.381,-15.103,-23.749,0.010,0.972,-0.140,-1.068,-1.740,1.312,73.333,193142.000,1.000
-13.442,-14.798,-4.461,1.056,-9.906,-26.420,-11.342,-22.145,0.013,0.973,-0.139,-0.946,-1.648,1.251,73.333,193143.000,1.000
-14.253,-15.339,-5.596,-0.590,-11.369,-26.149,-11.100,-22.926,0.013,0.975,-0.142,-0.824,-1.648,1.221,73.333,193144.000,1.000
-14.799,-15.390,-6.356,-2.286,-13.001,-26.670,-13.821,-24.985,0.011,0.973,-0.141,-0.732,-1.740,1.099,73.333,193145.000,1.000
-14.627,-14.609,-6.145,-3.175,-13.813,-27.434,-17.644,-27.313,0.012,0.972,-0.139,-0.671,-1.617,1.190,73.333,193146.000,1.000
-13.787,-13.048,-4.998,-3.017,-13.264,-27.644,-20.698,-29.277,0.012,0.970,-0.139,-0.641,-1.526,1.312,73.333,193147.000,1.000
-12.882,-11.131,-3.532,-2.189,-11.527,-26.842,-21.789,-30.331,0.012,0.970,-0.141,-0.458,-1.404,1.282,73.333,193148.000,1.000
-12.617,-9.426,-2.461,-1.239,-9.261,-25.123,-20.731,-30.053,0.011,0.969,-0.142,-0.397,-1.373,1.251,73.333,193149.000,1.000
-13.264,-8.459,-2.242,-0.544,-7.248,-23.087,-18.090,-28.481,0.014,0.970,-0.145,-0.305,-1.221,1.068,73.333,193150.000,1.000
-14.582,-8.634,-3.086,-0.338,-6.187,-21.637,-14.870,-26.290,0.015,0.970,-0.143,-0.275,-1.221,0.977,73.333,193151.000,1.000
-15.933,-9.933,-4.728,-0.587,-6.249,-21.354,-12.383,-24.392,0.016,0.973,-0.140,-0.183,-1.129,1.038,73.333,193152.000,1.000
-16.773,-11.775,-6.491,-1.092,-7.062,-22.124,-11.579,-23.398,0.015,0.975,-0.140,-0.092,-1.190,1.068,73.333,193153.000,1.000
-16.853,-13.286,-7.545,-1.578,-7.957,-23.294,-12.598,-23.301,0.014,0.975,-0.142,-0.122,-1.068,0.916,73.333,193154.000,1.000
-16.168,-13.772,-7.344,-1.731,-8.268,-24.055,-14.377,-23.473,0.013,0.978,-0.140,0.000,-0.885,0.946,73.333,193155.000,1.000
-15.051,-13.124,-6.022,-1.331,-7.593,-23.842,-14.774,-22.880,0.011,0.981,-0.139,0.000,-0.793,0.977,73.333,193156.000,1.000
-14.048,-11.802,-4.244,-0.341,-5.937,-22.569,-12.443,-20.707,0.010,0.982,-0.139,-0.092,-0.671,0.854,73.333,193157.000,1.000
-13.847,-10.550,-2.976,0.787,-4.085,-20.757,-8.511,-17.409,0.009,0.985,-0.136,-0.244,-0.763,0.916,73.333,193158.000,1.000
-14.859,-10.024,-2.963,1.353,-3.170,-19.222,-5.706,-14.715,0.007,0.986,-0.136,-0.427,-0.732,0.854,73.333,193159.000,1.000
-16.902,-10.495,-4.251,1.000,-3.748,-18.521,-5.807,-14.248,0.009,0.979,-0.133,-0.610,-0.824,0.885,73.333,193160.000,1.000
-19.394,-11.832,-6.275,-0.039,-5.470,-18.707,-8.421,-16.025,0.009,0.978,-0.137,-0.702,-0.793,0.793,73.333,193161.000,1.000
-21.552,-13.556,-8.147,-1.080,-7.333,-19.416,-11.859,-18.280,0.008,0.978,-0.139,-0.763,-0.854,0.824,73.333,193162.000,1.000
-22.885,-15.105,-9.306,-1.734,-8.591,-20.266,-14.493,-19.311,0.010,0.979,-0.140,-0.763,-0.885,0.824,73.333,193163.000,1.000
-23.437,-16.124,-9.802,-2.244,-9.192,-20.970,-15.677,-19.076,0.010,0.981,-0.142,-0.702,-0.916,0.763,73.333,193164.000,1.000
-23.531,-16.488,-9.988,-3.007,-9.417,-21.202,-15.595,-18.599,0.009,0.986,-0.139,-0.702,-0.916,0.763,73.333,193165.000,1.000
-23.474,-16.314,-10.211,-4.093,-9.546,-20.805,-14.785,-18.654,0.009,0.987,-0.139,-0.885,-0.885,0.763,73.333,193166.000,1.000
-23.384,-15.945,-10.665,-5.213,-9.738,-20.026,-14.115,-19.461,0.008,0.987,-0.138,-1.068,-0.916,0.671,73.333,193167.000,1.000
-23.385,-15.732,-11.492,-6.117,-10.156,-19.344,-14.219,-20.907,0.010,0.986,-0.137,-1.221,-0.885,0.763,73.333,193168.000,1.000
-23.449,-15.689,-12.567,-6.579,-10.683,-18.944,-14.877,-22.253,0.014,0.984,-0.139,-1.404,-0.946,0.824,73.333,193169.000,1.000
-23.299,-15.583,-13.521,-6.452,-10.970,-18.729,-15.318,-22.433,0.013,0.981,-0.139,-1.434,-0.946,0.885,73.333,193170.000,1.000
-22.731,-15.432,-14.197,-6.014,-11.044,-18.772,-15.225,-21.282,0.011,0.981,-0.139,-1.434,-0.916,0.916,73.333,193171.000,1.000
-21.611,-15.517,-14.562,-5.798,-11.250,-19.193,-15.115,-19.833,0.011,0.983,-0.139,-1.434,-0.732,0.977,73.333,193172.000,1.000
-19.921,-15.957,-14.535,-6.178,-11.903,-19.903,-15.455,-19.367,0.008,0.983,-0.135,-1.526,-0.854,0.854,73.333,193173.000,1.000
-17.748,-16.440,-13.955,-7.002,-12.881,-20.615,-15.988,-20.200,0.003,0.985,-0.135,-1.556,-0.916,0.702,73.333,193174.000,1.000
-15.308,-16.389,-12.765,-7.685,-13.647,-20.974,-15.853,-21.396,0.001,0.983,-0.137,-1.617,-1.038,0.580,73.333,193175.000,1.000
-12.918,-15.369,-11.080,-7.614,-13.582,-20.667,-14.080,-21.555,0.003,0.981,-0.135,-1.678,-1.068,0.458,73.333,193176.000,1.000
-10.680,-13.244,-8.923,-6.309,-12.088,-19.378,-10.171,-19.640,0.003,0.979,-0.138,-1.617,-1.312,0.275,73.333,193177.000,1.000
-8.710,-10.392,-6.516,-3.945,-9.225,-17.177,-4.802,-15.842,0.003,0.976,-0.136,-1.587,-1.465,0.275,73.333,193178.000,1.000
-7.287,-7.820,-4.475,-1.542,-6.098,-14.914,-0.494,-11.907,0.005,0.976,-0.137,-1.556,-1.495,0.122,73.333,193179.000,1.000
-6.549,-6.542,-3.346,-0.225,-4.141,-13.762,-0.179,-9.991,0.005,0.975,-0.135,-1.495,-1.648,0.061,73.333,193180.000,1.000
-6.229,-6.762,-3.066,-0.257,-3.891,-14.243,-4.337,-10.768,0.006,0.974,-0.135,-1.434,-1.678,0.092,73.333,193181.000,1.000
-5.686,-7.766,-2.919,-0.806,-4.472,-15.758,-10.201,-12.705,0.008,0.976,-0.138,-1.343,-1.678,0.031,73.333,193182.000,1.000
-4.504,-8.631,-2.279,-0.888,-4.696,-17.281,-14.116,-13.700,0.007,0.977,-0.136,-1.190,-1.709,-0.031,73.333,193183.000,1.000
-2.680,-8.822,-0.977,-0.130,-4.141,-18.246,-14.700,-13.138,0.006,0.976,-0.136,-1.007,-1.801,-0.092,73.333,193184.000,1.000
-0.433,-8.206,0.917,1.247,-3.121,-18.679,-13.249,-11.939,0.007,0.975,-0.136,-0.977,-1.831,-0.153,73.333,193185.000,1.000
1.825,-6.932,3.235,2.752,-2.187,-18.854,-11.956,-11.244,0.006,0.976,-0.135,-0.946,-1.862,-0.183,73.333,193186.000,1.000
3.667,-5.248,5.788,3.992,-1.716,-18.930,-12.582,-11.728,0.005,0.977,-0.136,-0.854,-1.862,-0.122,73.333,193187.000,1.000
4.771,-3.361,8.300,4.724,-1.820,-18.839,-15.121,-13.419,0.005,0.978,-0.135,-0.793,-1.892,-0.183,73.333,193188.000,1.000
5.320,-1.295,10.702,5.137,-1.938,-18.168,-17.134,-14.959,0.005,0.977,-0.134,-0.702,-2.045,-0.092,73.333,193189.000,1.000
6.004,1.042,13.211,5.821,-1.111,-16.408,-15.746,-14.293,0.006,0.978,-0.134,-0.732,-2.045,-0.031,73.333,193190.000,1.000
7.149,3.371,15.661,6.913,0.736,-13.792,-11.108,-11.282,0.007,0.977,-0.132,-0.702,-2.075,0.031,73.333,193191.000,1.000
8.227,4.873,17.248,7.715,2.416,-11.522,-6.908,-8.464,0.003,0.979,-0.134,-0.732,-2.075,0.092,73.333,193192.000,1.000
8.176,4.692,16.981,7.186,2.358,-11.065,-6.782,-8.709,0.003,0.979,-0.133,-0.610,-2.045,0.092,73.333,193193.000,1.000
6.395,2.618,14.500,4.871,-0.117,-13.035,-11.230,-12.632,0.002,0.978,-0.134,-0.488,-2.075,0.153,73.333,193194.000,1.000
3.281,-0.663,10.386,1.271,-4.385,-16.689,-17.883,-18.474,0.002,0.979,-0.135,-0.519,-2.136,0.183,73.333,193195.000,1.000
-0.185,-3.951,5.753,-2.542,-9.068,-20.482,-23.724,-23.740,0.001,0.979,-0.136,-0.427,-2.167,0.214,73.333,193196.000,1.000
-3.011,-6.080,1.794,-5.450,-12.594,-22.894,-26.558,-26.417,0.002,0.978,-0.135,-0.427,-2.228,0.183,73.333,193197.000,1.000
-4.702,-6.447,-0.719,-6.784,-13.856,-23.046,-24.772,-25.357,0.002,0.979,-0.133,-0.427,-2.228,0.153,73.333,193198.000,1.000
-5.254,-5.198,-1.509,-6.336,-12.570,-20.913,-17.684,-20.355,0.002,0.980,-0.134,-0.366,-2.380,0.214,73.333,193199.000,1.000
-5.045,-3.066,-0.802,-4.452,-9.574,-17.376,-7.406,-12.802,0.002,0.981,-0.133,-0.275,-2.472,0.244,73.333,193200.000,1.000
-4.751,-1.137,0.553,-2.237,-6.831,-14.158,0.671,-6.032,0.003,0.980,-0.137,-0.183,-2.533,0.305,73.333,193201.000,1.000
-4.823,-0.404,1.563,-0.912,-6.187,-13.009,1.354,-3.412,0.004,0.979,-0.135,-0.275,-2.502,0.336,73.333,193202.000,1.000
-5.281,-1.228,1.675,-1.001,-8.085,-14.543,-5.970,-5.763,0.005,0.978,-0.135,-0.214,-2.350,0.183,73.333,193203.000,1.000
-5.830,-3.047,1.084,-1.995,-11.206,-17.681,-17.139,-10.875,0.007,0.977,-0.134,-0.183,-2.411,0.305,73.333,193204.000,1.000
-6.294,-4.740,0.313,-2.996,-13.563,-20.425,-26.445,-15.527,0.007,0.977,-0.137,-0.153,-2.380,0.214,73.333,193205.000,1.000
-6.902,-5.476,-0.442,-3.624,-14.029,-21.366,-29.943,-17.703,0.005,0.977,-0.137,-0.122,-2.441,0.183,73.333,193206.000,1.000
-7.730,-5.001,-1.071,-3.851,-12.573,-20.228,-27.012,-16.903,0.007,0.977,-0.136,-0.092,-2.380,0.214,73.333,193207.000,1.000
-8.425,-3.442,-1.257,-3.541,-9.875,-17.504,-20.039,-13.696,0.007,0.975,-0.138,0.061,-2.441,0.244,73.333,193208.000,1.000
-8.540,-1.253,-0.704,-2.489,-6.862,-14.076,-13.035,-9.410,0.006,0.976,-0.142,0.061,-2.319,0.244,73.333,193209.000,1.000
-8.046,0.922,0.513,-0.774,-4.296,-10.924,-8.958,-5.363,0.005,0.977,-0.139,0.092,-2.258,0.244,73.333,193210.000,1.000
-7.411,2.537,1.940,1.107,-2.595,-8.869,-7.951,-2.109,0.004,0.977,-0.138,0.092,-2.197,0.153,73.333,193211.000,1.000
-7.148,3.266,3.096,2.440,-1.931,-8.464,-8.784,0.166,0.005,0.978,-0.138,0.153,-2.197,0.153,73.333,193212.000,1.000
-7.485,3.063,3.665,2.550,-2.425,-9.840,-10.789,0.769,0.006,0.977,-0.139,0.092,-2.197,0.183,73.333,193213.000,1.000
-8.029,2.421,3.815,1.417,-3.671,-12.264,-13.798,-0.898,0.006,0.977,-0.136,0.153,-2.197,0.031,73.333,193214.000,1.000
-7.975,2.298,4.094,-0.185,-4.591,-14.267,-16.916,-4.098,0.006,0.977,-0.138,0.153,-2.167,0.000,73.333,193215.000,1.000
-6.894,3.468,4.855,-1.291,-4.112,-14.462,-18.102,-6.790,0.006,0.978,-0.135,0.275,-2.075,0.000,73.333,193216.000,1.000
-4.986,6.019,6.052,-1.240,-1.708,-12.158,-15.341,-7.017,0.004,0.980,-0.135,0.244,-2.075,-0.092,73.333,193217.000,1.000
-3.034,9.209,7.118,-0.120,2.026,-7.901,-8.591,-4.636,0.002,0.980,-0.134,0.122,-2.045,-0.214,73.333,193218.000,1.000
-1.915,11.783,7.227,1.325,5.511,-3.376,-0.804,-1.507,0.002,0.980,-0.138,0.061,-1.953,-0.305,73.333,193219.000,1.000
-2.046,12.731,5.850,2.195,7.107,-0.278,3.875,0.001,0.003,0.981,-0.138,0.153,-2.075,-0.305,73.333,193220.000,1.000
-3.195,11.846,3.125,1.964,6.135,0.796,3.326,-1.163,0.003,0.982,-0.137,0.061,-2.045,-0.366,73.333,193221.000,1.000
-4.509,9.783,-0.025,0.946,3.379,0.545,-1.301,-3.909,0.003,0.982,-0.136,-0.122,-2.045,-0.214,73.333,193222.000,1.000
-5.179,7.494,-2.591,-0.099,0.227,0.077,-7.031,-6.085,0.002,0.982,-0.137,-0.183,-1.984,-0.275,73.333,193223.000,1.000
-4.925,5.585,-4.147,-0.599,-2.316,-0.064,-11.162,-5.971,0.001,0.983,-0.139,-0.183,-2.014,-0.275,73.333,193224.000,1.000
-3.997,4.083,-4.965,-0.504,-4.018,-0.214,-12.225,-3.085,0.002,0.982,-0.137,-0.183,-2.014,-0.427,73.333,193225.000,1.000
-2.942,2.583,-5.738,-0.328,-5.471,-1.315,-10.550,1.476,0.002,0.982,-0.136,-0.275,-2.045,-0.336,73.333,193226.000,1.000
-2.250,0.685,-7.022,-0.786,-7.584,-4.138,-8.428,5.466,0.001,0.982,-0.136,-0.336,-2.075,-0.366,73.333,193227.000,1.000
-2.486,-1.757,-9.142,-2.543,-11.022,-8.637,-8.669,6.681,0.000,0.979,-0.136,-0.397,-2.014,-0.366,73.333,193228.000,1.000
-4.019,-4.502,-12.026,-5.685,-15.480,-13.734,-12.541,4.385,0.001,0.979,-0.134,-0.488,-2.014,-0.275,73.333,193229.000,1.000
-6.542,-6.897,-15.044,-9.384,-19.605,-17.739,-18.650,-0.204,-0.001,0.976,-0.134,-0.488,-2.106,-0.458,73.333,193230.000,1.000
-9.305,-8.272,-17.363,-12.406,-21.925,-19.456,-23.958,-4.802,0.000,0.975,-0.134,-0.519,-2.106,-0.305,73.333,193231.000,1.000
-11.589,-8.398,-18.444,-13.867,-21.793,-19.034,-26.131,-7.461,-0.001,0.976,-0.134,-0.519,-2.045,-0.275,73.333,193232.000,1.000
-13.206,-7.717,-18.558,-13.910,-19.944,-17.872,-24.771,-7.809,-0.001,0.976,-0.135,-0.427,-2.075,-0.336,73.333,193233.000,1.000
-14.386,-7.106,-18.587,-13.499,-17.953,-17.516,-21.255,-6.999,-0.001,0.977,-0.134,-0.336,-2.106,-0.214,73.333,193234.000,1.000
-15.334,-7.304,-19.333,-13.575,-17.175,-18.695,-17.829,-6.671,-0.001,0.977,-0.132,-0.397,-2.167,-0.275,73.333,193235.000,1.000
-15.997,-8.531,-21.009,-14.509,-18.122,-21.274,-16.574,-8.023,-0.001,0.977,-0.132,-0.397,-2.167,-0.214,73.333,193236.000,1.000
-16.007,-10.291,-23.004,-15.913,-20.137,-24.346,-18.106,-10.903,0.000,0.978,-0.138,-0.366,-2.197,-0.092,73.333,193237.000,1.000
-15.156,-11.587,-24.369,-17.041,-21.823,-26.538,-20.699,-13.666,0.000,0.977,-0.139,-0.336,-2.136,-0.061,73.333,193238.000,1.000
-13.717,-11.606,-24.471,-17.259,-21.946,-26.920,-21.941,-14.507,-0.002,0.978,-0.137,-0.366,-2.136,-0.031,73.333,193239.000,1.000
-12.366,-10.322,-23.385,-16.387,-20.251,-25.761,-21.089,-13.033,-0.003,0.979,-0.136,-0.519,-2.197,0.061,73.333,193240.000,1.000
-11.801,-8.366,-21.747,-14.682,-17.380,-23.956,-19.002,-10.219,-0.003,0.979,-0.135,-0.427,-2.136,0.122,73.333,193241.000,1.000
-12.056,-6.315,-20.031,-12.325,-13.940,-21.824,-16.527,-7.065,-0.003,0.979,-0.136,-0.458,-2.167,0.183,73.333,193242.000,1.000
-12.579,-4.368,-18.402,-9.457,-10.324,-19.137,-13.746,-4.096,-0.002,0.978,-0.134,-0.427,-2.106,0.275,73.333,193243.000,1.000
-12.773,-2.582,-16.960,-6.498,-6.967,-15.926,-10.616,-1.652,-0.002,0.981,-0.135,-0.427,-2.197,0.366,73.333,193244.000,1.000
-12.418,-1.116,-15.924,-4.191,-4.423,-12.828,-7.459,-0.119,-0.002,0.982,-0.136,-0.336,-2.197,0.427,73.333,193245.000,1.000
-11.650,-0.170,-15.525,-3.181,-3.175,-10.792,-4.901,0.123,0.000,0.980,-0.135,-0.488,-2.258,0.549,73.333,193246.000,1.000
-10.483,0.312,-15.550,-3.371,-3.131,-10.368,-3.579,-0.875,0.000,0.981,-0.136,-0.519,-2.258,0.610,73.333,193247.000,1.000
-8.814,0.741,-15.404,-3.968,-3.660,-11.234,-3.511,-2.362,0.000,0.981,-0.136,-0.519,-2.197,0.732,73.333,193248.000,1.000
-6.610,1.642,-14.486,-3.958,-3.881,-12.356,-3.963,-3.094,0.001,0.980,-0.135,-0.549,-2.258,0.763,73.333,193249.000,1.000
-4.214,3.153,-12.749,-2.832,-3.249,-12.775,-3.912,-2.338,0.000,0.980,-0.134,-0.458,-2.136,0.916,73.333,193250.000,1.000
-2.424,4.727,-10.957,-1.012,-2.018,-12.248,-2.760,-0.616,0.000,0.979,-0.134,-0.610,-2.014,0.854,73.333,193251.000,1.000
-1.837,5.599,-10.012,0.695,-0.794,-10.941,-0.813,1.053,-0.002,0.979,-0.132,-0.702,-1.923,0.793,73.333,193252.000,1.000
-2.575,5.285,-10.389,1.578,-0.156,-9.178,1.102,2.015,-0.002,0.976,-0.132,-0.610,-1.953,0.763,73.333,193253.000,1.000
-4.277,3.849,-11.819,1.363,-0.278,-7.515,2.447,2.349,-0.001,0.978,-0.130,-0.641,-1.923,0.702,73.333,193254.000,1.000
-6.168,2.072,-13.303,0.446,-0.705,-6.474,3.638,2.903,0.000,0.978,-0.131,-0.580,-1.862,0.732,73.333,193255.000,1.000
-7.501,0.947,-13.836,-0.473,-0.895,-6.318,5.484,4.461,-0.001,0.978,-0.135,-0.580,-1.862,0.793,73.333,193256.000,1.000
-8.008,0.662,-13.342,-1.080,-0.967,-7.317,7.721,6.606,0.000,0.976,-0.134,-0.549,-1.740,0.702,73.333,193257.000,1.000
-8.219,0.206,-13.020,-1.910,-1.928,-10.010,8.717,7.648,-0.001,0.976,-0.132,-0.610,-1.801,0.763,73.333,193258.000,1.000
-9.007,-1.716,-14.290,-3.691,-4.636,-14.531,6.689,6.076,0.000,0.976,-0.135,-0.549,-1.740,0.793,73.333,193259.000,1.000
-10.987,-5.568,-17.621,-6.604,-8.979,-20.062,1.132,1.775,-0.001,0.976,-0.133,-0.549,-1.648,0.763,73.333,193260.000,1.000
-14.327,-10.824,-22.480,-10.310,-14.151,-25.394,-6.827,-4.166,0.000,0.975,-0.133,-0.519,-1.678,0.763,73.333,193261.000,1.000
-18.452,-16.228,-27.591,-14.012,-18.928,-29.502,-14.980,-10.088,0.003,0.972,-0.135,-0.366,-1.526,0.702,73.333,193262.000,1.000
-22.241,-20.327,-31.550,-16.801,-22.210,-31.822,-20.932,-14.510,0.004,0.976,-0.134,-0.336,-1.465,0.793,73.333,193263.000,1.000
-24.631,-22.297,-33.547,-18.207,-23.636,-32.397,-23.455,-16.717,0.003,0.977,-0.134,-0.275,-1.373,0.946,73.333,193264.000,1.000
-25.307,-22.421,-33.825,-18.541,-23.808,-31.843,-22.984,-16.887,0.002,0.980,-0.134,-0.275,-1.251,0.916,73.333,193265.000,1.000
-24.846,-21.776,-33.429,-18.605,-23.778,-30.992,-20.780,-15.708,0.003,0.983,-0.133,-0.244,-1.099,1.068,73.333,193266.000,1.000
-24.074,-21.333,-33.230,-18.826,-24.029,-30.311,-17.849,-13.704,0.002,0.982,-0.133,-0.336,-1.038,1.099,73.333,193267.000,1.000
-23.748,-21.596,-33.656,-19.184,-24.537,-29.957,-14.754,-11.426,0.000,0.982,-0.132,-0.366,-1.007,1.190,73.333,193268.000,1.000
-24.253,-22.747,-34.848,-19.624,-25.298,-30.081,-12.391,-9.864,0.000,0.979,-0.133,-0.366,-0.854,1.190,73.333,193269.000,1.000
-25.305,-24.554,-36.601,-20.138,-26.296,-30.534,-11.532,-9.719,-0.001,0.979,-0.135,-0.336,-0.854,1.007,73.333,193270.000,1.000
-26.175,-26.284,-38.352,-20.630,-27.257,-30.540,-11.752,-10.573,0.002,0.979,-0.136,-0.366,-0.885,1.038,73.333,193271.000,1.000
-26.087,-27.032,-39.314,-20.802,-27.632,-29.247,-11.945,-11.368,0.001,0.979,-0.135,-0.183,-0.824,1.129,73.333,193272.000,1.000
-24.724,-26.353,-38.973,-20.435,-27.176,-26.787,-11.553,-11.680,0.004,0.980,-0.134,-0.092,-0.732,1.129,73.333,193273.000,1.000
-22.225,-24.443,-37.220,-19.459,-26.028,-24.257,-10.939,-11.875,0.004,0.978,-0.133,-0.122,-0.702,1.099,73.333,193274.000,1.000
-19.029,-21.778,-34.222,-17.938,-24.381,-22.637,-10.641,-12.287,0.005,0.978,-0.135,-0.092,-0.580,1.282,73.333,193275.000,1.000
-15.882,-18.865,-30.471,-16.191,-22.375,-22.079,-10.743,-12.862,0.005,0.976,-0.135,-0.031,-0.488,1.190,73.333,193276.000,1.000
-13.549,-16.176,-26.674,-14.647,-20.022,-22.070,-10.819,-13.164,0.006,0.972,-0.135,0.031,-0.397,1.312,73.333,193277.000,1.000
-12.674,-14.226,-23.734,-13.749,-17.468,-22.180,-9.915,-12.479,0.007,0.970,-0.138,0.153,-0.183,1.373,73.333,193278.000,1.000
-13.531,-13.536,-22.422,-13.684,-15.038,-22.394,-7.377,-10.201,0.006,0.968,-0.139,0.305,-0.153,1.495,73.333,193279.000,1.000
-15.830,-14.348,-22.943,-14.260,-13.108,-22.859,-3.822,-6.663,0.004,0.969,-0.138,0.580,-0.061,1.587,73.333,193280.000,1.000
-18.854,-16.426,-24.878,-15.134,-12.039,-23.627,-0.904,-3.483,0.003,0.970,-0.139,0.763,0.153,1.526,73.333,193281.000,1.000
-21.726,-19.092,-27.321,-15.938,-11.887,-24.541,-0.130,-2.365,0.002,0.975,-0.137,0.885,0.214,1.495,73.333,193282.000,1.000
-23.966,-21.590,-29.452,-16.483,-12.482,-25.407,-1.832,-3.635,0.002,0.981,-0.136,0.946,0.244,1.434,73.333,193283.000,1.000
-25.560,-23.437,-30.859,-16.755,-13.524,-26.037,-5.210,-6.012,0.003,0.980,-0.137,1.007,0.153,1.465,73.333,193284.000,1.000
-26.611,-24.427,-31.514,-16.815,-14.670,-26.173,-8.618,-7.602,0.003,0.982,-0.138,1.038,0.244,1.465,73.333,193285.000,1.000
-27.171,-24.545,-31.682,-16.740,-15.669,-25.648,-10.040,-6.934,0.004,0.982,-0.139,0.854,0.244,1.373,73.333,193286.000,1.000
-27.249,-23.942,-31.665,-16.572,-16.429,-24.519,-8.502,-3.724,0.002,0.980,-0.137,0.946,0.214,1.404,73.333,193287.000,1.000
-27.217,-23.042,-31.880,-16.653,-17.411,-23.193,-5.319,0.401,0.001,0.981,-0.136,0.946,0.214,1.434,73.333,193288.000,1.000
-27.538,-22.312,-32.576,-17.389,-19.208,-22.261,-3.290,2.758,-0.003,0.980,-0.137,0.916,0.214,1.282,73.333,193289.000,1.000
-28.198,-21.845,-33.454,-18.625,-21.729,-22.106,-4.225,1.728,-0.005,0.984,-0.138,0.854,0.092,1.160,73.333,193290.000,1.000
-28.862,-21.458,-33.932,-19.728,-24.208,-22.744,-7.941,-2.248,-0.006,0.986,-0.139,0.793,0.061,1.038,73.333,193291.000,1.000
-29.093,-20.860,-33.432,-19.930,-25.503,-23.583,-12.654,-6.918,-0.007,0.988,-0.135,0.732,-0.031,0.977,73.333,193292.000,1.000
-28.521,-19.657,-31.612,-18.742,-24.582,-23.537,-15.072,-9.240,-0.005,0.989,-0.133,0.580,-0.214,0.824,73.333,193293.000,1.000
-26.935,-17.587,-28.518,-16.228,-21.210,-22.004,-12.424,-7.394,-0.006,0.991,-0.131,0.336,-0.366,0.732,73.333,193294.000,1.000
-24.674,-15.030,-24.907,-13.274,-16.730,-19.949,-5.957,-2.794,-0.008,0.991,-0.131,0.061,-0.549,0.671,73.333,193295.000,1.000
-22.738,-12.988,-22.097,-11.322,-13.607,-19.329,-0.712,0.654,-0.008,0.990,-0.131,-0.092,-0.671,0.671,73.333,193296.000,1.000
-21.789,-12.037,-20.753,-11.063,-13.218,-20.993,-0.686,0.293,-0.005,0.989,-0.131,-0.336,-0.793,0.641,73.333,193297.000,1.000
-21.499,-11.650,-20.283,-11.775,-14.706,-23.719,-5.273,-3.010,-0.003,0.987,-0.129,-0.580,-0.946,0.641,73.333,193298.000,1.000
-20.977,-10.834,-19.481,-11.986,-15.899,-25.302,-10.652,-6.232,-0.004,0.985,-0.131,-0.671,-1.038,0.549,73.333,193299.000,1.000
-19.743,-9.184,-17.652,-10.774,-15.135,-24.308,-13.001,-6.812,-0.004,0.984,-0.131,-0.732,-1.160,0.580,73.333,193300.000,1.000
-18.068,-7.136,-15.051,-8.415,-12.336,-21.089,-10.781,-4.146,-0.005,0.983,-0.131,-0.763,-1.251,0.610,73.333,193301.000,1.000
-16.176,-5.265,-12.187,-5.744,-8.542,-17.361,-5.528,0.429,-0.006,0.982,-0.129,-0.977,-1.343,0.763,73.333,193302.000,1.000
-13.826,-3.706,-9.284,-3.369,-5.052,-14.944,-0.325,4.633,-0.005,0.983,-0.129,-0.977,-1.465,0.824,73.333,193303.000,1.000
-10.546,-2.173,-6.213,-1.302,-2.539,-14.446,2.824,7.025,-0.005,0.981,-0.128,-1.007,-1.495,0.793,73.333,193304.000,1.000
-6.239,-0.303,-2.872,0.726,-0.808,-14.921,4.334,7.947,-0.006,0.979,-0.130,-1.068,-1.556,0.946,73.333,193305.000,1.000
-1.676,1.918,0.275,2.635,0.536,-15.001,5.822,8.527,-0.004,0.978,-0.128,-1.068,-1.709,1.068,73.333,193306.000,1.000
1.880,4.078,2.396,3.947,1.620,-14.047,7.950,9.303,-0.005,0.976,-0.132,-1.099,-1.709,1.282,73.333,193307.000,1.000
3.334,5.598,2.805,4.068,2.175,-12.363,9.783,9.811,-0.002,0.974,-0.132,-1.099,-1.709,1.343,73.333,193308.000,1.000
2.497,6.121,1.500,2.810,1.940,-10.679,9.670,9.187,-0.001,0.974,-0.129,-1.099,-1.801,1.221,73.333,193309.000,1.000
0.156,5.689,-0.890,0.564,0.948,-9.718,6.798,6.883,-0.003,0.972,-0.131,-0.916,-1.892,1.282,73.333,193310.000,1.000
-2.664,4.454,-3.711,-2.076,-0.671,-10.098,1.788,3.042,-0.002,0.973,-0.130,-0.916,-1.953,1.343,73.333,193311.000,1.000
-5.154,2.493,-6.527,-4.550,-2.727,-12.150,-4.242,-1.488,-0.001,0.973,-0.131,-0.763,-1.953,1.465,73.333,193312.000,1.000
-6.854,-0.056,-9.083,-6.494,-5.011,-15.715,-10.301,-5.677,-0.002,0.971,-0.129,-0.671,-1.984,1.465,73.333,193313.000,1.000
-7.466,-2.730,-11.020,-7.675,-7.085,-19.933,-15.204,-8.562,-0.001,0.974,-0.131,-0.671,-1.923,1.404,73.333,193314.000,1.000
-6.885,-4.759,-11.848,-7.947,-8.336,-23.427,-17.484,-9.357,0.000,0.971,-0.131,-0.549,-1.831,1.526,73.333,193315.000,1.000
-5.397,-5.476,-11.280,-7.316,-8.428,-25.005,-16.421,-7.859,0.000,0.967,-0.131,-0.397,-1.740,1.495,73.333,193316.000,1.000
-3.445,-4.618,-9.353,-5.832,-7.357,-24.181,-12.730,-4.511,0.000,0.968,-0.132,-0.183,-1.740,1.495,73.333,193317.000,1.000
-1.611,-2.548,-6.701,-3.850,-5.569,-21.450,-7.837,-0.277,-0.001,0.968,-0.131,-0.061,-1.678,1.404,73.333,193318.000,1.000
-0.492,-0.227,-4.431,-2.088,-3.858,-18.048,-3.483,3.469,-0.002,0.971,-0.132,0.214,-1.831,1.465,73.333,193319.000,1.000
-0.430,1.297,-3.499,-1.225,-2.978,-15.280,-1.284,5.478,-0.002,0.971,-0.131,0.427,-1.831,1.373,73.333,193320.000,1.000
-1.377,1.513,-4.135,-1.441,-3.164,-13.925,-1.531,5.592,-0.001,0.975,-0.138,0.580,-1.770,1.343,73.333,193321.000,1.000
-2.913,0.630,-5.725,-2.316,-3.928,-14.041,-2.986,4.847,0.000,0.976,-0.133,0.641,-1.801,1.282,73.333,193322.000,1.000
-4.695,-0.856,-7.495,-3.411,-4.730,-15.271,-4.030,4.212,-0.001,0.977,-0.131,0.580,-1.709,1.434,73.333,193323.000,1.000
-6.480,-2.552,-8.915,-4.455,-5.269,-17.018,-3.672,4.006,-0.001,0.976,-0.134,0.641,-1.678,1.404,73.333,193324.000,1.000
-7.987,-4.302,-9.795,-5.326,-5.543,-18.702,-1.987,3.814,0.003,0.977,-0.134,0.732,-1.740,1.434,73.333,193325.000,1.000
-9.122,-6.227,-10.393,-6.241,-6.101,-20.239,-0.560,2.296,0.005,0.976,-0.135,0.763,-1.556,1.465,73.333,193326.000,1.000
-9.878,-8.295,-10.962,-7.411,-7.504,-21.799,-1.700,-1.664,0.004,0.978,-0.133,0.824,-1.526,1.556,73.333,193327.000,1.000
-10.315,-10.063,-11.555,-8.806,-9.841,-23.370,-6.405,-7.648,0.002,0.981,-0.134,0.885,-1.434,1.678,73.333,193328.000,1.000
-10.478,-10.989,-12.065,-10.074,-12.590,-24.763,-13.594,-13.728,0.002,0.983,-0.135,0.977,-1.282,1.526,73.333,193329.000,1.000
-10.271,-10.703,-12.151,-10.539,-14.738,-25.746,-20.688,-17.426,0.001,0.985,-0.129,0.946,-1.282,1.526,73.333,193330.000,1.000
-9.576,-9.144,-11.331,-9.583,-15.247,-26.066,-24.694,-17.005,0.000,0.986,-0.128,0.854,-1.221,1.495,73.333,193331.000,1.000
-8.466,-6.679,-9.348,-7.133,-13.645,-25.483,-23.809,-12.439,0.000,0.985,-0.128,0.824,-1.160,1.495,73.333,193332.000,1.000
-7.547,-4.191,-6.756,-4.087,-10.684,-24.150,-18.733,-5.720,-0.003,0.983,-0.128,0.702,-1.190,1.495,73.333,193333.000,1.000
-7.521,-2.593,-4.562,-1.805,-7.913,-22.611,-12.518,0.094,-0.001,0.981,-0.129,0.519,-1.190,1.465,73.333,193334.000,1.000
-8.342,-2.006,-3.227,-1.037,-6.481,-21.252,-8.362,2.727,0.000,0.980,-0.131,0.549,-1.160,1.556,73.333,193335.000,1.000
-9.213,-1.801,-2.452,-1.582,-6.561,-20.101,-7.370,1.948,0.002,0.981,-0.132,0.610,-1.099,1.465,73.333,193336.000,1.000
-9.268,-1.412,-1.740,-2.739,-7.533,-19.048,-8.420,-0.641,0.003,0.982,-0.132,0.549,-1.068,1.434,73.333,193337.000,1.000
-8.358,-0.817,-0.997,-3.996,-8.617,-18.028,-9.307,-3.017,0.004,0.986,-0.133,0.488,-1.068,1.465,73.333,193338.000,1.000
-6.920,-0.175,-0.275,-5.037,-9.111,-16.847,-8.357,-3.890,0.003,0.985,-0.133,0.336,-0.977,1.404,73.333,193339.000,1.000
-5.603,0.466,0.372,-5.698,-8.732,-15.327,-5.834,-3.223,0.004,0.985,-0.132,0.244,-0.885,1.404,73.333,193340.000,1.000
-5.200,0.892,0.561,-6.212,-8.024,-13.751,-3.826,-2.143,0.005,0.982,-0.134,0.153,-0.916,1.465,73.333,193341.000,1.000
-6.237,0.671,-0.223,-6.966,-7.823,-12.711,-4.266,-1.902,0.004,0.982,-0.134,0.153,-0.824,1.556,73.333,193342.000,1.000
-8.759,-0.591,-2.256,-8.215,-8.656,-12.770,-7.109,-2.896,0.005,0.980,-0.132,0.214,-0.763,1.556,73.333,193343.000,1.000
-12.195,-2.895,-5.180,-9.772,-10.281,-14.078,-10.505,-4.237,0.004,0.980,-0.129,0.244,-0.793,1.617,73.333,193344.000,1.000
-15.463,-5.642,-7.968,-10.959,-11.713,-16.048,-12.066,-4.308,0.001,0.982,-0.131,0.244,-0.732,1.495,73.333,193345.000,1.000
-17.615,-8.059,-9.668,-11.212,-12.062,-17.712,-10.615,-2.398,-0.002,0.985,-0.130,0.153,-0.641,1.343,73.333,193346.000,1.000
-18.326,-9.763,-10.040,-10.583,-11.241,-18.407,-7.301,0.280,-0.006,0.982,-0.129,0.000,-0.671,1.099,73.333,193347.000,1.000
-17.985,-10.796,-9.605,-9.730,-10.043,-18.183,-4.627,1.397,-0.007,0.981,-0.130,-0.031,-0.824,1.038,73.333,193348.000,1.000
-17.166,-11.272,-8.969,-9.188,-9.303,-17.543,-4.568,-0.418,-0.006,0.979,-0.133,-0.031,-0.916,0.763,73.333,193349.000,1.000
-16.238,-11.304,-8.457,-9.037,-9.359,-17.045,-7.384,-4.548,-0.004,0.979,-0.132,-0.061,-1.099,0.671,73.333,193350.000,1.000
-15.433,-11.230,-8.297,-9.283,-10.326,-17.228,-11.784,-9.326,-0.003,0.979,-0.130,-0.122,-1.312,0.671,73.333,193351.000,1.000
-14.687,-11.418,-8.510,-9.868,-12.109,-18.354,-15.846,-13.191,0.000,0.979,-0.127,-0.122,-1.190,0.519,73.333,193352.000,1.000
-13.796,-11.973,-8.968,-10.667,-14.464,-20.277,-18.120,-15.425,-0.001,0.979,-0.128,0.000,-1.312,0.488,73.333,193353.000,1.000
-12.676,-12.797,-9.593,-11.561,-17.080,-22.690,-18.817,-16.358,0.002,0.978,-0.128,-0.031,-1.251,0.366,73.333,193354.000,1.000
-11.454,-13.698,-10.390,-12.460,-19.531,-25.243,-19.133,-16.738,0.002,0.981,-0.129,0.000,-1.251,0.427,73.333,193355.000,1.000
-10.334,-14.355,-11.260,-13.216,-21.229,-27.424,-19.473,-16.821,0.002,0.980,-0.131,0.061,-1.251,0.366,73.333,193356.000,1.000
-9.259,-14.395,-11.778,-13.514,-21.580,-28.710,-19.502,-16.322,0.001,0.980,-0.130,0.092,-1.190,0.458,73.333,193357.000,1.000
-8.146,-13.741,-11.620,-13.241,-20.666,-29.035,-19.348,-15.261,0.001,0.979,-0.129,0.061,-1.190,0.458,73.333,193358.000,1.000
-7.101,-12.703,-10.864,-12.578,-19.212,-28.711,-19.738,-14.135,0.000,0.980,-0.129,0.122,-1.251,0.580,73.333,193359.000,1.000
-6.292,-11.660,-9.893,-11.794,-17.954,-28.105,-20.926,-13.338,0.000,0.981,-0.132,0.122,-1.251,0.732,73.333,193360.000,1.000
-5.739,-10.841,-9.160,-11.143,-17.267,-27.582,-22.294,-12.849,0.003,0.979,-0.130,0.122,-1.221,0.702,73.333,193361.000,1.000
-5.054,-10.180,-8.716,-10.580,-16.904,-27.252,-22.961,-12.168,0.002,0.977,-0.129,0.153,-1.160,0.763,73.333,193362.000,1.000
-3.837,-9.419,-8.224,-9.836,-16.302,-26.905,-22.228,-10.693,0.003,0.978,-0.131,0.153,-1.160,0.824,73.333,193363.000,1.000
-2.076,-8.434,-7.279,-8.660,-15.036,-26.268,-20.185,-8.374,0.001,0.978,-0.131,0.366,-1.129,1.038,73.333,193364.000,1.000
-0.191,-7.348,-5.759,-7.081,-13.107,-25.187,-17.565,-5.841,-0.001,0.977,-0.131,0.397,-1.068,0.977,73.333,193365.000,1.000
1.244,-6.325,-3.911,-5.376,-10.752,-23.502,-14.519,-3.586,-0.003,0.977,-0.130,0.458,-1.099,1.038,73.333,193366.000,1.000
2.114,-5.197,-1.903,-3.590,-7.954,-20.925,-10.539,-1.287,-0.002,0.978,-0.131,0.580,-1.068,1.160,73.333,193367.000,1.000
2.708,-3.660,0.167,-1.627,-4.865,-17.534,-5.972,1.347,-0.001,0.976,-0.131,0.641,-1.160,1.160,73.333,193368.000,1.000
3.404,-1.699,2.150,0.398,-2.113,-14.069,-2.485,3.899,0.001,0.978,-0.129,0.702,-1.190,1.160,73.333,193369.000,1.000
4.505,0.514,3.988,2.193,-0.286,-11.317,-1.031,5.965,0.001,0.976,-0.129,0.732,-1.190,1.282,73.333,193370.000,1.000
6.048,2.808,5.698,3.511,0.442,-9.593,-0.779,7.606,0.000,0.977,-0.130,0.824,-1.160,1.129,73.333,193371.000,1.000
7.704,4.911,7.206,4.284,0.249,-8.897,-0.536,8.865,0.000,0.976,-0.131,0.885,-1.190,1.160,73.333,193372.000,1.000
8.665,6.333,8.094,4.376,-0.706,-9.171,0.210,9.343,0.002,0.976,-0.133,0.946,-1.221,1.190,73.333,193373.000,1.000
8.136,6.609,7.867,3.586,-2.268,-10.118,1.063,8.451,0.001,0.976,-0.133,0.946,-1.190,1.190,73.333,193374.000,1.000
5.849,5.588,6.322,1.815,-4.340,-11.294,0.740,5.756,0.003,0.978,-0.134,0.977,-1.190,1.221,73.333,193375.000,1.000
2.124,3.518,3.677,-0.761,-6.920,-12.528,-2.018,1.506,0.003,0.975,-0.135,1.038,-1.099,1.190,73.333,193376.000,1.000
-2.031,1.191,0.757,-3.345,-9.567,-13.717,-6.950,-2.740,0.002,0.978,-0.133,1.068,-1.068,1.190,73.333,193377.000,1.000
-5.362,-0.372,-1.444,-4.925,-11.487,-14.597,-11.996,-5.044,0.002,0.977,-0.135,1.190,-1.068,1.221,73.333,193378.000,1.000
-7.097,-0.648,-2.386,-5.045,-12.141,-15.018,-15.102,-4.813,0.002,0.978,-0.136,1.251,-1.038,1.190,73.333,193379.000,1.000
-7.429,0.031,-2.241,-4.108,-11.644,-15.186,-15.669,-3.084,0.002,0.977,-0.138,1.312,-0.977,1.160,73.333,193380.000,1.000
-7.316,0.797,-1.693,-2.969,-10.583,-15.431,-14.189,-1.251,0.004,0.978,-0.136,1.404,-0.885,1.129,73.333,193381.000,1.000
-7.560,0.948,-1.336,-2.222,-9.433,-15.768,-11.480,0.062,0.004,0.979,-0.137,1.434,-0.854,1.007,73.333,193382.000,1.000
-8.415,0.331,-1.515,-2.158,-8.543,-16.014,-8.400,0.890,0.004,0.979,-0.138,1.312,-0.824,1.129,73.333,193383.000,1.000
-9.558,-0.633,-2.207,-2.714,-8.026,-15.974,-5.774,1.606,0.003,0.979,-0.133,1.312,-0.763,1.007,73.333,193384.000,1.000
-10.279,-1.104,-2.922,-3.369,-7.572,-15.400,-3.874,2.755,0.002,0.980,-0.131,1.404,-0.671,1.068,73.333,193385.000,1.000
-9.954,-0.387,-3.074,-3.524,-6.849,-14.193,-2.662,4.395,0.003,0.982,-0.134,1.373,-0.671,0.977,73.333,193386.000,1.000
-8.371,1.559,-2.384,-2.949,-5.900,-12.596,-2.601,5.746,0.002,0.981,-0.132,1.343,-0.580,0.977,73.333,193387.000,1.000
-5.985,4.076,-1.113,-1.958,-5.164,-11.105,-3.948,5.942,0.002,0.980,-0.133,1.221,-0.641,0.824,73.333,193388.000,1.000
-3.594,6.265,0.212,-1.000,-4.922,-10.127,-5.877,5.097,0.001,0.982,-0.133,1.129,-0.702,0.793,73.333,193389.000,1.000
-1.926,7.436,1.042,-0.398,-5.104,-9.827,-7.144,4.076,0.000,0.982,-0.131,1.038,-0.732,0.702,73.333,193390.000,1.000
-1.519,7.238,0.802,-0.463,-5.639,-10.258,-7.342,3.518,0.000,0.983,-0.131,1.038,-0.702,0.671,73.333,193391.000,1.000
-2.442,5.692,-0.721,-1.294,-6.458,-11.335,-7.028,3.609,0.000,0.983,-0.133,0.916,-0.763,0.671,73.333,193392.000,1.000
-4.365,3.061,-3.253,-2.752,-7.565,-12.901,-6.670,4.224,-0.001,0.986,-0.132,0.763,-0.732,0.549,73.333,193393.000,1.000
-6.636,-0.188,-6.068,-4.418,-8.858,-14.705,-6.067,5.223,-0.002,0.985,-0.135,0.641,-0.671,0.488,73.333,193394.000,1.000
-8.397,-3.270,-8.200,-5.650,-9.887,-16.261,-4.475,6.735,-0.001,0.984,-0.135,0.519,-0.732,0.580,73.333,193395.000,1.000
-8.951,-5.269,-8.901,-5.894,-10.051,-16.872,-1.308,8.926,-0.001,0.983,-0.136,0.366,-0.702,0.580,73.333,193396.000,1.000
-7.941,-5.539,-7.896,-4.939,-8.955,-15.946,2.884,11.489,-0.003,0.982,-0.136,0.183,-0.793,0.519,73.333,193397.000,1.000
-5.581,-4.123,-5.617,-3.226,-6.982,-13.721,6.531,13.362,-0.003,0.985,-0.136,0.000,-0.763,0.488,73.333,193398.000,1.000
-2.506,-1.759,-2.940,-1.565,-5.079,-11.367,8.189,13.539,-0.003,0.982,-0.133,-0.061,-0.824,0.488,73.333,193399.000,1.000
0.543,0.562,-0.714,-0.615,-4.155,-10.276,7.271,11.968,-0.003,0.980,-0.134,-0.244,-0.885,0.580,73.333,193400.000,1.000
2.954,1.974,0.468,-0.697,-4.858,-11.408,3.509,9.184,-0.002,0.979,-0.135,-0.305,-0.916,0.549,73.333,193401.000,1.000
4.734,2.181,0.678,-1.545,-7.126,-14.677,-3.135,5.648,-0.002,0.981,-0.133,-0.488,-0.916,0.580,73.333,193402.000,1.000
6.572,1.768,0.785,-2.228,-9.910,-18.689,-11.188,1.928,-0.001,0.979,-0.132,-0.519,-1.068,0.580,73.333,193403.000,1.000
9.486,1.972,2.150,-1.379,-11.375,-21.303,-17.650,-0.699,-0.004,0.977,-0.131,-0.488,-1.099,0.610,73.333,193404.000,1.000
14.133,3.891,5.788,1.940,-10.024,-20.929,-19.955,-0.900,-0.003,0.978,-0.130,-0.641,-1.099,0.732,73.333,193405.000,1.000
20.262,7.687,11.536,7.369,-5.885,-17.543,-17.723,1.319,-0.003,0.979,-0.133,-0.671,-1.190,0.732,73.333,193406.000,1.000
26.997,12.550,18.209,13.547,-0.288,-12.421,-12.623,4.724,-0.004,0.979,-0.133,-0.763,-1.190,0.824,73.333,193407.000,1.000
33.338,17.303,24.276,18.950,5.057,-7.208,-6.860,8.011,-0.005,0.979,-0.133,-0.854,-1.312,0.793,73.333,193408.000,1.000
38.774,21.183,28.737,22.730,9.071,-3.031,-2.103,10.683,-0.003,0.979,-0.130,-0.793,-1.282,0.793,73.333,193409.000,1.000
43.322,23.976,31.346,24.811,11.465,-0.273,0.780,12.820,-0.003,0.979,-0.133,-0.824,-1.343,0.854,73.333,193410.000,1.000
46.923,25.476,32.121,25.322,12.114,0.884,1.467,14.295,-0.003,0.979,-0.135,-0.916,-1.434,0.916,73.333,193411.000,1.000
49.482,25.494,31.367,24.572,11.124,0.346,0.196,14.919,-0.002,0.979,-0.133,-0.916,-1.404,0.946,73.333,193412.000,1.000
51.216,24.428,29.900,23.275,9.187,-1.397,-1.712,15.029,-0.002,0.979,-0.132,-0.854,-1.404,0.916,73.333,193413.000,1.000
52.826,23.421,28.989,22.567,7.607,-3.060,-2.435,15.451,-0.003,0.980,-0.132,-0.854,-1.373,0.793,73.333,193414.000,1.000
55.031,23.669,29.694,23.381,7.535,-3.276,-0.871,16.817,-0.003,0.980,-0.131,-0.854,-1.434,0.824,73.333,193415.000,1.000
57.810,25.410,31.958,25.575,8.995,-1.796,2.711,18.962,-0.002,0.979,-0.132,-0.793,-1.556,0.977,73.333,193416.000,1.000
60.309,27.645,34.481,27.901,10.871,0.202,6.594,20.953,-0.003,0.978,-0.134,-0.824,-1.495,1.007,73.333,193417.000,1.000
61.221,28.804,35.341,28.665,11.577,0.980,8.488,21.520,-0.001,0.978,-0.133,-0.793,-1.495,0.977,73.333,193418.000,1.000
59.699,27.772,33.268,26.869,10.178,-0.418,7.067,19.960,0.000,0.979,-0.135,-0.763,-1.434,1.038,73.333,193419.000,1.000
56.037,24.570,28.554,22.944,7.014,-3.555,3.161,16.708,0.000,0.978,-0.129,-0.702,-1.404,1.099,73.333,193420.000,1.000
51.592,20.383,22.949,18.548,3.448,-6.963,-0.776,13.144,-0.001,0.978,-0.132,-0.763,-1.404,1.007,73.333,193421.000,1.000
48.151,16.966,18.777,15.715,1.169,-9.089,-2.707,10.951,0.001,0.978,-0.135,-0.732,-1.373,0.946,73.333,193422.000,1.000
46.659,15.441,17.305,15.377,0.863,-9.642,-2.453,10.870,0.000,0.976,-0.132,-0.610,-1.373,1.007,73.333,193423.000,1.000
46.781,15.650,18.075,16.835,1.840,-9.760,-1.575,12.102,0.000,0.978,-0.131,-0.549,-1.282,1.007,73.333,193424.000,1.000
47.711,16.857,19.838,18.767,3.125,-10.461,-1.808,13.396,0.000,0.975,-0.131,-0.549,-1.343,0.977,73.333,193425.000,1.000
49.041,18.744,21.796,20.492,4.603,-11.262,-3.335,14.616,0.000,0.977,-0.132,-0.488,-1.343,1.038,73.333,193426.000,1.000
50.827,21.450,23.932,22.266,7.013,-10.573,-4.723,16.812,0.000,0.979,-0.134,-0.397,-1.221,0.946,73.333,193427.000,1.000
52.707,24.678,26.098,24.267,10.557,-7.515,-4.573,20.483,-0.002,0.980,-0.132,-0.427,-1.282,0.916,73.333,193428.000,1.000
53.726,27.320,27.588,26.021,14.232,-2.985,-3.162,24.720,-0.004,0.980,-0.131,-0.336,-1.282,0.916,73.333,193429.000,1.000
53.073,28.171,27.694,26.813,16.504,0.906,-2.162,27.841,-0.004,0.979,-0.133,-0.427,-1.312,1.007,73.333,193430.000,1.000
50.682,26.830,26.282,26.239,16.325,2.240,-3.125,28.233,-0.005,0.978,-0.135,-0.244,-1.343,1.068,73.333,193431.000,1.000
47.399,24.128,24.052,24.608,13.948,0.642,-6.194,25.385,-0.003,0.977,-0.132,-0.336,-1.282,1.099,73.333,193432.000,1.000
44.368,21.630,22.072,22.732,10.623,-2.623,-9.800,20.468,-0.003,0.978,-0.134,-0.275,-1.221,1.129,73.333,193433.000,1.000
42.415,20.571,21.193,21.424,7.758,-5.747,-11.956,15.688,-0.002,0.975,-0.134,-0.183,-1.312,1.068,73.333,193434.000,1.000
41.726,21.172,21.626,20.980,6.150,-7.559,-11.653,12.873,-0.003,0.977,-0.131,-0.092,-1.343,1.251,73.333,193435.000,1.000
41.839,22.674,22.821,21.005,5.639,-8.034,-9.296,12.498,-0.002,0.976,-0.130,-0.031,-1.373,1.221,73.333,193436.000,1.000
42.061,23.875,23.918,20.865,5.452,-7.956,-6.703,13.715,-0.001,0.979,-0.133,0.061,-1.404,1.251,73.333,193437.000,1.000
41.697,23.695,24.148,20.045,4.622,-8.367,-6.340,14.905,-0.002,0.980,-0.133,0.214,-1.312,1.221,73.333,193438.000,1.000
40.511,21.797,23.356,18.609,2.761,-9.849,-9.688,14.833,0.000,0.980,-0.130,0.153,-1.404,1.373,73.333,193439.000,1.000
38.965,18.881,22.141,17.268,0.418,-12.163,-15.913,13.472,0.000,0.981,-0.130,0.183,-1.282,1.373,73.333,193440.000,1.000
37.673,16.085,21.232,16.725,-1.580,-14.706,-22.443,11.582,0.001,0.980,-0.132,0.183,-1.282,1.434,73.333,193441.000,1.000
36.910,14.290,21.093,17.223,-2.547,-16.914,-26.464,10.184,-0.002,0.981,-0.129,0.153,-1.221,1.587,73.333,193442.000,1.000
36.385,13.898,21.766,18.416,-2.140,-18.384,-25.873,10.340,-0.003,0.981,-0.130,0.122,-1.282,1.587,73.333,193443.000,1.000
35.527,14.775,22.885,19.603,-0.535,-18.929,-20.563,12.609,-0.002,0.978,-0.130,0.122,-1.221,1.648,73.333,193444.000,1.000
33.877,16.245,23.774,20.080,1.467,-18.662,-13.171,16.269,-0.003,0.980,-0.131,0.214,-1.251,1.617,73.333,193445.000,1.000
31.313,17.414,23.772,19.511,2.857,-17.858,-7.464,19.669,-0.002,0.980,-0.134,0.214,-1.190,1.434,73.333,193446.000,1.000
28.230,17.808,22.826,18.202,3.339,-16.559,-5.495,21.731,0.000,0.980,-0.132,0.305,-1.251,1.434,73.333,193447.000,1.000
25.236,17.532,21.377,16.679,3.256,-14.649,-6.697,22.313,0.001,0.981,-0.131,0.244,-1.129,1.404,73.333,193448.000,1.000
22.886,16.963,20.001,15.333,3.060,-12.150,-9.468,21.714,0.002,0.980,-0.134,0.305,-1.160,1.404,73.333,193449.000,1.000
21.421,16.452,19.101,14.298,2.981,-9.293,-12.218,20.598,0.003,0.978,-0.132,0.275,-1.160,1.434,73.333,193450.000,1.000
20.481,16.067,18.585,13.337,2.848,-6.560,-13.630,19.809,0.004,0.977,-0.132,0.244,-1.099,1.495,73.333,193451.000,1.000
19.474,15.579,18.034,12.144,2.334,-4.582,-13.375,19.874,0.004,0.973,-0.133,0.336,-0.885,1.526,73.333,193452.000,1.000
18.015,14.661,17.021,10.650,1.181,-3.904,-12.216,20.706,0.002,0.972,-0.137,0.458,-0.916,1.495,73.333,193453.000,1.000
16.193,13.177,15.468,9.129,-0.466,-4.584,-11.087,21.884,0.002,0.973,-0.135,0.519,-0.824,1.556,73.333,193454.000,1.000
14.287,11.229,13.549,7.785,-2.248,-6.220,-10.197,22.889,0.000,0.974,-0.135,0.580,-0.671,1.587,73.333,193455.000,1.000
12.298,8.901,11.249,6.362,-4.119,-8.493,-9.269,23.194,-0.001,0.977,-0.137,0.702,-0.671,1.526,73.333,193456.000,1.000
10.254,6.373,8.632,4.639,-6.137,-11.162,-8.252,22.890,0.000,0.978,-0.136,0.824,-0.732,1.465,73.333,193457.000,1.000
8.454,4.170,6.118,2.801,-8.165,-13.766,-7.406,22.830,0.000,0.981,-0.135,0.793,-0.610,1.434,73.333,193458.000,1.000
7.398,3.076,4.399,1.294,-9.810,-15.649,-7.236,23.557,-0.001,0.984,-0.135,0.854,-0.671,1.495,73.333,193459.000,1.000
7.385,3.685,3.957,0.384,-10.685,-16.417,-8.012,24.272,0.000,0.983,-0.132,0.854,-0.702,1.526,73.333,193460.000,1.000
8.140,5.960,4.701,0.005,-10.602,-16.281,-9.134,23.692,0.000,0.981,-0.133,0.732,-0.641,1.556,73.333,193461.000,1.000
9.067,9.249,6.258,0.117,-9.355,-15.800,-9.387,21.866,-0.003,0.981,-0.134,0.763,-0.702,1.556,73.333,193462.000,1.000
9.456,12.522,8.056,0.605,-7.098,-15.636,-8.102,19.987,-0.004,0.981,-0.135,0.732,-0.793,1.617,73.333,193463.000,1.000
8.794,14.772,9.400,1.130,-4.595,-16.375,-6.198,18.862,-0.006,0.981,-0.134,0.610,-0.793,1.526,73.333,193464.000,1.000
6.922,15.435,9.698,1.317,-2.862,-18.215,-5.571,18.386,-0.008,0.983,-0.133,0.488,-0.763,1.404,73.333,193465.000,1.000
3.824,14.392,8.541,0.877,-2.731,-20.760,-7.694,17.915,-0.008,0.984,-0.132,0.549,-0.854,1.251,73.333,193466.000,1.000
-0.260,11.962,5.963,-0.268,-4.376,-22.998,-12.547,16.823,-0.007,0.984,-0.132,0.366,-0.977,1.160,73.333,193467.000,1.000
-4.739,8.975,2.514,-2.017,-7.187,-23.655,-17.996,15.019,-0.007,0.983,-0.134,0.336,-1.038,1.160,73.333,193468.000,1.000
-8.655,6.504,-0.804,-3.958,-9.809,-21.696,-20.905,13.405,-0.006,0.983,-0.134,0.336,-1.221,1.068,73.333,193469.000,1.000
-11.169,5.248,-3.058,-5.458,-10.814,-16.928,-19.459,13.384,-0.005,0.983,-0.136,0.244,-1.343,0.916,73.333,193470.000,1.000
-12.272,5.028,-4.144,-6.180,-9.775,-10.487,-14.536,15.485,-0.004,0.983,-0.136,0.153,-1.434,0.916,73.333,193471.000,1.000
-12.775,4.950,-4.776,-6.352,-7.417,-4.343,-8.725,18.827,-0.004,0.983,-0.131,0.061,-1.465,0.854,73.333,193472.000,1.000
-13.871,4.003,-5.980,-6.663,-5.036,-0.209,-3.954,21.966,-0.001,0.984,-0.131,-0.092,-1.526,0.946,73.333,193473.000,1.000
-16.285,1.755,-8.267,-7.550,-3.542,1.332,-0.555,24.162,-0.002,0.985,-0.130,-0.183,-1.465,0.916,73.333,193474.000,1.000
-19.820,-1.370,-11.251,-8.746,-3.088,0.804,2.031,25.625,-0.001,0.986,-0.132,-0.183,-1.556,0.946,73.333,193475.000,1.000
-23.747,-4.535,-14.144,-9.763,-3.494,-0.949,4.203,26.629,-0.001,0.983,-0.128,-0.275,-1.648,0.977,73.333,193476.000,1.000
-27.114,-6.915,-16.196,-10.313,-4.414,-3.311,5.700,26.973,-0.002,0.983,-0.128,-0.397,-1.587,1.007,73.333,193477.000,1.000
-29.079,-7.961,-17.011,-10.326,-5.369,-5.952,6.347,26.435,0.000,0.982,-0.129,-0.458,-1.465,1.129,73.333,193478.000,1.000
-29.222,-7.669,-16.677,-9.807,-5.818,-8.608,6.542,25.356,0.001,0.981,-0.129,-0.549,-1.556,1.221,73.333,193479.000,1.000
-27.923,-6.677,-15.825,-9.102,-5.661,-11.054,6.312,23.987,0.000,0.982,-0.126,-0.671,-1.526,1.221,73.333,193480.000,1.000
-26.256,-5.855,-15.324,-8.955,-5.386,-13.171,4.740,21.780,0.000,0.984,-0.126,-0.702,-1.465,1.282,73.333,193481.000,1.000
-25.080,-5.526,-15.400,-9.682,-5.185,-14.643,1.317,18.397,0.001,0.982,-0.125,-0.824,-1.404,1.465,73.333,193482.000,1.000
-24.703,-5.393,-15.624,-10.902,-4.732,-15.029,-2.821,14.593,0.000,0.981,-0.125,-0.885,-1.373,1.282,73.333,193483.000,1.000
-25.126,-5.101,-15.575,-12.021,-3.698,-14.202,-5.774,11.777,0.000,0.981,-0.127,-1.038,-1.343,1.373,73.333,193484.000,1.000
-26.235,-4.574,-15.201,-12.694,-2.087,-12.424,-6.116,11.321,0.002,0.979,-0.128,-1.099,-1.282,1.251,73.333,193485.000,1.000
-27.732,-3.900,-14.628,-12.850,-0.133,-9.985,-3.392,14.067,0.002,0.981,-0.125,-1.129,-1.251,1.282,73.333,193486.000,1.000
-28.923,-3.053,-13.791,-12.403,2.035,-6.831,1.615,19.693,0.001,0.979,-0.126,-1.068,-1.282,1.312,73.333,193487.000,1.000
-29.190,-1.988,-12.712,-11.422,4.128,-2.913,7.239,26.211,0.000,0.978,-0.129,-1.068,-1.160,1.251,73.333,193488.000,1.000
-28.425,-0.811,-11.586,-10.128,5.794,1.454,12.093,31.203,0.000,0.977,-0.126,-1.068,-1.129,1.129,73.333,193489.000,1.000
-27.001,0.276,-10.567,-8.698,6.988,5.717,16.027,33.762,0.001,0.974,-0.128,-0.946,-1.129,1.129,73.333,193490.000,1.000
-25.498,1.024,-9.822,-7.388,7.724,9.118,19.120,34.560,0.001,0.974,-0.128,-0.946,-1.129,1.129,73.333,193491.000,1.000
-24.295,1.208,-9.529,-6.591,7.757,10.775,20.144,34.404,0.001,0.975,-0.128,-0.946,-0.977,1.038,73.333,193492.000,1.000
-23.659,0.617,-9.957,-6.873,6.455,10.084,17.310,33.101,0.001,0.972,-0.127,-0.793,-1.038,0.916,73.333,193493.000,1.000
-23.739,-0.930,-11.257,-8.604,3.352,7.170,9.922,29.887,-0.001,0.972,-0.128,-0.702,-1.007,0.854,73.333,193494.000,1.000
-24.428,-3.367,-13.238,-11.603,-1.292,2.807,-0.737,24.616,0.001,0.971,-0.129,-0.488,-0.885,0.854,73.333,193495.000,1.000
-25.412,-6.191,-15.440,-15.213,-6.464,-1.983,-11.607,18.308,0.002,0.971,-0.128,-0.397,-0.854,0.885,73.333,193496.000,1.000
-26.102,-8.442,-17.110,-18.377,-10.636,-6.099,-19.164,12.917,0.002,0.972,-0.129,-0.183,-0.763,0.885,73.333,193497.000,1.000
-25.856,-9.161,-17.519,-20.001,-12.602,-8.728,-21.166,10.218,0.002,0.972,-0.130,-0.092,-0.702,0.824,73.333,193498.000,1.000
-24.227,-8.006,-16.312,-19.405,-12.082,-9.765,-17.892,10.736,0.002,0.974,-0.131,0.031,-0.671,1.038,73.333,193499.000,1.000
-21.360,-5.528,-13.842,-16.863,-9.856,-9.838,-11.903,13.432,0.002,0.976,-0.127,0.214,-0.732,1.099,73.333,193500.000,1.000
-18.133,-2.840,-11.139,-13.643,-7.376,-9.844,-6.608,16.302,0.004,0.976,-0.130,0.275,-0.671,0.885,73.333,193501.000,1.000
-15.502,-0.847,-9.113,-11.024,-5.658,-10.140,-4.334,17.918,0.003,0.978,-0.129,0.336,-0.641,1.038,73.333,193502.000,1.000
-14.204,0.036,-8.224,-9.718,-4.955,-10.558,-5.220,18.146,0.003,0.978,-0.129,0.397,-0.580,1.160,73.333,193503.000,1.000
-14.722,-0.315,-8.584,-9.962,-5.184,-11.073,-8.228,17.497,0.002,0.981,-0.132,0.458,-0.488,1.129,73.333,193504.000,1.000
-17.125,-1.777,-10.063,-11.691,-6.275,-11.981,-12.191,16.377,0.000,0.981,-0.130,0.488,-0.336,1.221,73.333,193505.000,1.000
-20.824,-3.935,-12.269,-14.472,-8.049,-13.352,-15.681,14.946,-0.002,0.984,-0.131,0.549,-0.488,1.251,73.333,193506.000,1.000
-24.455,-6.025,-14.318,-17.265,-9.822,-14.519,-17.163,13.409,-0.002,0.982,-0.129,0.488,-0.397,1.251,73.333,193507.000,1.000
-26.679,-7.209,-15.216,-18.889,-10.766,-14.576,-15.981,12.045,-0.003,0.980,-0.126,0.366,-0.397,1.251,73.333,193508.000,1.000
-27.001,-7.018,-14.428,-18.658,-10.358,-13.130,-13.005,11.187,-0.001,0.979,-0.129,0.336,-0.488,1.343,73.333,193509.000,1.000
-25.905,-5.563,-12.148,-16.613,-8.527,-10.422,-9.624,11.330,-0.001,0.980,-0.129,0.397,-0.427,1.221,73.333,193510.000,1.000
-24.543,-3.563,-9.301,-13.481,-5.806,-7.212,-6.605,12.911,0.001,0.983,-0.130,0.397,-0.397,1.312,73.333,193511.000,1.000
-24.068,-2.119,-7.085,-10.414,-3.173,-4.632,-4.414,15.755,0.002,0.985,-0.130,0.427,-0.458,1.434,73.333,193512.000,1.000
-25.179,-2.202,-6.497,-8.630,-1.664,-3.769,-3.458,18.862,0.002,0.990,-0.128,0.305,-0.366,1.373,73.333,193513.000,1.000
-27.630,-3.907,-7.679,-8.596,-1.569,-4.771,-3.634,21.264,0.002,0.990,-0.127,0.122,-0.366,1.404,73.333,193514.000,1.000
-30.299,-6.231,-9.777,-9.722,-2.304,-6.608,-4.248,22.637,0.005,0.990,-0.128,0.031,-0.305,1.495,73.333,193515.000,1.000
-32.124,-7.949,-11.691,-11.091,-3.179,-8.048,-4.576,23.041,0.006,0.987,-0.130,-0.092,-0.336,1.587,73.333,193516.000,1.000
-32.790,-8.581,-12.811,-12.118,-3.774,-8.454,-4.031,22.905,0.008,0.985,-0.133,-0.122,-0.275,1.648,73.333,193517.000,1.000
-32.841,-8.605,-13.400,-12.879,-4.167,-7.964,-2.322,22.782,0.007,0.983,-0.131,-0.183,-0.214,1.770,73.333,193518.000,1.000
-32.959,-8.824,-14.088,-13.783,-4.775,-7.248,-0.318,22.750,0.007,0.981,-0.129,-0.153,-0.122,1.770,73.333,193519.000,1.000
-33.275,-9.522,-15.025,-14.929,-5.736,-6.908,0.831,22.584,0.003,0.980,-0.130,-0.214,-0.153,1.740,73.333,193520.000,1.000
-33.413,-10.225,-15.681,-15.843,-6.497,-6.865,1.756,22.690,0.000,0.982,-0.127,-0.336,-0.092,1.678,73.333,193521.000,1.000
-32.760,-10.146,-15.290,-15.753,-6.183,-6.430,4.025,23.993,-0.002,0.984,-0.128,-0.397,-0.031,1.556,73.333,193522.000,1.000
-31.106,-9.028,-13.814,-14.539,-4.915,-5.425,6.996,26.039,-0.004,0.981,-0.130,-0.458,-0.092,1.404,73.333,193523.000,1.000
-28.915,-7.454,-12.117,-13.070,-3.976,-4.698,7.415,26.614,-0.004,0.979,-0.131,-0.519,-0.183,1.251,73.333,193524.000,1.000
-26.949,-6.239,-11.141,-12.475,-4.489,-5.200,3.142,24.075,-0.004,0.979,-0.133,-0.336,-0.305,1.038,73.333,193525.000,1.000
-25.720,-5.746,-11.184,-13.246,-6.419,-7.001,-4.291,19.046,-0.003,0.978,-0.129,-0.305,-0.336,0.885,73.333,193526.000,1.000
-25.123,-5.640,-11.672,-14.798,-8.540,-9.124,-11.091,13.919,-0.003,0.976,-0.131,-0.122,-0.519,0.732,73.333,193527.000,1.000
-24.677,-5.118,-11.638,-15.940,-9.324,-10.115,-13.723,11.343,-0.002,0.977,-0.129,-0.214,-0.580,0.763,73.333,193528.000,1.000
-23.766,-3.452,-10.312,-15.656,-7.800,-8.865,-10.802,12.910,0.000,0.978,-0.128,-0.214,-0.549,0.702,73.333,193529.000,1.000
-21.967,-0.583,-7.653,-13.829,-4.227,-5.501,-3.904,18.084,0.001,0.978,-0.127,-0.031,-0.519,0.641,73.333,193530.000,1.000
-19.480,2.709,-4.484,-11.340,-0.089,-1.547,3.273,24.192,0.000,0.977,-0.129,0.031,-0.671,0.549,73.333,193531.000,1.000
-16.889,5.434,-1.768,-9.183,3.076,1.325,7.321,28.252,-0.001,0.977,-0.130,0.153,-0.702,0.488,73.333,193532.000,1.000
-14.750,7.062,-0.008,-7.851,4.533,2.524,7.279,28.781,-0.004,0.977,-0.130,0.214,-0.763,0.580,73.333,193533.000,1.000
-13.222,7.649,0.908,-7.315,4.431,2.516,4.387,26.165,-0.002,0.977,-0.130,0.366,-0.793,0.488,73.333,193534.000,1.000
-12.133,7.566,1.392,-7.340,3.299,1.955,0.569,21.857,-0.004,0.976,-0.128,0.397,-0.824,0.610,73.333,193535.000,1.000
-11.392,7.092,1.680,-7.760,1.552,1.108,-2.744,17.383,-0.003,0.977,-0.128,0.549,-0.977,0.671,73.333,193536.000,1.000
-11.000,6.331,1.824,-8.408,-0.399,0.080,-4.941,14.054,-0.002,0.978,-0.131,0.610,-1.038,0.732,73.333,193537.000,1.000
-11.040,5.316,1.750,-9.162,-2.178,-1.043,-5.692,12.856,-0.001,0.979,-0.130,0.671,-1.068,0.793,73.333,193538.000,1.000
-11.402,4.156,1.534,-9.748,-3.409,-2.135,-4.698,14.212,-0.003,0.978,-0.127,0.793,-1.160,0.763,73.333,193539.000,1.000
-11.699,3.097,1.446,-9.714,-3.767,-2.883,-1.839,17.695,-0.003,0.980,-0.125,0.702,-1.190,0.824,73.333,193540.000,1.000
-11.597,2.298,1.531,-8.920,-3.335,-3.011,2.264,21.884,-0.004,0.980,-0.128,0.793,-1.221,0.793,73.333,193541.000,1.000
-11.026,1.671,1.497,-7.857,-2.715,-2.722,5.562,24.745,-0.005,0.979,-0.126,0.732,-1.343,0.946,73.333,193542.000,1.000
-10.328,0.996,0.918,-7.441,-2.718,-2.690,5.835,24.733,-0.004,0.979,-0.127,0.763,-1.434,0.977,73.333,193543.000,1.000
-9.804,0.385,-0.061,-7.936,-3.233,-3.062,3.365,22.444,-0.003,0.981,-0.128,0.824,-1.526,0.824,73.333,193544.000,1.000
-9.296,0.473,-0.488,-8.428,-2.954,-2.998,1.282,20.540,-0.002,0.981,-0.125,0.885,-1.556,0.885,73.333,193545.000,1.000
-8.503,1.794,0.536,-7.865,-0.887,-1.788,2.057,21.019,-0.003,0.981,-0.125,1.007,-1.617,0.977,73.333,193546.000,1.000
-7.333,4.264,3.126,-6.123,2.562,0.217,4.790,23.244,-0.004,0.981,-0.130,0.946,-1.648,1.038,73.333,193547.000,1.000
-6.169,7.195,6.428,-4.074,5.912,1.948,6.914,24.999,-0.002,0.980,-0.130,0.977,-1.770,1.099,73.333,193548.000,1.000
-5.659,9.594,9.096,-2.788,7.766,2.479,6.640,24.683,-0.001,0.979,-0.131,1.038,-1.740,1.007,73.333,193549.000,1.000
-6.256,10.637,10.005,-2.841,7.516,1.546,3.563,22.157,0.000,0.979,-0.130,1.038,-1.801,1.068,73.333,193550.000,1.000
-7.926,10.130,8.848,-4.036,5.517,-0.348,-1.161,18.669,0.001,0.979,-0.128,1.007,-1.862,0.977,73.333,193551.000,1.000
-10.198,8.554,6.314,-5.499,2.960,-2.268,-4.984,16.348,0.000,0.977,-0.130,1.038,-1.862,1.129,73.333,193552.000,1.000
-12.807,6.468,3.335,-6.598,0.884,-3.668,-5.613,16.448,-0.001,0.976,-0.132,1.129,-1.862,1.099,73.333,193553.000,1.000
-15.793,4.176,0.537,-7.413,-0.390,-4.589,-3.084,18.186,-0.001,0.977,-0.131,1.190,-1.740,1.129,73.333,193554.000,1.000
-19.127,1.928,-1.758,-8.344,-0.977,-5.106,0.478,19.767,0.001,0.979,-0.133,1.190,-1.678,1.038,73.333,193555.000,1.000
-22.600,-0.099,-3.485,-9.655,-1.132,-5.197,2.864,19.974,0.000,0.979,-0.132,1.282,-1.770,1.099,73.333,193556.000,1.000
-25.749,-1.925,-4.674,-11.123,-0.997,-4.946,3.272,18.887,0.001,0.980,-0.135,1.251,-1.709,1.099,73.333,193557.000,1.000
-28.171,-3.720,-5.528,-12.265,-0.700,-4.629,2.779,17.611,0.001,0.979,-0.133,1.312,-1.587,1.038,73.333,193558.000,1.000
-29.755,-5.571,-6.345,-12.691,-0.299,-4.409,3.325,17.565,0.001,0.979,-0.134,1.221,-1.617,1.038,73.333,193559.000,1.000
-30.739,-7.384,-7.396,-12.482,0.082,-4.226,5.746,19.252,0.002,0.979,-0.135,1.190,-1.587,0.977,73.333,193560.000,1.000
-31.627,-9.052,-8.952,-12.376,-0.105,-4.196,8.524,21.317,0.002,0.980,-0.132,1.190,-1.526,1.007,73.333,193561.000,1.000
-32.532,-10.355,-10.843,-13.031,-1.293,-4.552,9.212,21.743,0.003,0.982,-0.132,1.160,-1.495,0.977,73.333,193562.000,1.000
-32.911,-10.855,-12.294,-14.304,-3.198,-5.254,7.215,19.962,0.001,0.980,-0.130,1.160,-1.404,0.916,73.333,193563.000,1.000
-32.030,-10.251,-12.403,-15.430,-5.026,-5.937,3.763,17.044,0.001,0.981,-0.130,1.007,-1.343,0.885,73.333,193564.000,1.000
-29.793,-8.742,-10.934,-15.865,-6.214,-6.202,0.226,14.203,0.000,0.980,-0.131,1.099,-1.343,0.671,73.333,193565.000,1.000
-26.977,-6.797,-8.467,-15.597,-6.552,-5.748,-2.092,12.331,-0.001,0.983,-0.134,0.977,-1.312,0.793,73.333,193566.000,1.000
-24.457,-4.696,-5.710,-14.699,-5.764,-4.440,-2.057,12.470,-0.001,0.982,-0.130,0.824,-1.282,0.732,73.333,193567.000,1.000
-22.774,-2.659,-3.299,-13.392,-3.996,-2.787,0.137,14.939,-0.002,0.983,-0.132,0.732,-1.282,0.641,73.333,193568.000,1.000
-22.026,-1.061,-1.745,-12.134,-2.057,-1.811,2.740,18.403,0.000,0.983,-0.133,0.549,-1.221,0.610,73.333,193569.000,1.000
-21.861,-0.161,-1.196,-11.324,-0.807,-2.113,4.199,20.799,-0.001,0.982,-0.129,0.519,-1.373,0.519,73.333,193570.000,1.000
-21.713,0.036,-1.417,-11.067,-0.661,-3.455,4.045,20.855,-0.003,0.981,-0.132,0.458,-1.343,0.519,73.333,193571.000,1.000
-21.033,-0.300,-1.870,-11.112,-1.384,-5.046,2.419,18.832,-0.002,0.980,-0.130,0.336,-1.343,0.427,73.333,193572.000,1.000
-19.731,-0.905,-2.053,-11.177,-2.342,-6.020,0.324,16.208,-0.003,0.979,-0.129,0.305,-1.343,0.305,73.333,193573.000,1.000
-18.144,-1.452,-1.680,-11.071,-2.820,-5.842,-0.747,14.663,-0.002,0.977,-0.134,0.336,-1.251,0.336,73.333,193574.000,1.000
-16.753,-1.725,-0.840,-10.723,-2.560,-4.722,-0.289,14.862,-0.004,0.978,-0.131,0.305,-1.343,0.366,73.333,193575.000,1.000
-16.052,-1.871,-0.091,-10.285,-2.072,-3.557,0.853,16.039,-0.002,0.979,-0.135,0.275,-1.495,0.336,73.333,193576.000,1.000
-16.239,-2.251,-0.013,-9.998,-2.018,-3.111,1.522,16.867,-0.005,0.979,-0.132,0.336,-1.556,0.366,73.333,193577.000,1.000
-17.177,-3.070,-0.900,-10.159,-2.778,-3.536,1.058,16.236,-0.005,0.981,-0.132,0.275,-1.465,0.275,73.333,193578.000,1.000
-18.385,-4.109,-2.544,-10.893,-4.234,-4.470,-0.745,13.732,-0.004,0.981,-0.128,0.336,-1.587,0.153,73.333,193579.000,1.000
-19.278,-4.869,-4.350,-12.007,-5.845,-5.321,-3.322,9.985,-0.005,0.980,-0.129,0.244,-1.587,0.244,73.333,193580.000,1.000
-19.661,-5.113,-5.840,-13.206,-7.099,-5.683,-5.271,6.387,-0.005,0.981,-0.129,0.153,-1.648,0.366,73.333,193581.000,1.000
-19.771,-5.136,-6.891,-14.238,-7.745,-5.505,-5.306,4.247,-0.005,0.982,-0.131,0.153,-1.709,0.275,73.333,193582.000,1.000
-20.194,-5.574,-7.812,-15.106,-8.007,-5.036,-3.147,3.917,-0.006,0.980,-0.132,0.092,-1.709,0.397,73.333,193583.000,1.000
-21.397,-6.936,-9.015,-15.975,-8.324,-4.592,0.249,4.771,-0.005,0.980,-0.129,0.092,-1.831,0.427,73.333,193584.000,1.000
-23.356,-9.250,-10.638,-16.937,-9.024,-4.481,3.351,5.730,-0.007,0.980,-0.129,-0.031,-1.862,0.549,73.333,193585.000,1.000
-25.644,-12.072,-12.519,-17.974,-10.277,-5.087,4.732,5.775,-0.005,0.982,-0.130,0.061,-1.892,0.549,73.333,193586.000,1.000
-27.573,-14.631,-14.182,-18.867,-11.954,-6.627,3.415,4.510,-0.004,0.979,-0.130,-0.122,-1.801,0.580,73.333,193587.000,1.000
-28.692,-16.257,-15.159,-19.495,-13.843,-8.921,-0.448,2.201,-0.004,0.979,-0.130,-0.031,-1.831,0.641,73.333,193588.000,1.000
-28.967,-16.788,-15.188,-19.938,-15.702,-11.470,-5.412,-0.540,-0.003,0.977,-0.130,-0.061,-2.014,0.763,73.333,193589.000,1.000
-28.510,-16.473,-14.154,-20.248,-17.206,-13.751,-9.580,-2.976,-0.002,0.978,-0.131,-0.031,-2.014,0.763,73.333,193590.000,1.000
-27.414,-15.579,-12.114,-20.296,-18.025,-15.338,-11.662,-4.571,-0.002,0.978,-0.130,0.031,-2.075,0.885,73.333,193591.000,1.000
-25.730,-14.131,-9.281,-19.730,-17.765,-15.701,-11.187,-5.118,-0.005,0.979,-0.129,0.061,-1.923,1.038,73.333,193592.000,1.000
-23.826,-12.189,-6.223,-18.358,-16.313,-14.478,-8.303,-4.681,-0.003,0.979,-0.127,0.061,-1.953,0.946,73.333,193593.000,1.000
-22.342,-10.178,-3.754,-16.444,-14.112,-12.089,-4.422,-3.543,-0.004,0.978,-0.127,0.122,-1.953,1.007,73.333,193594.000,1.000
-21.869,-8.759,-2.574,-14.738,-12.104,-9.827,-1.989,-2.404,-0.002,0.977,-0.129,0.244,-1.892,1.129,73.333,193595.000,1.000
-22.719,-8.374,-2.918,-14.115,-11.237,-9.038,-2.608,-2.129,-0.002,0.978,-0.129,0.275,-1.892,1.129,73.333,193596.000,1.000
-24.521,-8.712,-4.128,-14.724,-11.548,-9.912,-5.864,-2.827,-0.001,0.978,-0.128,0.336,-1.862,1.190,73.333,193597.000,1.000
-26.367,-8.774,-5.030,-15.829,-12.130,-11.303,-9.817,-3.686,-0.001,0.978,-0.130,0.366,-1.740,1.221,73.333,193598.000,1.000
-27.258,-7.599,-4.677,-16.303,-11.718,-11.631,-12.194,-3.547,-0.001,0.980,-0.126,0.458,-1.770,1.221,73.333,193599.000,1.000
-26.675,-4.954,-2.879,-15.366,-9.479,-9.931,-11.262,-1.596,0.000,0.980,-0.129,0.580,-1.678,1.282,73.333,193600.000,1.000
-24.917,-1.511,-0.270,-13.136,-5.654,-6.425,-6.779,1.919,0.000,0.978,-0.129,0.427,-1.587,1.343,73.333,193601.000,1.000
-22.678,1.671,2.339,-10.341,-1.331,-2.337,-0.552,5.613,0.000,0.977,-0.130,0.427,-1.434,1.160,73.333,193602.000,1.000
-20.670,3.748,4.350,-7.851,2.077,0.701,4.649,7.796,-0.001,0.978,-0.129,0.488,-1.373,1.099,73.333,193603.000,1.000
-19.371,4.420,5.490,-6.284,3.588,1.639,6.766,7.708,-0.001,0.977,-0.129,0.610,-1.221,1.221,73.333,193604.000,1.000
-18.902,3.993,5.811,-5.818,3.192,0.790,5.719,6.127,-0.002,0.978,-0.128,0.641,-1.282,1.190,73.333,193605.000,1.000
-19.066,3.228,5.681,-6.080,1.905,-0.253,3.761,5.118,-0.003,0.980,-0.128,0.580,-1.251,1.129,73.333,193606.000,1.000
-19.448,2.936,5.658,-6.309,1.270,0.386,3.958,6.733,-0.002,0.983,-0.129,0.610,-1.099,1.129,73.333,193607.000,1.000
-20.001,3.205,5.694,-6.344,1.830,3.216,7.118,10.471,-0.004,0.982,-0.128,0.580,-0.977,1.099,73.333,193608.000,1.000
-21.127,3.187,5.024,-6.888,2.589,6.803,10.564,12.991,-0.004,0.983,-0.127,0.580,-0.977,1.129,73.333,193609.000,1.000
-23.133,1.932,3.041,-8.590,2.205,9.032,11.055,11.430,-0.003,0.982,-0.127,0.519,-1.007,1.129,73.333,193610.000,1.000
-25.796,-0.778,-0.054,-11.385,0.126,8.605,7.725,5.856,-0.002,0.980,-0.126,0.519,-1.007,1.068,73.333,193611.000,1.000
-28.212,-4.281,-3.272,-14.541,-3.197,5.545,1.811,-1.514,-0.002,0.981,-0.127,0.519,-0.854,1.160,73.333,193612.000,1.000
-29.427,-7.565,-5.546,-17.210,-6.939,0.716,-4.590,-8.230,-0.003,0.980,-0.129,0.549,-0.824,1.221,73.333,193613.000,1.000
-29.010,-9.815,-6.173,-18.636,-10.129,-4.538,-9.077,-12.333,-0.002,0.979,-0.127,0.549,-0.793,1.251,73.333,193614.000,1.000
-27.181,-10.661,-4.985,-18.345,-11.784,-8.692,-9.462,-12.626,-0.002,0.979,-0.128,0.549,-0.793,1.160,73.333,193615.000,1.000
-24.667,-10.319,-2.546,-16.626,-11.573,-10.889,-5.470,-9.585,-0.002,0.979,-0.132,0.519,-0.763,1.099,73.333,193616.000,1.000
-22.157,-9.308,0.194,-14.364,-10.025,-11.347,0.095,-5.496,-0.001,0.981,-0.128,0.580,-0.702,1.190,73.333,193617.000,1.000
-19.894,-7.874,2.588,-12.294,-7.903,-10.700,3.701,-2.619,-0.001,0.983,-0.128,0.549,-0.671,1.129,73.333,193618.000,1.000
-17.508,-5.750,4.848,-10.345,-5.316,-9.088,4.336,-1.100,-0.002,0.981,-0.129,0.519,-0.702,1.190,73.333,193619.000,1.000
-14.656,-2.818,7.451,-8.162,-2.171,-6.485,3.380,0.367,-0.002,0.982,-0.128,0.488,-0.641,1.312,73.333,193620.000,1.000
-11.910,0.054,10.013,-6.159,0.694,-3.755,1.913,2.123,-0.005,0.982,-0.129,0.458,-0.580,1.373,73.333,193621.000,1.000
-10.352,1.566,11.536,-5.242,2.083,-2.270,-0.124,3.238,-0.007,0.979,-0.129,0.366,-0.519,1.282,73.333,193622.000,1.000
-10.741,1.147,11.350,-5.880,1.669,-2.583,-2.312,3.134,-0.006,0.978,-0.131,0.397,-0.610,1.312,73.333,193623.000,1.000
-13.099,-0.813,9.539,-7.737,0.170,-4.129,-3.597,2.277,-0.007,0.975,-0.130,0.549,-0.671,1.373,73.333,193624.000,1.000
-16.833,-3.425,6.724,-10.071,-1.499,-5.965,-3.659,1.265,-0.005,0.976,-0.135,0.610,-0.732,1.526,73.333,193625.000,1.000
-20.916,-5.575,3.846,-12.135,-2.693,-7.184,-2.933,0.320,-0.004,0.977,-0.136,0.763,-0.793,1.434,73.333,193626.000,1.000
-24.000,-6.224,2.008,-13.284,-2.824,-6.886,-1.453,-0.140,-0.002,0.980,-0.133,0.793,-0.641,1.434,73.333,193627.000,1.000
-25.247,-5.181,1.662,-13.537,-1.880,-4.811,1.226,0.282,-0.001,0.980,-0.133,0.885,-0.641,1.434,73.333,193628.000,1.000
-24.773,-3.297,2.310,-13.583,-0.621,-1.741,4.919,1.410,0.001,0.979,-0.132,0.916,-0.580,1.465,73.333,193629.000,1.000
-23.316,-1.602,3.168,-14.033,0.160,1.160,8.731,2.820,0.002,0.977,-0.131,0.854,-0.488,1.648,73.333,193630.000,1.000
-21.833,-0.699,3.663,-15.017,0.115,2.945,11.542,4.227,0.002,0.973,-0.134,0.946,-0.366,1.740,73.333,193631.000,1.000
-21.108,-0.893,3.500,-16.322,-0.787,2.919,12.088,5.323,0.001,0.971,-0.132,1.038,-0.336,1.801,73.333,193632.000,1.000
-21.605,-2.322,2.427,-17.766,-2.613,0.777,9.835,5.609,0.002,0.969,-0.131,1.160,-0.336,1.770,73.333,193633.000,1.000
-23.173,-4.649,0.535,-19.036,-5.046,-2.784,5.886,4.990,0.001,0.969,-0.133,1.434,-0.244,1.953,73.333,193634.000,1.000
-25.105,-6.964,-1.556,-19.605,-7.165,-6.089,2.455,4.030,0.002,0.971,-0.135,1.556,-0.183,1.953,73.333,193635.000,1.000
-26.768,-8.375,-3.184,-19.217,-8.168,-7.653,1.044,3.095,0.000,0.975,-0.135,1.740,-0.061,1.984,73.333,193636.000,1.000
-27.881,-8.508,-3.975,-18.088,-7.887,-7.077,1.410,1.992,0.000,0.977,-0.134,1.892,-0.031,1.984,73.333,193637.000,1.000
-28.573,-7.616,-3.987,-16.841,-6.830,-5.095,2.615,0.602,0.003,0.981,-0.134,1.862,0.000,1.984,73.333,193638.000,1.000
-29.011,-6.324,-3.472,-16.027,-5.626,-2.943,4.181,-0.527,0.001,0.980,-0.135,1.801,0.031,1.923,73.333,193639.000,1.000
-29.131,-5.186,-2.592,-15.687,-4.591,-1.614,6.087,-0.463,0.002,0.984,-0.136,1.617,0.153,1.953,73.333,193640.000,1.000
-28.903,-4.546,-1.558,-15.523,-3.865,-1.476,8.168,1.303,0.000,0.987,-0.133,1.526,0.153,2.045,73.333,193641.000,1.000
-28.500,-4.600,-0.750,-15.273,-3.494,-2.233,9.755,4.344,0.000,0.985,-0.135,1.404,0.183,1.801,73.333,193642.000,1.000
-28.298,-5.435,-0.719,-15.084,-3.647,-3.365,9.844,7.184,-0.004,0.986,-0.133,1.312,0.122,1.648,73.333,193643.000,1.000
-28.481,-6.872,-1.674,-15.274,-4.400,-4.469,7.538,8.085,-0.006,0.987,-0.131,1.129,0.031,1.404,73.333,193644.000,1.000
-28.881,-8.390,-3.163,-15.946,-5.477,-5.252,3.075,6.309,-0.008,0.989,-0.133,1.038,-0.061,1.251,73.333,193645.000,1.000
-29.319,-9.489,-4.511,-16.954,-6.410,-5.526,-1.700,2.794,-0.008,0.989,-0.134,0.793,-0.122,0.977,73.333,193646.000,1.000
-29.683,-9.978,-5.195,-17.848,-6.657,-5.120,-4.426,-0.178,-0.008,0.990,-0.135,0.671,-0.214,0.824,73.333,193647.000,1.000
-29.977,-9.921,-5.065,-18.130,-5.951,-3.962,-3.754,-0.551,-0.009,0.989,-0.131,0.641,-0.519,0.702,73.333,193648.000,1.000
-30.151,-9.408,-4.203,-17.501,-4.454,-2.171,-0.306,2.026,-0.009,0.987,-0.135,0.458,-0.702,0.610,73.333,193649.000,1.000
-30.012,-8.510,-2.869,-16.021,-2.761,-0.150,3.742,6.100,-0.007,0.986,-0.132,0.366,-0.793,0.488,73.333,193650.000,1.000
-29.469,-7.464,-1.596,-14.164,-1.701,1.481,6.317,9.676,-0.006,0.983,-0.134,0.153,-0.854,0.458,73.333,193651.000,1.000
-28.583,-6.560,-0.790,-12.427,-1.629,2.414,7.082,11.901,-0.007,0.981,-0.133,0.092,-0.885,0.427,73.333,193652.000,1.000
-27.586,-5.933,-0.506,-11.154,-2.340,2.794,7.342,13.221,-0.006,0.982,-0.135,0.000,-0.977,0.458,73.333,193653.000,1.000
-26.672,-5.568,-0.562,-10.563,-3.537,2.673,7.864,14.033,-0.005,0.980,-0.130,-0.031,-1.068,0.641,73.333,193654.000,1.000
-25.898,-5.395,-0.810,-10.816,-5.163,1.679,7.832,13.840,-0.005,0.980,-0.131,0.000,-1.129,0.671,73.333,193655.000,1.000
-25.343,-5.360,-1.228,-11.879,-7.145,-0.456,6.512,12.100,-0.005,0.980,-0.133,0.000,-1.160,0.824,73.333,193656.000,1.000
-25.111,-5.403,-1.716,-13.240,-8.933,-3.158,4.693,9.363,-0.006,0.979,-0.136,-0.061,-1.282,0.824,73.333,193657.000,1.000
-25.457,-5.599,-2.306,-14.278,-9.969,-5.504,3.737,6.864,-0.006,0.978,-0.133,-0.122,-1.434,1.038,73.333,193658.000,1.000
-26.532,-6.086,-3.083,-14.564,-10.002,-7.046,3.898,5.627,-0.005,0.979,-0.131,-0.061,-1.434,1.129,73.333,193659.000,1.000
-28.078,-6.743,-3.941,-13.940,-9.013,-7.732,4.568,5.951,-0.007,0.979,-0.126,-0.122,-1.526,1.343,73.333,193660.000,1.000
-29.672,-7.306,-4.755,-12.702,-7.373,-7.615,5.199,7.024,-0.006,0.979,-0.128,-0.214,-1.556,1.434,73.333,193661.000,1.000
-30.982,-7.723,-5.505,-11.444,-5.770,-6.999,5.277,7.519,-0.005,0.978,-0.129,-0.244,-1.617,1.556,73.333,193662.000,1.000
-31.978,-8.236,-6.297,-10.795,-4.920,-6.670,4.479,6.819,-0.005,0.980,-0.130,-0.183,-1.770,1.526,73.333,193663.000,1.000
-32.709,-9.018,-7.051,-10.952,-5.008,-7.237,2.939,5.528,-0.002,0.980,-0.129,-0.153,-1.770,1.556,73.333,193664.000,1.000
-33.074,-9.836,-7.403,-11.568,-5.582,-8.341,1.165,4.586,-0.002,0.980,-0.131,-0.244,-1.801,1.648,73.333,193665.000,1.000
-33.021,-10.293,-7.109,-12.173,-6.092,-9.093,-0.282,4.160,-0.002,0.979,-0.130,-0.305,-1.770,1.648,73.333,193666.000,1.000
-32.638,-10.138,-6.204,-12.416,-6.126,-8.946,-1.239,3.784,0.000,0.978,-0.130,-0.275,-1.740,1.709,73.333,193667.000,1.000
-32.250,-9.383,-5.027,-12.233,-5.616,-8.043,-2.234,2.978,0.003,0.975,-0.127,-0.305,-1.587,1.740,73.333,193668.000,1.000
-32.166,-8.211,-3.972,-11.761,-4.747,-6.918,-4.116,1.651,0.004,0.974,-0.128,-0.336,-1.526,1.831,73.333,193669.000,1.000
-32.414,-6.832,-3.288,-11.212,-3.774,-6.113,-6.880,0.322,0.002,0.973,-0.132,-0.244,-1.434,1.831,73.333,193670.000,1.000
-32.765,-5.494,-3.126,-10.890,-3.053,-5.980,-9.395,-0.230,0.002,0.973,-0.133,-0.031,-1.282,1.770,73.333,193671.000,1.000
-32.648,-4.400,-3.394,-10.909,-2.848,-6.407,-10.457,0.306,0.003,0.971,-0.133,0.061,-1.160,1.740,73.333,193672.000,1.000
-31.417,-3.598,-3.752,-11.056,-3.205,-6.821,-9.672,1.325,0.005,0.970,-0.132,0.275,-1.068,1.648,73.333,193673.000,1.000
-28.670,-2.959,-3.632,-10.806,-3.717,-6.516,-7.627,1.963,0.006,0.972,-0.135,0.366,-1.038,1.617,73.333,193674.000,1.000
-24.605,-2.307,-2.600,-9.738,-3.745,-5.205,-5.121,2.064,0.006,0.970,-0.131,0.458,-0.793,1.526,73.333,193675.000,1.000
-20.285,-1.751,-0.958,-8.182,-3.187,-3.544,-2.786,1.977,0.006,0.969,-0.133,0.732,-0.641,1.434,73.333,193676.000,1.000
-17.036,-1.591,0.479,-7.017,-2.581,-2.716,-1.472,1.812,0.006,0.971,-0.134,0.824,-0.519,1.434,73.333,193677.000,1.000
-15.592,-1.801,1.092,-6.923,-2.488,-3.222,-1.577,1.413,0.004,0.972,-0.134,1.007,-0.397,1.373,73.333,193678.000,1.000
-15.661,-1.892,0.965,-7.785,-2.726,-4.164,-2.237,0.986,0.006,0.974,-0.136,1.160,-0.305,1.465,73.333,193679.000,1.000
-16.443,-1.435,0.565,-9.030,-2.596,-3.966,-1.920,0.934,0.006,0.975,-0.132,1.282,-0.153,1.312,73.333,193680.000,1.000
-17.338,-0.500,0.195,-10.259,-1.701,-1.690,0.409,1.373,0.004,0.976,-0.133,1.343,-0.122,1.343,73.333,193681.000,1.000
-17.799,0.638,0.195,-11.107,-0.036,2.366,4.757,2.445,0.003,0.978,-0.134,1.434,0.000,1.404,73.333,193682.000,1.000
-17.266,1.830,0.974,-11.174,2.004,6.759,10.037,4.230,0.003,0.981,-0.133,1.434,0.092,1.312,73.333,193683.000,1.000
-15.406,3.015,2.741,-10.223,3.813,9.794,14.285,6.308,0.002,0.982,-0.132,1.404,0.214,1.282,73.333,193684.000,1.000
-12.478,4.126,5.241,-8.385,4.980,10.679,16.046,8.173,0.001,0.983,-0.131,1.312,0.305,1.221,73.333,193685.000,1.000
-9.420,4.989,7.771,-6.183,5.457,9.862,15.434,9.753,-0.002,0.988,-0.129,1.282,0.336,1.251,73.333,193686.000,1.000
-7.334,5.361,9.599,-4.294,5.515,8.491,13.397,11.072,-0.001,0.986,-0.132,1.160,0.336,1.251,73.333,193687.000,1.000
-7.059,5.048,10.168,-3.422,5.333,7.511,10.917,11.700,-0.004,0.984,-0.132,1.007,0.275,1.190,73.333,193688.000,1.000
-8.609,4.188,9.514,-3.743,5.130,7.294,9.014,11.335,-0.003,0.983,-0.133,0.854,0.214,1.190,73.333,193689.000,1.000
-10.962,3.394,8.506,-4.460,5.347,7.811,8.868,10.651,-0.003,0.982,-0.133,0.732,0.214,1.282,73.333,193690.000,1.000
-12.733,3.352,8.313,-4.389,6.344,8.746,11.051,10.800,-0.002,0.983,-0.135,0.641,0.092,1.251,73.333,193691.000,1.000
-13.038,4.368,9.659,-2.975,8.124,9.660,14.396,12.081,-0.001,0.985,-0.138,0.610,0.061,1.282,73.333,193692.000,1.000
-12.215,6.047,12.145,-0.927,10.040,10.014,16.501,13.320,0.001,0.988,-0.135,0.549,0.000,1.495,73.333,193693.000,1.000
-11.489,7.420,14.457,0.379,11.150,9.330,15.600,12.905,-0.001,0.988,-0.135,0.336,-0.031,1.465,73.333,193694.000,1.000
-11.893,7.637,15.312,-0.011,10.882,7.570,11.909,10.218,-0.002,0.989,-0.136,0.214,0.000,1.617,73.333,193695.000,1.000
-13.498,6.647,14.328,-1.996,9.443,5.362,7.379,6.223,-0.001,0.986,-0.135,0.061,0.031,1.587,73.333,193696.000,1.000
-15.344,5.286,12.368,-4.364,7.875,3.816,4.400,3.039,0.003,0.983,-0.136,0.061,-0.031,1.678,73.333,193697.000,1.000
-16.435,4.461,10.661,-5.802,7.108,3.704,4.377,2.312,0.004,0.980,-0.135,0.092,0.031,1.892,73.333,193698.000,1.000
-16.549,4.368,9.817,-5.911,7.234,4.910,6.882,4.060,0.003,0.979,-0.134,0.122,0.000,1.892,73.333,193699.000,1.000
-16.179,4.663,9.678,-5.249,7.751,6.759,10.430,7.164,0.000,0.980,-0.131,0.122,0.000,1.740,73.333,193700.000,1.000
-15.918,5.034,9.771,-4.590,8.139,8.571,13.681,10.412,-0.003,0.981,-0.130,0.183,0.031,1.801,73.333,193701.000,1.000
-15.839,5.449,9.859,-4.230,8.272,9.922,15.698,13.090,-0.006,0.979,-0.132,0.092,0.000,1.740,73.333,193702.000,1.000
-15.787,5.986,9.912,-4.135,8.292,10.593,16.474,15.206,-0.008,0.979,-0.133,0.000,-0.214,1.587,73.333,193703.000,1.000
-15.682,6.802,10.115,-4.067,8.673,10.750,17.227,17.612,-0.008,0.978,-0.134,0.061,-0.397,1.465,73.333,193704.000,1.000
-15.538,8.108,10.720,-3.781,9.858,10.834,18.901,20.868,-0.007,0.975,-0.134,0.061,-0.549,1.251,73.333,193705.000,1.000
-15.491,9.825,11.594,-3.471,11.473,10.943,20.326,23.800,-0.006,0.973,-0.135,0.153,-0.732,1.129,73.333,193706.000,1.000
-15.469,11.606,12.424,-3.453,12.719,10.930,19.517,24.699,-0.006,0.974,-0.135,0.305,-0.824,1.038,73.333,193707.000,1.000
-15.075,13.190,13.128,-3.669,13.209,10.867,16.543,23.332,-0.005,0.975,-0.135,0.366,-0.854,0.977,73.333,193708.000,1.000
-13.783,14.536,13.920,-3.747,13.064,10.907,12.977,20.483,-0.003,0.977,-0.133,0.366,-1.068,0.916,73.333,193709.000,1.000
-11.413,15.677,14.984,-3.501,12.382,10.864,9.559,16.464,-0.001,0.979,-0.133,0.397,-0.977,0.824,73.333,193710.000,1.000
-8.403,16.645,16.298,-3.029,11.192,10.387,6.252,11.482,0.000,0.979,-0.135,0.397,-1.038,0.916,73.333,193711.000,1.000
-5.401,17.579,17.853,-2.329,9.988,9.557,3.817,6.795,-0.001,0.978,-0.132,0.397,-1.068,0.885,73.333,193712.000,1.000
-2.999,18.538,19.404,-1.454,9.336,8.841,3.953,4.069,-0.001,0.979,-0.131,0.458,-1.160,0.854,73.333,193713.000,1.000
-1.541,19.249,20.399,-0.692,9.276,8.592,7.295,4.001,0.000,0.980,-0.131,0.488,-1.129,0.885,73.333,193714.000,1.000
-1.052,19.239,20.324,-0.399,9.237,8.671,12.014,5.919,-0.001,0.979,-0.131,0.519,-1.190,0.885,73.333,193715.000,1.000
-1.374,18.152,18.991,-0.781,8.468,8.509,15.027,8.369,0.000,0.980,-0.133,0.549,-1.251,1.038,73.333,193716.000,1.000
-2.194,16.048,16.730,-1.698,6.744,7.722,14.355,10.072,0.000,0.981,-0.133,0.458,-1.343,1.099,73.333,193717.000,1.000
-3.386,13.361,14.091,-2.908,4.401,6.424,10.317,10.338,-0.001,0.980,-0.136,0.458,-1.251,1.251,73.333,193718.000,1.000
-5.075,10.573,11.529,-4.242,2.046,4.964,4.789,9.060,-0.004,0.979,-0.133,0.488,-1.404,1.312,73.333,193719.000,1.000
-7.479,7.954,9.186,-5.754,0.104,3.448,-0.216,6.550,-0.004,0.980,-0.132,0.580,-1.434,1.282,73.333,193720.000,1.000
-10.699,5.552,6.891,-7.684,-1.434,1.711,-3.537,3.431,-0.005,0.979,-0.131,0.549,-1.404,1.312,73.333,193721.000,1.000
-14.309,3.524,4.666,-9.931,-2.528,-0.040,-4.867,0.723,-0.002,0.978,-0.133,0.519,-1.404,1.343,73.333,193722.000,1.000
-17.480,2.215,2.841,-11.919,-2.896,-0.976,-4.087,-0.465,-0.001,0.979,-0.132,0.488,-1.495,1.465,73.333,193723.000,1.000
-19.255,1.955,1.955,-12.819,-2.086,-0.121,-1.267,0.643,-0.001,0.980,-0.132,0.580,-1.526,1.373,73.333,193724.000,1.000
-18.988,2.846,2.455,-11.993,0.161,2.819,3.151,4.171,0.001,0.979,-0.133,0.610,-1.617,1.434,73.333,193725.000,1.000
-16.924,4.527,4.175,-9.597,3.423,6.956,8.428,9.211,0.000,0.980,-0.134,0.519,-1.587,1.404,73.333,193726.000,1.000
-14.112,6.278,6.332,-6.635,6.668,10.666,13.325,13.869,0.000,0.980,-0.130,0.519,-1.587,1.373,73.333,193727.000,1.000
-11.941,7.373,7.889,-4.533,8.601,12.370,16.158,16.057,0.001,0.980,-0.133,0.580,-1.526,1.373,73.333,193728.000,1.000
-11.281,7.565,8.315,-4.130,8.670,11.496,16.103,15.275,0.003,0.980,-0.134,0.488,-1.495,1.404,73.333,193729.000,1.000
-11.974,7.309,7.979,-5.042,7.692,9.101,14.738,13.464,0.002,0.979,-0.131,0.549,-1.526,1.404,73.333,193730.000,1.000
-13.219,7.244,7.569,-6.263,6.897,6.960,14.433,12.857,0.002,0.978,-0.132,0.549,-1.526,1.312,73.333,193731.000,1.000
-14.133,7.593,7.534,-7.076,6.721,5.954,15.100,13.428,0.002,0.978,-0.132,0.580,-1.404,1.312,73.333,193732.000,1.000
-14.235,8.145,7.901,-7.406,6.692,5.668,14.718,13.544,0.001,0.976,-0.132,0.610,-1.312,1.312,73.333,193733.000,1.000
-13.368,8.710,8.658,-7.255,6.526,5.593,12.555,12.618,0.003,0.976,-0.136,0.641,-1.190,1.221,73.333,193734.000,1.000
-11.532,9.392,9.945,-6.365,6.664,5.964,10.265,11.744,0.002,0.976,-0.133,0.580,-1.282,1.343,73.333,193735.000,1.000
-8.985,10.352,11.748,-4.633,7.598,7.155,9.847,12.062,0.002,0.977,-0.137,0.610,-1.282,1.221,73.333,193736.000,1.000
-6.144,11.529,13.758,-2.404,9.275,8.958,11.616,13.631,0.004,0.979,-0.134,0.732,-1.160,1.129,73.333,193737.000,1.000
-3.589,12.580,15.329,-0.516,10.918,10.583,14.447,15.479,0.005,0.979,-0.131,0.793,-1.099,1.099,73.333,193738.000,1.000
-1.898,13.070,15.838,0.097,11.496,11.142,16.392,16.135,0.003,0.979,-0.132,0.793,-0.977,1.068,73.333,193739.000,1.000
-1.426,12.738,15.055,-1.069,10.340,10.043,15.212,14.333,0.001,0.978,-0.130,0.763,-0.946,1.160,73.333,193740.000,1.000
-2.119,11.710,13.294,-3.670,7.673,7.437,10.128,10.213,0.000,0.977,-0.134,0.763,-0.854,1.099,73.333,193741.000,1.000
-3.326,10.647,11.477,-6.347,4.904,4.572,3.293,5.935,0.000,0.976,-0.136,0.885,-0.793,1.038,73.333,193742.000,1.000
-4.407,10.316,10.425,-7.660,3.638,3.033,-1.395,4.195,0.001,0.978,-0.135,0.854,-0.885,1.068,73.333,193743.000,1.000
-5.208,10.931,10.240,-7.140,4.501,3.434,-1.366,6.288,0.000,0.979,-0.132,0.854,-0.854,1.038,73.333,193744.000,1.000
-5.917,11.926,10.349,-5.542,6.720,4.867,2.796,11.282,-0.001,0.982,-0.134,0.824,-0.854,0.977,73.333,193745.000,1.000
-6.684,12.381,10.050,-4.231,8.677,5.624,7.972,16.475,-0.001,0.982,-0.135,0.793,-0.793,1.038,73.333,193746.000,1.000
-7.237,11.868,9.245,-4.071,9.233,4.702,10.757,19.310,-0.002,0.982,-0.133,0.671,-0.854,0.946,73.333,193747.000,1.000
-7.243,10.704,8.314,-5.089,8.269,2.518,9.772,18.996,-0.003,0.981,-0.132,0.671,-0.854,1.038,73.333,193748.000,1.000
-6.628,9.562,7.706,-6.725,6.483,0.452,6.128,16.497,-0.003,0.980,-0.133,0.671,-0.916,0.946,73.333,193749.000,1.000
-5.523,9.032,7.729,-8.215,4.851,-0.256,2.163,13.494,-0.003,0.980,-0.131,0.519,-0.885,0.916,73.333,193750.000,1.000
-4.116,9.351,8.505,-8.885,4.158,0.694,-0.074,11.574,-0.003,0.981,-0.131,0.458,-0.946,1.007,73.333,193751.000,1.000
-2.392,10.518,10.173,-8.179,4.977,2.922,0.555,12.030,-0.004,0.982,-0.132,0.458,-0.977,0.885,73.333,193752.000,1.000
-0.405,12.295,12.609,-6.095,7.219,5.746,3.986,15.109,-0.004,0.982,-0.134,0.397,-1.038,1.007,73.333,193753.000,1.000
1.508,14.129,15.256,-3.392,9.958,8.276,8.388,19.399,-0.003,0.982,-0.134,0.275,-0.977,0.946,73.333,193754.000,1.000
2.911,15.545,17.535,-1.007,12.181,9.824,11.511,23.011,-0.003,0.982,-0.135,0.244,-1.190,0.977,73.333,193755.000,1.000
3.512,16.559,19.280,0.701,13.683,10.460,13.110,25.570,-0.003,0.979,-0.135,0.153,-1.190,1.099,73.333,193756.000,1.000
3.394,17.543,20.760,2.085,15.056,10.881,14.576,28.102,-0.004,0.980,-0.133,0.061,-1.160,1.038,73.333,193757.000,1.000
2.829,18.691,22.128,3.449,16.606,11.549,16.611,30.893,-0.004,0.980,-0.131,0.061,-1.251,1.160,73.333,193758.000,1.000
2.169,19.829,23.277,4.733,18.056,12.345,18.650,33.109,-0.004,0.979,-0.133,0.000,-1.373,1.221,73.333,193759.000,1.000
1.523,20.477,23.831,5.563,18.844,12.800,20.052,33.978,-0.004,0.980,-0.134,0.000,-1.404,1.190,73.333,193760.000,1.000
0.500,19.987,23.077,5.274,18.242,12.345,20.297,33.026,-0.002,0.979,-0.133,-0.061,-1.343,1.251,73.333,193761.000,1.000
-1.182,18.072,20.583,3.539,15.965,10.771,18.771,30.189,-0.001,0.977,-0.134,-0.031,-1.404,1.373,73.333,193762.000,1.000
-3.312,15.131,16.659,0.824,12.520,8.421,15.553,26.196,0.000,0.978,-0.132,0.000,-1.434,1.373,73.333,193763.000,1.000
-5.357,12.007,12.243,-1.861,8.956,5.960,11.624,22.373,0.001,0.977,-0.133,-0.031,-1.404,1.404,73.333,193764.000,1.000
-6.959,9.462,8.305,-3.773,6.165,3.997,8.004,19.728,0.000,0.978,-0.134,0.000,-1.404,1.404,73.333,193765.000,1.000
-8.181,7.819,5.383,-4.884,4.448,2.824,5.087,18.289,0.000,0.979,-0.132,0.092,-1.343,1.465,73.333,193766.000,1.000
-9.059,7.040,3.782,-5.430,3.884,2.512,2.944,17.661,0.000,0.977,-0.131,0.061,-1.343,1.343,73.333,193767.000,1.000
-9.507,6.847,3.544,-5.606,4.368,2.800,1.792,17.772,0.000,0.978,-0.135,0.000,-1.312,1.465,73.333,193768.000,1.000
-9.393,6.858,4.390,-5.504,5.565,3.104,1.642,18.867,-0.001,0.978,-0.133,-0.031,-1.312,1.495,73.333,193769.000,1.000
-8.761,6.745,5.686,-5.283,6.926,2.911,2.171,20.668,-0.001,0.979,-0.132,0.061,-1.312,1.526,73.333,193770.000,1.000
-8.087,6.249,6.504,-5.398,7.737,2.128,3.164,21.942,0.002,0.979,-0.129,0.092,-1.221,1.526,73.333,193771.000,1.000
-7.940,5.338,6.182,-6.278,7.599,1.164,4.708,21.625,0.005,0.979,-0.132,0.061,-1.190,1.495,73.333,193772.000,1.000
-8.614,4.229,4.652,-8.079,6.469,0.466,6.503,19.534,0.005,0.980,-0.132,0.031,-1.160,1.404,73.333,193773.000,1.000
-9.767,3.226,2.474,-10.548,4.523,0.124,7.039,15.878,0.004,0.979,-0.136,0.031,-1.099,1.465,73.333,193774.000,1.000
-10.540,2.683,0.640,-12.991,2.235,0.067,4.932,11.289,0.003,0.978,-0.135,-0.031,-0.977,1.312,73.333,193775.000,1.000
-10.274,2.900,0.061,-14.536,0.446,0.384,1.114,7.482,0.002,0.979,-0.133,0.122,-0.946,1.404,73.333,193776.000,1.000
-8.912,3.973,1.150,-14.502,0.185,1.354,-1.395,6.787,0.001,0.978,-0.132,0.153,-0.946,1.282,73.333,193777.000,1.000
-7.010,5.618,3.447,-12.955,1.760,2.934,-0.132,10.146,0.000,0.978,-0.130,0.214,-0.885,1.312,73.333,193778.000,1.000
-5.208,7.267,5.919,-10.660,4.408,4.542,4.497,16.065,-0.002,0.979,-0.130,0.183,-0.793,1.221,73.333,193779.000,1.000
-3.846,8.375,7.606,-8.583,6.875,5.549,9.927,21.730,0.000,0.979,-0.130,0.122,-0.824,1.160,73.333,193780.000,1.000
-3.086,8.587,7.941,-7.523,8.106,5.693,13.612,24.772,-0.001,0.980,-0.131,0.214,-0.885,1.038,73.333,193781.000,1.000
-2.875,7.902,6.950,-7.793,7.746,5.107,14.130,24.357,0.000,0.981,-0.131,0.122,-0.854,0.885,73.333,193782.000,1.000
-3.035,6.654,5.093,-9.265,5.982,4.082,11.512,21.086,0.000,0.979,-0.132,0.183,-0.793,0.854,73.333,193783.000,1.000
-3.249,5.306,3.078,-11.396,3.332,2.919,7.040,16.452,-0.001,0.980,-0.133,0.305,-0.854,0.916,73.333,193784.000,1.000
-3.236,4.206,1.509,-13.433,0.349,1.777,2.534,12.145,-0.001,0.979,-0.133,0.244,-0.854,0.824,73.333,193785.000,1.000
-3.093,3.341,0.425,-14.950,-2.747,0.435,-0.823,9.127,0.000,0.978,-0.133,0.397,-0.793,0.824,73.333,193786.000,1.000
-3.165,2.444,-0.557,-15.966,-5.845,-1.444,-2.963,7.365,0.000,0.978,-0.133,0.427,-0.854,0.854,73.333,193787.000,1.000
-3.860,1.337,-1.894,-16.747,-8.680,-3.723,-3.804,6.537,0.001,0.979,-0.131,0.366,-0.824,0.916,73.333,193788.000,1.000
-5.315,0.150,-3.696,-17.441,-10.744,-5.628,-2.769,6.768,0.000,0.978,-0.130,0.519,-0.916,0.885,73.333,193789.000,1.000
-7.242,-0.828,-5.638,-18.035,-11.696,-6.399,0.091,8.287,-0.001,0.978,-0.131,0.519,-0.824,0.824,73.333,193790.000,1.000
-9.121,-1.456,-7.267,-18.543,-11.780,-5.989,3.407,10.737,-0.001,0.978,-0.132,0.519,-0.824,0.885,73.333,193791.000,1.000
-10.429,-1.745,-8.234,-18.938,-11.477,-4.933,5.313,13.405,-0.001,0.978,-0.132,0.519,-0.824,0.946,73.333,193792.000,1.000
-11.147,-1.843,-8.647,-19.286,-11.260,-3.998,4.653,15.617,0.000,0.979,-0.130,0.671,-0.793,1.038,73.333,193793.000,1.000
-11.662,-1.930,-8.805,-19.609,-11.217,-3.630,1.724,17.163,-0.001,0.979,-0.131,0.671,-0.977,1.099,73.333,193794.000,1.000
-12.175,-1.992,-8.702,-19.690,-10.824,-3.535,-1.301,18.807,-0.001,0.979,-0.132,0.732,-1.007,1.068,73.333,193795.000,1.000
-12.549,-1.882,-8.158,-19.295,-9.538,-3.192,-1.912,21.646,0.000,0.980,-0.131,0.702,-1.099,1.007,73.333,193796.000,1.000
-12.507,-1.534,-7.090,-18.405,-7.416,-2.590,0.101,25.574,-0.002,0.978,-0.135,0.671,-1.007,1.007,73.333,193797.000,1.000
-12.167,-1.083,-5.764,-17.422,-5.222,-2.187,2.816,29.021,-0.002,0.977,-0.132,0.641,-1.099,1.099,73.333,193798.000,1.000
-11.988,-0.744,-4.622,-16.897,-3.697,-2.168,4.407,30.504,-0.001,0.977,-0.134,0.854,-1.099,1.160,73.333,193799.000,1.000
-12.361,-0.688,-4.001,-17.151,-3.085,-2.306,4.338,29.631,0.000,0.977,-0.134,0.885,-1.099,1.129,73.333,193800.000,1.000
-13.382,-1.055,-4.015,-18.144,-3.280,-2.452,2.981,26.876,0.000,0.977,-0.132,0.946,-1.160,1.068,73.333,193801.000,1.000
-14.652,-1.821,-4.380,-19.378,-3.883,-2.547,0.909,23.347,0.000,0.979,-0.133,0.854,-1.190,1.160,73.333,193802.000,1.000
-15.655,-2.762,-4.744,-20.317,-4.544,-2.569,-1.247,20.291,0.001,0.980,-0.136,0.977,-1.312,1.190,73.333,193803.000,1.000
-16.125,-3.603,-4.979,-20.709,-5.099,-2.613,-2.938,18.537,0.002,0.979,-0.136,1.007,-1.190,1.343,73.333,193804.000,1.000
-16.076,-4.052,-5.161,-20.554,-5.418,-2.713,-3.724,18.362,0.000,0.980,-0.135,0.946,-1.221,1.343,73.333,193805.000,1.000
-15.582,-3.788,-5.323,-19.871,-5.282,-2.606,-3.205,19.769,-0.001,0.982,-0.136,1.038,-1.221,1.404,73.333,193806.000,1.000
-14.466,-2.508,-5.129,-18.489,-4.276,-1.788,-1.041,22.844,-0.001,0.981,-0.135,0.916,-1.282,1.434,73.333,193807.000,1.000
-12.621,-0.291,-4.262,-16.414,-2.274,-0.049,2.762,27.344,-0.001,0.980,-0.133,0.916,-1.312,1.373,73.333,193808.000,1.000
-10.233,2.237,-2.862,-14.022,0.256,2.164,7.060,32.121,-0.004,0.977,-0.134,0.854,-1.404,1.373,73.333,193809.000,1.000
-7.692,4.262,-1.504,-11.838,2.540,4.055,10.103,35.663,-0.001,0.978,-0.129,0.854,-1.282,1.373,73.333,193810.000,1.000
-5.484,5.215,-0.862,-10.279,4.076,5.219,11.536,37.429,0.000,0.980,-0.131,0.885,-1.282,1.251,73.333,193811.000,1.000
-3.897,5.052,-1.168,-9.411,5.082,6.091,12.839,38.349,0.001,0.982,-0.132,0.946,-1.251,1.190,73.333,193812.000,1.000
-3.010,4.148,-2.179,-9.128,5.994,7.286,15.490,39.561,0.004,0.981,-0.131,0.885,-1.282,1.068,73.333,193813.000,1.000
-2.601,3.102,-3.243,-9.157,7.071,8.868,19.185,41.261,0.004,0.981,-0.133,0.793,-1.221,1.190,73.333,193814.000,1.000
-2.231,2.557,-3.496,-9.063,8.369,10.452,22.197,42.797,0.006,0.978,-0.132,0.732,-1.190,1.221,73.333,193815.000,1.000
-1.642,2.846,-2.421,-8.653,9.633,11.521,22.662,43.235,0.006,0.974,-0.135,0.641,-1.007,1.312,73.333,193816.000,1.000
-0.724,3.849,-0.047,-7.998,10.562,11.728,19.756,42.128,0.008,0.970,-0.136,0.641,-0.977,1.251,73.333,193817.000,1.000
0.665,5.273,3.174,-7.142,11.167,11.226,14.931,40.075,0.006,0.969,-0.139,0.763,-0.763,1.251,73.333,193818.000,1.000
2.816,7.032,6.780,-5.907,11.948,10.726,11.273,38.434,0.005,0.968,-0.137,0.977,-0.641,1.282,73.333,193819.000,1.000
5.802,9.144,10.342,-4.308,13.180,10.749,10.612,37.877,0.005,0.970,-0.139,1.129,-0.549,1.404,73.333,193820.000,1.000
9.106,11.376,13.326,-2.823,14.245,10.924,11.739,37.518,0.003,0.972,-0.137,1.282,-0.458,1.373,73.333,193821.000,1.000
11.945,13.359,15.391,-1.892,14.296,10.552,11.996,36.019,0.002,0.977,-0.139,1.282,-0.458,1.404,73.333,193822.000,1.000
13.568,14.877,16.431,-1.729,12.948,9.404,10.046,33.047,0.006,0.979,-0.137,1.251,-0.458,1.373,73.333,193823.000,1.000
13.707,16.030,16.638,-2.321,10.603,7.922,6.704,29.757,0.002,0.981,-0.139,1.068,-0.488,1.343,73.333,193824.000,1.000
12.821,17.179,16.531,-3.429,8.241,7.009,4.060,27.842,0.000,0.984,-0.138,1.007,-0.427,1.434,73.333,193825.000,1.000
11.695,18.581,16.602,-4.728,6.770,7.555,3.940,27.976,0.000,0.986,-0.135,0.946,-0.519,1.404,73.333,193826.000,1.000
11.020,20.192,17.124,-5.784,6.686,9.841,6.640,29.626,-0.001,0.987,-0.136,0.854,-0.397,1.404,73.333,193827.000,1.000
10.922,21.627,17.908,-6.262,7.715,13.006,10.856,31.794,-0.001,0.988,-0.137,0.671,-0.427,1.373,73.333,193828.000,1.000
10.984,22.346,18.478,-6.069,8.999,15.540,14.532,33.547,-0.004,0.989,-0.137,0.549,-0.580,1.190,73.333,193829.000,1.000
10.664,22.098,18.530,-5.295,9.772,16.551,16.466,34.362,-0.005,0.990,-0.138,0.397,-0.671,1.099,73.333,193830.000,1.000
9.612,21.103,18.060,-4.180,9.737,16.210,17.128,34.422,-0.008,0.992,-0.135,0.183,-0.946,0.916,73.333,193831.000,1.000
7.870,19.750,17.176,-3.105,8.907,15.082,17.340,34.278,-0.008,0.991,-0.133,-0.061,-0.977,0.702,73.333,193832.000,1.000
5.479,18.053,15.599,-2.787,6.993,13.306,16.764,33.667,-0.007,0.990,-0.135,-0.153,-1.160,0.763,73.333,193833.000,1.000
2.294,15.568,12.781,-3.955,3.620,10.729,14.268,31.485,-0.007,0.988,-0.136,-0.336,-1.282,0.610,73.333,193834.000,1.000
-1.724,11.985,8.495,-6.753,-0.990,7.500,9.716,27.253,-0.003,0.985,-0.135,-0.488,-1.312,0.519,73.333,193835.000,1.000
-6.281,7.620,3.110,-10.625,-5.875,4.150,4.824,22.150,-0.003,0.984,-0.135,-0.549,-1.404,0.610,73.333,193836.000,1.000
-10.668,3.396,-2.343,-14.508,-9.559,1.412,2.218,18.668,-0.002,0.984,-0.132,-0.580,-1.495,0.641,73.333,193837.000,1.000
-14.042,0.419,-6.570,-17.298,-10.746,0.077,3.633,18.901,-0.003,0.984,-0.132,-0.580,-1.526,0.641,73.333,193838.000,1.000
-15.638,-0.536,-8.506,-18.156,-8.951,0.703,8.225,22.835,-0.001,0.983,-0.132,-0.671,-1.465,0.763,73.333,193839.000,1.000
-15.236,0.531,-7.996,-16.972,-4.897,3.045,12.719,28.228,-0.004,0.980,-0.131,-0.702,-1.495,0.702,73.333,193840.000,1.000
-13.602,2.692,-6.168,-14.688,-0.343,5.930,13.758,32.171,-0.003,0.978,-0.132,-0.732,-1.648,0.732,73.333,193841.000,1.000
-11.954,4.650,-4.635,-12.686,3.014,8.150,10.462,33.051,-0.002,0.976,-0.133,-0.610,-1.648,0.763,73.333,193842.000,1.000
-11.221,5.487,-4.455,-11.995,4.282,9.193,4.967,31.169,-0.004,0.977,-0.131,-0.610,-1.740,0.793,73.333,193843.000,1.000
-11.545,4.985,-5.562,-12.776,3.544,9.170,0.259,28.011,-0.003,0.976,-0.131,-0.549,-1.892,0.916,73.333,193844.000,1.000
-12.412,3.546,-7.062,-14.387,1.541,8.435,-1.934,25.192,-0.001,0.974,-0.129,-0.427,-1.892,0.946,73.333,193845.000,1.000
-13.109,1.960,-7.916,-15.779,-0.701,7.532,-1.363,23.938,-0.003,0.976,-0.129,-0.244,-1.892,1.007,73.333,193846.000,1.000
-12.951,1.117,-7.340,-15.902,-2.136,7.156,1.138,24.756,-0.001,0.975,-0.127,-0.275,-1.923,1.129,73.333,193847.000,1.000
-11.849,1.361,-5.418,-14.566,-2.514,7.465,3.925,26.675,-0.003,0.975,-0.127,-0.214,-1.831,1.190,73.333,193848.000,1.000
-10.460,2.140,-3.151,-12.640,-2.494,7.761,5.363,27.903,-0.003,0.974,-0.129,-0.122,-1.801,1.129,73.333,193849.000,1.000
-9.604,2.580,-1.709,-11.238,-2.792,7.266,5.268,27.815,-0.003,0.976,-0.131,0.061,-1.831,1.190,73.333,193850.000,1.000
-9.623,2.308,-1.657,-10.852,-3.520,6.031,5.018,27.422,-0.002,0.974,-0.129,0.092,-1.862,1.007,73.333,193851.000,1.000
-10.114,1.678,-2.634,-11.133,-4.123,5.018,6.050,27.956,-0.002,0.976,-0.129,0.122,-1.862,1.068,73.333,193852.000,1.000
-10.502,1.166,-3.953,-11.632,-4.200,5.032,8.503,29.396,-0.001,0.974,-0.133,0.183,-1.862,1.068,73.333,193853.000,1.000
-10.448,0.819,-5.150,-12.242,-3.914,5.798,10.882,30.603,-0.001,0.974,-0.130,0.336,-1.862,1.007,73.333,193854.000,1.000
-9.919,0.425,-6.058,-13.034,-3.676,6.226,11.387,30.603,-0.001,0.973,-0.129,0.366,-1.831,0.916,73.333,193855.000,1.000
-9.251,-0.207,-6.835,-14.123,-3.911,5.312,9.367,29.197,-0.001,0.972,-0.130,0.549,-1.801,0.946,73.333,193856.000,1.000
-8.852,-1.103,-7.684,-15.515,-4.796,2.908,5.217,26.660,0.000,0.972,-0.131,0.702,-1.801,0.854,73.333,193857.000,1.000
-8.893,-1.980,-8.514,-17.016,-6.060,-0.075,0.222,23.604,-0.001,0.973,-0.131,0.793,-1.709,0.977,73.333,193858.000,1.000
-9.035,-2.158,-8.705,-18.018,-6.813,-2.159,-3.554,21.312,0.001,0.974,-0.129,0.824,-1.648,0.854,73.333,193859.000,1.000
-8.684,-0.919,-7.560,-17.801,-6.144,-2.349,-4.361,21.143,0.001,0.974,-0.133,0.946,-1.617,0.916,73.333,193860.000,1.000
-7.570,1.827,-5.041,-16.254,-4.031,-0.803,-2.196,23.147,0.001,0.974,-0.133,1.068,-1.465,0.977,73.333,193861.000,1.000
-5.842,5.338,-1.789,-13.997,-1.371,1.437,0.953,25.791,0.002,0.974,-0.135,1.221,-1.343,1.007,73.333,193862.000,1.000
-4.090,8.415,1.200,-12.003,0.556,3.175,2.761,27.272,-0.001,0.973,-0.135,1.282,-1.282,1.068,73.333,193863.000,1.000
-2.977,10.212,3.244,-10.780,1.166,4.048,2.487,27.295,0.000,0.973,-0.132,1.312,-1.251,1.038,73.333,193864.000,1.000
-2.849,10.697,4.350,-10.055,1.010,4.837,1.382,27.153,0.001,0.975,-0.136,1.343,-1.068,1.038,73.333,193865.000,1.000
-3.807,10.235,4.805,-9.405,0.963,6.445,1.293,28.081,0.002,0.977,-0.137,1.343,-1.068,1.160,73.333,193866.000,1.000
-5.656,9.178,4.891,-8.716,1.509,8.838,3.036,30.202,0.002,0.978,-0.131,1.404,-1.007,1.282,73.333,193867.000,1.000
-7.881,7.944,4.814,-8.166,2.544,11.124,6.211,32.822,0.001,0.983,-0.135,1.465,-0.885,1.251,73.333,193868.000,1.000
-9.692,7.106,4.874,-7.834,3.849,12.621,10.009,35.460,0.000,0.984,-0.137,1.434,-0.885,1.343,73.333,193869.000,1.000
-10.583,6.934,5.183,-7.836,5.117,13.248,13.630,37.841,-0.002,0.986,-0.134,1.343,-0.702,1.343,73.333,193870.000,1.000
-10.869,6.914,5.255,-8.685,5.512,12.823,15.738,38.907,-0.001,0.987,-0.132,1.221,-0.702,1.343,73.333,193871.000,1.000
-11.183,6.280,4.564,-10.683,4.277,11.013,14.748,37.341,-0.003,0.987,-0.132,1.038,-0.671,1.495,73.333,193872.000,1.000
-11.956,4.861,3.068,-13.379,1.543,8.006,10.611,33.200,-0.003,0.986,-0.132,0.885,-0.641,1.495,73.333,193873.000,1.000
-13.267,3.193,1.185,-15.814,-1.557,4.818,5.315,28.351,-0.001,0.982,-0.133,0.763,-0.580,1.465,73.333,193874.000,1.000
-14.945,1.986,-0.610,-17.243,-3.726,2.730,1.469,25.017,0.000,0.983,-0.136,0.641,-0.732,1.434,73.333,193875.000,1.000
-16.711,1.558,-2.133,-17.596,-4.405,2.432,0.636,24.137,0.001,0.979,-0.140,0.671,-0.763,1.495,73.333,193876.000,1.000
-18.058,1.820,-3.287,-17.162,-3.695,3.730,2.705,25.392,0.001,0.983,-0.139,0.610,-0.580,1.465,73.333,193877.000,1.000
-18.500,2.515,-4.018,-16.335,-2.168,5.690,6.390,27.896,0.001,0.985,-0.136,0.549,-0.488,1.465,73.333,193878.000,1.000
-17.818,3.329,-4.301,-15.445,-0.592,7.186,10.041,30.527,0.004,0.987,-0.136,0.488,-0.458,1.495,73.333,193879.000,1.000
-16.167,3.905,-4.148,-14.638,0.408,7.629,12.661,32.277,0.004,0.985,-0.135,0.336,-0.427,1.556,73.333,193880.000,1.000
-13.993,3.946,-3.586,-13.843,0.645,7.201,14.286,32.778,0.004,0.983,-0.137,0.183,-0.305,1.678,73.333,193881.000,1.000
-11.675,3.475,-2.506,-12.710,0.527,6.573,15.202,32.411,0.005,0.979,-0.137,0.092,-0.275,1.648,73.333,193882.000,1.000
-9.671,2.685,-1.044,-11.121,0.374,6.215,15.079,31.474,0.005,0.979,-0.137,0.122,-0.275,1.648,73.333,193883.000,1.000
-8.523,1.674,0.298,-9.433,0.043,6.061,13.092,29.831,0.001,0.979,-0.138,0.214,-0.214,1.770,73.333,193884.000,1.000
-8.506,0.573,1.075,-8.127,-0.676,5.849,9.345,27.595,-0.001,0.979,-0.138,0.183,-0.122,1.801,73.333,193885.000,1.000
-9.427,-0.323,1.195,-7.449,-1.724,5.562,5.468,25.547,-0.005,0.979,-0.136,0.092,-0.153,1.556,73.333,193886.000,1.000
-10.664,-0.733,0.922,-7.337,-2.809,5.404,3.128,24.537,-0.007,0.978,-0.134,0.000,-0.153,1.465,73.333,193887.000,1.000
-11.684,-0.709,0.464,-7.763,-3.861,5.260,2.729,24.590,-0.007,0.978,-0.134,0.000,-0.214,1.343,73.333,193888.000,1.000
-12.178,-0.521,-0.051,-8.610,-4.895,4.681,3.669,25.080,-0.008,0.977,-0.135,0.000,-0.305,1.099,73.333,193889.000,1.000
-12.018,-0.295,-0.473,-9.551,-5.809,3.414,5.121,25.362,-0.007,0.974,-0.139,0.000,-0.397,1.129,73.333,193890.000,1.000
-11.458,-0.052,-0.824,-10.408,-6.677,1.534,5.981,24.873,-0.004,0.974,-0.138,0.153,-0.549,1.068,73.333,193891.000,1.000
-10.921,0.143,-1.190,-11.234,-7.663,-0.617,5.099,23.341,-0.002,0.976,-0.137,0.275,-0.702,0.946,73.333,193892.000,1.000
-10.731,0.153,-1.653,-12.238,-8.784,-2.539,2.635,21.054,-0.004,0.977,-0.136,0.305,-0.671,0.854,73.333,193893.000,1.000
-10.770,-0.113,-2.107,-13.470,-9.645,-3.756,0.104,18.851,-0.003,0.978,-0.136,0.366,-0.763,0.885,73.333,193894.000,1.000
-10.551,-0.630,-2.295,-14.691,-9.700,-4.094,-1.105,17.572,-0.003,0.978,-0.138,0.397,-0.885,0.916,73.333,193895.000,1.000
-9.794,-1.363,-2.110,-15.624,-8.840,-3.850,-0.715,17.564,-0.004,0.979,-0.136,0.397,-0.885,0.854,73.333,193896.000,1.000
-8.566,-2.271,-1.558,-16.023,-7.319,-3.562,0.778,18.887,-0.003,0.979,-0.138,0.427,-0.916,0.946,73.333,193897.000,1.000
-7.270,-3.391,-0.881,-15.955,-5.656,-3.759,2.887,21.154,-0.003,0.980,-0.137,0.427,-1.007,0.946,73.333,193898.000,1.000
-6.407,-4.874,-0.584,-15.832,-4.456,-4.632,4.970,23.357,-0.002,0.980,-0.136,0.305,-1.007,1.099,73.333,193899.000,1.000
-6.368,-6.758,-1.234,-16.122,-4.125,-5.924,5.973,24.474,-0.001,0.978,-0.137,0.336,-1.129,0.916,73.333,193900.000,1.000
-7.430,-8.861,-3.270,-17.164,-4.732,-7.328,5.049,24.152,-0.001,0.980,-0.134,0.366,-1.160,1.190,73.333,193901.000,1.000
-9.671,-10.821,-6.732,-18.983,-5.842,-8.555,2.568,23.022,-0.002,0.979,-0.132,0.397,-1.160,1.251,73.333,193902.000,1.000
-13.141,-12.252,-11.318,-21.356,-6.822,-9.106,0.463,22.392,-0.004,0.979,-0.132,0.336,-1.251,1.221,73.333,193903.000,1.000
-17.745,-12.857,-16.394,-23.812,-7.165,-8.391,0.750,23.412,-0.004,0.978,-0.133,0.244,-1.282,1.404,73.333,193904.000,1.000
-22.894,-12.467,-21.028,-25.686,-6.773,-6.254,3.795,26.207,-0.003,0.978,-0.134,0.275,-1.282,1.465,73.333,193905.000,1.000
-27.481,-11.152,-24.240,-26.333,-6.117,-3.335,8.072,29.669,-0.003,0.979,-0.134,0.275,-1.282,1.556,73.333,193906.000,1.000
-30.195,-9.267,-25.273,-25.345,-5.933,-0.754,11.123,32.139,-0.003,0.978,-0.135,0.305,-1.251,1.648,73.333,193907.000,1.000
-30.318,-7.356,-24.042,-22.962,-6.871,0.618,11.243,32.357,-0.002,0.978,-0.134,0.275,-1.373,1.617,73.333,193908.000,1.000
-28.034,-5.863,-21.071,-19.878,-8.910,0.761,8.494,30.200,-0.002,0.978,-0.137,0.244,-1.495,1.648,73.333,193909.000,1.000
-24.204,-4.918,-17.134,-16.774,-11.343,0.282,4.288,26.405,-0.001,0.979,-0.136,0.214,-1.465,1.587,73.333,193910.000,1.000
-19.935,-4.387,-12.966,-14.076,-13.281,-0.172,0.531,21.974,0.000,0.979,-0.136,0.153,-1.404,1.617,73.333,193911.000,1.000
-15.858,-3.799,-8.785,-11.629,-13.707,0.091,-0.699,18.370,-0.002,0.978,-0.136,0.092,-1.495,1.587,73.333,193912.000,1.000
-12.122,-2.501,-4.456,-8.963,-11.931,1.658,2.127,17.164,0.000,0.979,-0.135,0.092,-1.556,1.495,73.333,193913.000,1.000
-8.782,-0.121,-0.037,-5.962,-8.239,4.468,8.239,18.699,0.000,0.978,-0.136,0.092,-1.617,1.373,73.333,193914.000,1.000
-6.012,3.142,3.957,-3.251,-3.996,7.561,14.270,21.368,0.001,0.978,-0.133,0.122,-1.556,1.373,73.333,193915.000,1.000
-3.991,6.624,6.842,-1.781,-0.892,9.536,16.534,22.627,0.003,0.978,-0.135,0.061,-1.526,1.312,73.333,193916.000,1.000
-2.636,9.610,8.395,-1.895,0.269,9.529,13.742,21.063,0.003,0.977,-0.134,0.122,-1.373,1.312,73.333,193917.000,1.000
-1.853,11.518,8.774,-3.257,-0.331,7.542,7.490,17.143,0.003,0.978,-0.135,0.092,-1.434,1.282,73.333,193918.000,1.000
-1.639,11.902,8.203,-5.362,-2.082,4.122,0.261,12.257,0.001,0.978,-0.139,0.183,-1.434,1.343,73.333,193919.000,1.000
-1.996,10.631,6.853,-7.916,-4.326,0.098,-5.946,7.643,0.004,0.977,-0.137,0.214,-1.282,1.282,73.333,193920.000,1.000
-2.877,8.156,4.931,-10.770,-6.361,-3.441,-9.447,4.344,0.002,0.977,-0.135,0.275,-1.221,1.190,73.333,193921.000,1.000
-3.991,5.491,2.917,-13.519,-7.383,-5.324,-9.212,3.317,0.002,0.978,-0.134,0.336,-1.160,1.068,73.333,193922.000,1.000
