EEG 1,EEG 2,EEG 3,EEG 4,EEG 5,EEG 6,EEG 7,EEG 8,Accelerometer X,Accelerometer Y,Accelerometer Z,Gyroscope X,Gyroscope Y,Gyroscope Z,Battery Level,Counter,Validation Indicator
-4.209,-3.322,12.088,-3.009,1.444,-6.537,-12.127,-8.386,0.014,0.986,-0.065,-0.610,-0.641,0.946,73.333,123377.000,1.000
-5.404,-3.916,9.626,-4.321,2.341,-3.851,-7.707,-5.538,0.016,0.987,-0.068,-0.580,-0.732,0.946,73.333,123378.000,1.000
-6.578,-4.783,7.073,-5.725,3.013,-1.361,-3.854,-4.128,0.017,0.986,-0.068,-0.366,-0.885,0.793,73.333,123379.000,1.000
-6.971,-5.232,5.285,-6.643,3.331,0.545,-1.047,-3.859,0.018,0.986,-0.066,-0.275,-0.854,0.793,73.333,123380.000,1.000
-6.143,-4.878,4.613,-6.851,3.134,1.339,0.004,-4.379,0.018,0.986,-0.067,-0.183,-0.916,0.793,73.333,123381.000,1.000
-4.119,-3.877,4.862,-6.491,2.424,0.804,-0.961,-5.214,0.019,0.985,-0.068,-0.153,-0.854,0.824,73.333,123382.000,1.000
-1.346,-2.783,5.522,-5.843,1.419,-0.804,-3.448,-5.674,0.017,0.985,-0.068,-0.092,-0.824,0.763,73.333,123383.000,1.000
1.491,-2.173,6.089,-5.142,0.490,-2.876,-6.637,-5.144,0.019,0.987,-0.066,0.031,-0.885,0.885,73.333,123384.000,1.000
3.795,-2.146,6.428,-4.422,0.165,-4.388,-9.562,-3.377,0.019,0.987,-0.065,0.183,-0.916,0.977,73.333,123385.000,1.000
5.182,-2.373,6.650,-3.615,0.902,-4.198,-11.251,-0.745,0.018,0.988,-0.066,0.214,-0.854,0.977,73.333,123386.000,1.000
5.532,-2.470,6.815,-2.688,2.811,-1.938,-11.212,2.027,0.017,0.989,-0.063,0.244,-0.946,0.977,73.333,123387.000,1.000
4.918,-2.367,6.714,-1.841,5.333,1.260,-9.983,4.301,0.016,0.990,-0.061,0.275,-0.854,1.068,73.333,123388.000,1.000
3.592,-2.403,6.060,-1.430,7.395,3.341,-9.058,5.745,0.016,0.990,-0.063,0.244,-1.068,1.129,73.333,123389.000,1.000
2.023,-2.956,4.931,-1.610,8.107,2.867,-9.625,6.510,0.018,0.990,-0.067,0.305,-1.038,1.099,73.333,123390.000,1.000
0.685,-4.210,3.756,-2.244,7.178,-0.266,-11.567,7.024,0.018,0.992,-0.067,0.275,-0.946,1.099,73.333,123391.000,1.000
-0.007,-5.952,3.126,-2.913,5.059,-4.967,-13.777,7.767,0.018,0.992,-0.066,0.305,-1.038,1.251,73.333,123392.000,1.000
0.187,-7.549,3.517,-3.118,2.656,-9.630,-15.178,9.056,0.017,0.993,-0.065,0.244,-1.099,1.282,73.333,123393.000,1.000
1.150,-8.302,5.049,-2.602,0.839,-13.081,-15.652,10.765,0.017,0.992,-0.064,0.214,-1.068,1.404,73.333,123394.000,1.000
2.525,-7.671,7.620,-1.371,0.321,-14.876,-15.538,12.685,0.016,0.992,-0.063,0.183,-1.038,1.282,73.333,123395.000,1.000
3.837,-5.519,10.948,0.349,1.591,-15.002,-14.569,15.099,0.017,0.991,-0.063,0.122,-1.129,1.251,73.333,123396.000,1.000
4.642,-2.213,14.554,2.141,4.693,-13.556,-12.433,18.412,0.018,0.992,-0.066,0.061,-1.190,1.373,73.333,123397.000,1.000
4.583,1.485,17.748,3.421,8.979,-10.723,-9.741,22.090,0.018,0.992,-0.065,-0.031,-1.190,1.251,73.333,123398.000,1.000
3.510,4.683,19.848,3.740,13.483,-6.742,-7.317,24.985,0.018,0.992,-0.068,0.031,-1.190,1.251,73.333,123399.000,1.000
1.771,6.875,20.686,3.326,17.656,-1.745,-4.824,26.946,0.019,0.992,-0.066,0.031,-1.160,1.251,73.333,123400.000,1.000
0.179,8.057,20.675,2.982,21.337,3.923,-1.313,28.877,0.019,0.991,-0.067,0.031,-1.160,1.190,73.333,123401.000,1.000
-0.399,8.443,20.468,3.474,24.265,9.375,3.145,31.185,0.019,0.992,-0.064,-0.031,-1.190,1.251,73.333,123402.000,1.000
0.394,8.179,20.471,4.954,25.904,13.433,7.468,33.042,0.020,0.989,-0.066,-0.092,-1.129,1.190,73.333,123403.000,1.000
2.265,7.377,20.725,6.942,25.801,15.192,10.702,33.234,0.019,0.989,-0.065,0.000,-1.129,1.251,73.333,123404.000,1.000
4.700,6.417,21.213,8.787,24.000,14.372,12.427,31.236,0.019,0.987,-0.067,0.092,-1.099,1.190,73.333,123405.000,1.000
7.254,5.853,21.984,10.035,20.994,11.295,12.493,27.377,0.020,0.988,-0.069,0.153,-1.068,1.129,73.333,123406.000,1.000
9.690,6.153,23.199,10.686,17.644,7.015,11.018,22.616,0.020,0.989,-0.067,0.183,-1.099,1.129,73.333,123407.000,1.000
11.818,7.449,24.904,11.041,14.828,3.030,8.371,18.037,0.019,0.989,-0.065,0.153,-1.068,1.160,73.333,123408.000,1.000
13.280,9.283,26.708,11.293,13.014,0.299,5.012,14.368,0.018,0.987,-0.067,0.244,-0.946,1.099,73.333,123409.000,1.000
13.623,10.865,27.902,11.381,12.242,-1.130,1.874,11.986,0.020,0.988,-0.067,0.275,-0.916,1.129,73.333,123410.000,1.000
12.456,11.490,27.750,11.019,12.152,-1.705,-0.065,10.776,0.019,0.989,-0.065,0.183,-0.885,1.007,73.333,123411.000,1.000
9.758,10.895,25.948,9.974,12.241,-1.786,-0.927,10.234,0.019,0.988,-0.067,0.275,-0.854,1.007,73.333,123412.000,1.000
6.052,9.366,22.896,8.355,12.253,-1.406,-1.456,10.101,0.019,0.988,-0.069,0.336,-0.916,0.916,73.333,123413.000,1.000
2.288,7.483,19.525,6.621,12.315,-0.448,-1.981,10.515,0.017,0.989,-0.070,0.397,-0.977,0.916,73.333,123414.000,1.000
-0.525,5.816,16.820,5.306,12.636,1.038,-2.576,11.366,0.016,0.990,-0.069,0.366,-0.916,0.885,73.333,123415.000,1.000
-1.807,4.677,15.271,4.616,13.132,2.646,-3.375,11.978,0.017,0.989,-0.067,0.366,-0.946,0.793,73.333,123416.000,1.000
-1.427,4.255,14.927,4.487,13.634,3.864,-4.194,11.795,0.017,0.992,-0.063,0.397,-0.916,0.763,73.333,123417.000,1.000
0.443,4.667,15.610,4.787,14.070,4.366,-4.525,10.682,0.018,0.991,-0.064,0.244,-0.946,0.702,73.333,123418.000,1.000
3.339,5.652,16.930,5.346,14.353,4.080,-4.278,8.637,0.016,0.992,-0.067,0.244,-0.916,0.671,73.333,123419.000,1.000
6.570,6.594,18.348,5.993,14.370,3.201,-3.878,5.940,0.015,0.992,-0.062,0.122,-1.038,0.610,73.333,123420.000,1.000
9.230,6.765,19.215,6.477,14.019,1.973,-3.670,3.295,0.015,0.995,-0.063,0.031,-1.068,0.763,73.333,123421.000,1.000
10.521,5.763,19.061,6.603,13.435,0.672,-3.494,1.732,0.014,0.993,-0.065,0.031,-1.099,0.732,73.333,123422.000,1.000
10.098,3.816,17.801,6.345,12.969,-0.374,-2.832,2.082,0.014,0.993,-0.067,0.000,-1.160,0.732,73.333,123423.000,1.000
8.114,1.553,15.620,5.739,12.835,-0.973,-1.529,4.263,0.012,0.994,-0.066,-0.061,-1.221,0.702,73.333,123424.000,1.000
5.037,-0.401,12.841,4.807,12.924,-1.118,0.000,7.240,0.012,0.994,-0.064,-0.275,-1.312,0.763,73.333,123425.000,1.000
1.403,-1.796,9.792,3.587,12.923,-0.908,1.409,9.760,0.012,0.993,-0.064,-0.366,-1.343,0.641,73.333,123426.000,1.000
-2.164,-2.678,6.897,2.359,12.787,-0.367,3.013,11.429,0.014,0.993,-0.065,-0.427,-1.434,0.610,73.333,123427.000,1.000
-5.165,-3.251,4.483,1.418,12.688,0.461,5.312,12.713,0.013,0.991,-0.064,-0.488,-1.556,0.610,73.333,123428.000,1.000
-7.496,-3.926,2.480,0.663,12.601,1.356,7.976,13.935,0.014,0.990,-0.065,-0.488,-1.617,0.702,73.333,123429.000,1.000
-9.229,-5.041,0.685,-0.225,12.340,2.150,9.993,14.834,0.014,0.991,-0.064,-0.458,-1.740,0.702,73.333,123430.000,1.000
-10.466,-6.687,-1.008,-1.546,11.654,2.670,10.391,14.670,0.014,0.991,-0.062,-0.488,-1.648,0.793,73.333,123431.000,1.000
-11.395,-8.779,-2.634,-3.494,10.308,2.569,8.609,12.672,0.013,0.990,-0.065,-0.519,-1.862,0.885,73.333,123432.000,1.000
-12.343,-11.109,-4.318,-6.165,8.158,1.655,4.972,8.665,0.014,0.989,-0.063,-0.549,-1.892,0.946,73.333,123433.000,1.000
-13.489,-13.329,-6.207,-9.475,5.348,0.374,0.892,3.420,0.014,0.989,-0.065,-0.671,-1.862,0.885,73.333,123434.000,1.000
-14.552,-14.977,-8.253,-13.138,2.299,-0.513,-1.912,-1.696,0.016,0.989,-0.064,-0.549,-1.953,1.007,73.333,123435.000,1.000
-15.119,-15.882,-10.325,-16.914,-0.757,-0.978,-2.997,-5.721,0.017,0.990,-0.064,-0.580,-2.045,0.885,73.333,123436.000,1.000
-14.931,-16.171,-12.139,-20.489,-3.772,-1.780,-3.656,-8.406,0.013,0.989,-0.063,-0.519,-1.984,0.885,73.333,123437.000,1.000
-13.901,-15.893,-13.154,-23.207,-6.481,-3.474,-5.276,-9.749,0.016,0.988,-0.066,-0.549,-2.045,0.946,73.333,123438.000,1.000
-12.115,-14.967,-12.760,-24.191,-8.272,-5.734,-7.842,-9.778,0.018,0.987,-0.063,-0.427,-1.953,0.977,73.333,123439.000,1.000
-9.831,-13.296,-10.608,-22.780,-8.411,-7.411,-10.128,-8.565,0.019,0.987,-0.063,-0.427,-2.014,1.038,73.333,123440.000,1.000
-7.616,-11.043,-7.023,-19.101,-6.668,-7.393,-10.974,-6.405,0.016,0.987,-0.063,-0.458,-1.953,1.129,73.333,123441.000,1.000
-6.136,-8.688,-2.954,-14.097,-3.573,-5.469,-10.063,-3.806,0.017,0.988,-0.062,-0.488,-1.953,1.038,73.333,123442.000,1.000
-5.823,-6.687,0.527,-9.003,-0.117,-2.476,-7.612,-1.111,0.018,0.990,-0.061,-0.397,-1.862,1.160,73.333,123443.000,1.000
-6.700,-5.211,2.735,-4.805,2.726,0.126,-4.535,1.613,0.019,0.990,-0.062,-0.488,-1.801,1.190,73.333,123444.000,1.000
-8.307,-4.090,3.642,-1.988,4.349,1.018,-2.592,4.188,0.018,0.990,-0.061,-0.336,-1.801,1.221,73.333,123445.000,1.000
-9.903,-3.034,3.685,-0.542,4.695,-0.182,-2.959,6.295,0.017,0.991,-0.063,-0.275,-1.709,1.190,73.333,123446.000,1.000
-10.663,-1.763,3.537,0.019,4.431,-2.531,-4.831,8.023,0.021,0.990,-0.061,-0.244,-1.587,1.251,73.333,123447.000,1.000
-10.088,-0.229,3.681,0.247,4.455,-4.561,-6.367,9.744,0.018,0.989,-0.061,-0.275,-1.587,1.221,73.333,123448.000,1.000
-8.376,1.105,4.022,0.292,5.150,-5.547,-6.697,11.516,0.019,0.990,-0.063,-0.244,-1.465,1.190,73.333,123449.000,1.000
-6.286,1.560,4.064,-0.012,6.325,-5.542,-6.096,13.214,0.020,0.991,-0.062,-0.305,-1.404,1.129,73.333,123450.000,1.000
-4.826,0.705,3.263,-0.929,7.508,-4.688,-4.790,14.869,0.021,0.990,-0.061,-0.214,-1.251,1.221,73.333,123451.000,1.000
-4.741,-1.278,1.429,-2.578,8.346,-3.024,-2.473,16.746,0.021,0.991,-0.063,-0.122,-1.221,1.282,73.333,123452.000,1.000
-6.143,-3.606,-1.146,-4.833,8.732,-0.807,1.098,19.093,0.019,0.991,-0.061,-0.275,-1.129,1.160,73.333,123453.000,1.000
-8.462,-5.369,-3.853,-7.330,8.684,1.352,5.147,21.812,0.019,0.990,-0.061,-0.122,-1.068,1.129,73.333,123454.000,1.000
-10.643,-5.889,-5.947,-9.485,8.284,2.802,8.023,24.517,0.017,0.989,-0.062,-0.214,-1.007,1.068,73.333,123455.000,1.000
-11.658,-4.955,-6.866,-10.730,7.570,3.047,8.318,26.636,0.019,0.990,-0.064,-0.183,-1.038,1.160,73.333,123456.000,1.000
-10.906,-2.926,-6.415,-10.764,6.512,1.856,5.455,27.381,0.021,0.990,-0.061,-0.061,-0.885,1.160,73.333,123457.000,1.000
-8.497,-0.675,-4.857,-9.784,4.998,-0.678,-0.107,25.961,0.021,0.990,-0.059,-0.092,-0.824,1.160,73.333,123458.000,1.000
-5.239,0.716,-2.796,-8.310,3.041,-4.144,-6.707,22.510,0.019,0.992,-0.060,-0.061,-0.732,1.343,73.333,123459.000,1.000
-2.127,0.625,-0.756,-6.704,1.057,-7.806,-11.962,18.595,0.021,0.990,-0.059,0.031,-0.641,1.251,73.333,123460.000,1.000
0.063,-0.847,0.930,-5.102,-0.415,-10.874,-14.031,16.152,0.021,0.990,-0.061,0.092,-0.549,1.160,73.333,123461.000,1.000
0.966,-3.152,2.050,-3.616,-1.100,-12.786,-12.481,16.204,0.019,0.988,-0.062,0.153,-0.580,1.160,73.333,123462.000,1.000
0.544,-5.765,2.383,-2.585,-1.290,-13.530,-8.280,18.253,0.019,0.988,-0.062,0.336,-0.488,1.068,73.333,123463.000,1.000
-0.942,-8.315,1.816,-2.502,-1.704,-13.712,-3.510,20.296,0.018,0.989,-0.061,0.427,-0.427,1.129,73.333,123464.000,1.000
-2.836,-10.252,0.686,-3.573,-2.873,-13.972,-0.522,19.919,0.018,0.990,-0.061,0.397,-0.488,1.129,73.333,123465.000,1.000
-4.419,-10.965,-0.396,-5.579,-4.825,-14.549,-0.873,15.901,0.018,0.991,-0.063,0.488,-0.336,1.007,73.333,123466.000,1.000
-5.243,-10.194,-0.901,-7.952,-7.016,-15.241,-4.561,9.210,0.018,0.991,-0.061,0.519,-0.305,1.129,73.333,123467.000,1.000
-5.323,-8.269,-0.720,-10.082,-8.564,-15.625,-9.777,2.448,0.018,0.992,-0.060,0.580,-0.336,1.160,73.333,123468.000,1.000
-5.152,-6.067,-0.303,-11.690,-8.763,-15.362,-13.927,-1.914,0.017,0.991,-0.059,0.671,-0.366,1.190,73.333,123469.000,1.000
-5.393,-4.529,-0.330,-12.903,-7.417,-14.258,-15.169,-2.916,0.017,0.990,-0.061,0.702,-0.275,1.251,73.333,123470.000,1.000
-6.530,-4.199,-1.306,-14.039,-4.849,-12.229,-13.049,-1.229,0.017,0.990,-0.060,0.702,-0.336,1.129,73.333,123471.000,1.000
-8.438,-4.888,-3.108,-15.125,-1.517,-9.213,-8.358,1.814,0.016,0.991,-0.061,0.793,-0.305,1.160,73.333,123472.000,1.000
-10.498,-5.895,-5.113,-15.894,1.962,-5.563,-2.922,4.934,0.014,0.990,-0.063,0.885,-0.427,1.221,73.333,123473.000,1.000
-12.137,-6.685,-6.777,-16.213,4.658,-2.359,0.960,7.083,0.014,0.991,-0.064,0.885,-0.549,1.312,73.333,123474.000,1.000
-13.034,-7.054,-7.825,-16.116,5.863,-0.603,2.066,7.850,0.014,0.991,-0.061,0.885,-0.519,1.251,73.333,123475.000,1.000
-13.127,-6.993,-8.204,-15.609,5.611,-0.479,1.178,7.682,0.016,0.991,-0.061,0.916,-0.488,1.282,73.333,123476.000,1.000
-12.520,-6.542,-7.895,-14.587,4.607,-1.548,-0.078,7.440,0.017,0.991,-0.061,0.977,-0.549,1.160,73.333,123477.000,1.000
-11.513,-5.824,-6.925,-13.069,3.557,-3.271,-0.980,7.475,0.017,0.991,-0.061,1.007,-0.641,1.160,73.333,123478.000,1.000
-10.602,-5.165,-5.524,-11.335,2.669,-5.302,-2.096,7.284,0.015,0.991,-0.062,1.068,-0.671,1.160,73.333,123479.000,1.000
-10.202,-4.875,-4.015,-9.618,1.919,-7.422,-3.940,6.520,0.014,0.991,-0.063,1.068,-0.580,1.282,73.333,123480.000,1.000
-10.495,-5.093,-2.687,-7.900,1.373,-9.466,-5.855,5.843,0.015,0.992,-0.064,1.068,-0.671,1.312,73.333,123481.000,1.000
-11.295,-5.817,-1.639,-5.996,1.198,-11.258,-6.783,6.156,0.016,0.991,-0.063,1.099,-0.793,1.251,73.333,123482.000,1.000
-12.228,-7.023,-0.936,-3.935,1.255,-12.677,-6.621,7.079,0.017,0.990,-0.062,1.068,-0.793,1.221,73.333,123483.000,1.000
-13.100,-8.638,-0.802,-2.143,1.027,-13.745,-6.390,7.020,0.016,0.991,-0.063,1.068,-0.732,1.282,73.333,123484.000,1.000
-14.014,-10.346,-1.391,-1.129,0.083,-14.566,-7.312,4.735,0.016,0.992,-0.061,1.190,-0.793,1.282,73.333,123485.000,1.000
-15.348,-11.835,-2.679,-1.287,-1.761,-15.431,-10.104,0.125,0.017,0.990,-0.063,1.129,-0.885,1.343,73.333,123486.000,1.000
-17.343,-12.944,-4.337,-2.629,-4.281,-16.545,-14.592,-5.814,0.017,0.989,-0.065,1.068,-0.824,1.282,73.333,123487.000,1.000
-19.642,-13.343,-5.621,-4.537,-6.649,-17.415,-19.210,-11.162,0.018,0.991,-0.067,1.190,-0.854,1.312,73.333,123488.000,1.000
-21.309,-12.463,-5.567,-5.916,-7.579,-16.793,-21.326,-13.597,0.016,0.989,-0.065,1.190,-0.885,1.221,73.333,123489.000,1.000
-21.354,-9.891,-3.511,-5.808,-6.017,-13.481,-18.884,-11.630,0.017,0.990,-0.064,1.160,-1.007,1.251,73.333,123490.000,1.000
-19.537,-6.023,0.187,-4.178,-2.171,-7.741,-12.481,-6.088,0.017,0.991,-0.065,1.160,-0.916,1.160,73.333,123491.000,1.000
-16.480,-2.036,4.263,-1.877,2.503,-1.662,-5.509,0.217,0.016,0.991,-0.064,1.160,-0.977,1.129,73.333,123492.000,1.000
-13.218,0.934,7.391,0.084,6.394,2.293,-1.305,4.695,0.017,0.991,-0.064,1.099,-1.007,1.007,73.333,123493.000,1.000
-10.638,2.480,8.975,1.203,8.789,3.091,-0.627,6.663,0.016,0.991,-0.066,1.160,-0.946,1.129,73.333,123494.000,1.000
-9.054,2.998,9.378,1.670,9.986,1.487,-1.990,7.038,0.016,0.990,-0.068,1.099,-0.977,1.099,73.333,123495.000,1.000
-8.413,3.022,9.227,1.813,10.480,-1.110,-3.592,6.810,0.017,0.991,-0.069,1.038,-0.946,1.099,73.333,123496.000,1.000
-8.550,2.823,8.865,1.721,10.533,-3.516,-4.596,6.292,0.019,0.992,-0.066,1.099,-1.007,1.160,73.333,123497.000,1.000
-9.150,2.652,8.465,1.415,10.381,-4.886,-4.946,5.554,0.017,0.990,-0.065,1.007,-0.946,1.129,73.333,123498.000,1.000
-9.606,2.908,8.370,1.187,10.486,-4.720,-4.640,4.999,0.017,0.989,-0.065,0.946,-0.977,1.099,73.333,123499.000,1.000
-9.154,3.983,9.069,1.514,11.372,-2.969,-3.404,5.246,0.016,0.988,-0.067,0.885,-1.038,1.038,73.333,123500.000,1.000
-7.469,5.843,10.638,2.502,13.037,-0.244,-1.132,6.384,0.015,0.989,-0.066,0.854,-1.038,1.007,73.333,123501.000,1.000
-4.895,7.932,12.576,3.771,14.899,2.475,1.717,7.844,0.015,0.990,-0.069,0.824,-1.160,1.007,73.333,123502.000,1.000
-2.333,9.355,14.053,4.738,16.149,4.343,4.461,9.049,0.016,0.991,-0.065,0.702,-1.129,1.038,73.333,123503.000,1.000
-0.909,9.142,14.220,4.884,16.087,4.832,6.354,9.856,0.014,0.990,-0.066,0.702,-1.160,1.007,73.333,123504.000,1.000
-1.516,6.662,12.486,3.802,14.271,3.699,6.436,10.130,0.015,0.990,-0.067,0.641,-1.221,1.038,73.333,123505.000,1.000
-4.594,1.851,8.577,1.058,10.440,0.841,3.759,9.125,0.018,0.989,-0.067,0.641,-1.190,1.038,73.333,123506.000,1.000
-9.731,-4.538,2.872,-3.362,4.897,-3.430,-1.790,6.341,0.016,0.989,-0.067,0.641,-1.312,1.038,73.333,123507.000,1.000
-15.597,-10.964,-3.468,-8.615,-1.190,-8.073,-8.732,2.681,0.017,0.988,-0.068,0.549,-1.190,0.946,73.333,123508.000,1.000
-20.548,-15.806,-8.978,-13.302,-6.227,-11.822,-14.577,0.073,0.017,0.988,-0.068,0.549,-1.251,1.007,73.333,123509.000,1.000
-23.295,-18.045,-12.398,-16.137,-8.889,-13.929,-17.240,0.155,0.017,0.987,-0.068,0.549,-1.251,1.038,73.333,123510.000,1.000
-23.345,-17.583,-13.093,-16.548,-8.700,-14.355,-15.979,3.223,0.017,0.988,-0.068,0.458,-1.282,1.068,73.333,123511.000,1.000
-20.919,-15.013,-11.136,-14.760,-6.059,-13.294,-11.595,8.230,0.019,0.989,-0.070,0.580,-1.282,0.977,73.333,123512.000,1.000
-16.784,-11.230,-7.301,-11.620,-2.035,-10.977,-6.009,13.464,0.019,0.990,-0.068,0.580,-1.343,1.038,73.333,123513.000,1.000
-12.152,-7.260,-2.919,-8.288,1.952,-8.038,-1.501,17.402,0.019,0.992,-0.068,0.519,-1.343,1.190,73.333,123514.000,1.000
-8.249,-3.997,0.704,-5.715,4.730,-5.570,0.268,19.476,0.020,0.992,-0.067,0.488,-1.312,1.190,73.333,123515.000,1.000
-5.791,-1.924,2.870,-4.286,5.822,-4.546,-0.898,20.134,0.016,0.993,-0.066,0.397,-1.343,1.221,73.333,123516.000,1.000
-4.640,-0.876,3.821,-3.665,5.674,-4.889,-3.530,20.421,0.015,0.992,-0.071,0.275,-1.221,1.190,73.333,123517.000,1.000
-4.156,-0.250,4.344,-3.183,5.250,-5.447,-5.221,21.320,0.014,0.991,-0.071,0.214,-1.190,1.099,73.333,123518.000,1.000
-3.854,0.367,4.999,-2.462,5.254,-5.170,-4.381,23.109,0.014,0.987,-0.067,0.153,-1.282,1.221,73.333,123519.000,1.000
-3.518,1.042,5.903,-1.536,5.839,-3.903,-1.481,25.358,0.015,0.989,-0.068,0.092,-1.312,1.099,73.333,123520.000,1.000
-3.098,1.692,6.891,-0.618,6.768,-2.173,1.610,27.464,0.015,0.990,-0.066,0.122,-1.373,0.977,73.333,123521.000,1.000
-2.494,2.284,7.880,0.219,7.806,-0.585,3.197,29.180,0.018,0.991,-0.068,0.031,-1.373,1.038,73.333,123522.000,1.000
-1.559,2.898,8.923,1.025,8.791,0.447,2.723,30.404,0.019,0.991,-0.069,0.061,-1.343,0.946,73.333,123523.000,1.000
-0.179,3.666,10.056,1.834,9.609,0.791,0.817,30.944,0.021,0.991,-0.071,-0.031,-1.160,1.068,73.333,123524.000,1.000
1.721,4.740,11.285,2.739,10.319,0.719,-1.206,30.934,0.022,0.992,-0.070,-0.183,-1.099,1.038,73.333,123525.000,1.000
3.901,6.036,12.426,3.821,10.966,0.735,-2.011,31.005,0.021,0.989,-0.069,-0.092,-0.977,1.221,73.333,123526.000,1.000
5.813,7.227,13.205,5.098,11.570,1.318,-0.842,31.793,0.022,0.983,-0.069,-0.061,-0.854,1.312,73.333,123527.000,1.000
6.816,7.887,13.382,6.348,11.988,2.372,1.763,32.847,0.022,0.982,-0.071,-0.031,-0.885,1.373,73.333,123528.000,1.000
6.463,7.537,12.802,7.082,11.824,2.943,3.777,32.418,0.022,0.981,-0.071,0.122,-0.702,1.343,73.333,123529.000,1.000
4.844,6.054,11.657,7.032,10.918,2.212,3.537,29.247,0.022,0.982,-0.071,0.275,-0.610,1.465,73.333,123530.000,1.000
2.476,3.832,10.339,6.331,9.543,0.403,1.512,24.014,0.022,0.987,-0.070,0.305,-0.549,1.465,73.333,123531.000,1.000
-0.028,1.432,9.063,5.281,8.041,-1.711,-0.792,18.632,0.022,0.990,-0.069,0.427,-0.397,1.465,73.333,123532.000,1.000
-2.208,-0.762,7.773,4.099,6.498,-3.632,-2.508,14.715,0.021,0.995,-0.066,0.366,-0.366,1.404,73.333,123533.000,1.000
-3.736,-2.458,6.522,2.991,5.102,-4.907,-3.046,13.086,0.023,0.996,-0.068,0.336,-0.366,1.465,73.333,123534.000,1.000
-4.325,-3.196,5.756,2.314,4.445,-4.729,-1.676,13.772,0.023,0.997,-0.067,0.305,-0.305,1.495,73.333,123535.000,1.000
-4.061,-2.693,5.792,2.231,4.819,-2.755,1.063,15.430,0.021,0.996,-0.070,0.122,-0.305,1.648,73.333,123536.000,1.000
-3.422,-1.185,6.483,2.586,5.856,0.272,2.916,15.942,0.020,0.995,-0.069,0.031,-0.305,1.556,73.333,123537.000,1.000
-2.937,0.751,7.409,3.115,7.009,3.163,2.272,14.277,0.017,0.992,-0.070,0.000,-0.214,1.434,73.333,123538.000,1.000
-2.878,2.518,8.209,3.635,8.050,5.318,-0.161,11.178,0.015,0.994,-0.070,-0.031,-0.214,1.312,73.333,123539.000,1.000
-3.153,3.786,8.822,4.115,9.147,7.067,-2.198,8.277,0.012,0.996,-0.067,-0.092,-0.336,1.129,73.333,123540.000,1.000
-3.572,4.456,9.362,4.549,10.553,9.009,-1.828,6.965,0.010,0.996,-0.069,-0.153,-0.336,0.977,73.333,123541.000,1.000
-3.950,4.609,10.024,5.003,12.382,11.196,1.496,7.824,0.008,0.995,-0.066,-0.214,-0.519,0.763,73.333,123542.000,1.000
-4.250,4.370,10.856,5.474,14.307,12.881,6.284,10.189,0.007,0.996,-0.063,-0.275,-0.641,0.610,73.333,123543.000,1.000
-4.701,3.677,11.511,5.663,15.484,12.992,9.759,12.322,0.010,0.995,-0.066,-0.427,-0.702,0.488,73.333,123544.000,1.000
-5.534,2.429,11.508,5.205,15.143,10.948,9.793,12.645,0.010,0.995,-0.069,-0.488,-0.946,0.305,73.333,123545.000,1.000
-6.781,0.694,10.573,3.975,13.139,7.083,6.404,10.774,0.013,0.994,-0.068,-0.549,-1.099,0.305,73.333,123546.000,1.000
-8.170,-1.128,8.959,2.291,10.264,2.758,1.756,7.783,0.013,0.993,-0.068,-0.580,-1.251,0.275,73.333,123547.000,1.000
-9.250,-2.421,7.334,0.717,7.822,-0.172,-1.269,5.487,0.015,0.992,-0.070,-0.549,-1.190,0.244,73.333,123548.000,1.000
-9.596,-2.744,6.357,-0.263,6.798,-0.424,-1.142,5.102,0.015,0.992,-0.063,-0.488,-1.251,0.244,73.333,123549.000,1.000
-8.889,-1.967,6.444,-0.330,7.486,2.156,1.550,6.486,0.012,0.991,-0.061,-0.366,-1.251,0.397,73.333,123550.000,1.000
-7.200,-0.379,7.500,0.411,9.418,6.531,5.063,8.326,0.011,0.991,-0.064,-0.336,-1.373,0.580,73.333,123551.000,1.000
-4.967,1.433,9.060,1.517,11.820,11.078,8.108,9.397,0.010,0.991,-0.063,-0.397,-1.526,0.793,73.333,123552.000,1.000
-2.772,2.926,10.670,2.532,14.068,14.500,10.796,9.540,0.009,0.991,-0.063,-0.458,-1.617,0.824,73.333,123553.000,1.000
-1.149,3.734,11.998,3.109,15.631,16.101,13.434,9.172,0.011,0.991,-0.062,-0.458,-1.709,1.007,73.333,123554.000,1.000
-0.287,3.741,12.870,3.073,16.011,15.638,14.893,8.393,0.009,0.991,-0.062,-0.427,-1.770,1.190,73.333,123555.000,1.000
0.021,3.145,13.293,2.468,15.043,13.389,13.519,6.927,0.011,0.989,-0.062,-0.488,-1.862,1.221,73.333,123556.000,1.000
0.342,2.536,13.654,1.741,13.388,10.464,9.264,4.836,0.013,0.990,-0.063,-0.427,-1.892,1.404,73.333,123557.000,1.000
1.172,2.511,14.392,1.440,12.063,8.148,3.920,2.680,0.013,0.990,-0.062,-0.458,-1.953,1.495,73.333,123558.000,1.000
2.454,3.019,15.434,1.689,11.505,6.785,-0.429,1.044,0.015,0.990,-0.061,-0.366,-1.953,1.556,73.333,123559.000,1.000
3.807,3.544,16.415,2.336,11.628,6.007,-2.226,0.542,0.017,0.989,-0.063,-0.397,-1.892,1.526,73.333,123560.000,1.000
4.940,3.696,17.141,3.221,12.201,5.504,-0.729,1.697,0.015,0.990,-0.063,-0.397,-1.923,1.556,73.333,123561.000,1.000
5.931,3.514,17.797,4.244,12.939,5.155,3.050,4.321,0.016,0.990,-0.061,-0.305,-1.831,1.526,73.333,123562.000,1.000
6.978,3.320,18.649,5.243,13.383,4.779,6.394,7.237,0.019,0.988,-0.059,-0.244,-1.862,1.617,73.333,123563.000,1.000
7.969,3.308,19.613,5.956,13.098,4.089,6.858,9.115,0.020,0.987,-0.062,-0.153,-1.678,1.648,73.333,123564.000,1.000
8.626,3.510,20.371,6.246,12.147,3.057,4.224,9.654,0.022,0.983,-0.061,-0.122,-1.556,1.617,73.333,123565.000,1.000
8.781,3.856,20.642,6.164,10.991,2.004,0.301,9.576,0.020,0.982,-0.061,-0.061,-1.465,1.465,73.333,123566.000,1.000
8.619,4.270,20.493,5.978,10.159,1.348,-2.780,9.891,0.021,0.982,-0.060,0.061,-1.373,1.373,73.333,123567.000,1.000
8.585,4.776,20.332,6.084,10.059,1.428,-3.388,11.554,0.023,0.981,-0.062,0.244,-1.221,1.404,73.333,123568.000,1.000
9.000,5.438,20.508,6.743,10.836,2.460,-0.812,15.172,0.023,0.981,-0.062,0.366,-1.068,1.343,73.333,123569.000,1.000
9.721,6.166,20.941,7.753,12.071,4.242,3.621,19.923,0.024,0.982,-0.061,0.580,-0.854,1.343,73.333,123570.000,1.000
10.068,6.512,21.050,8.360,12.687,5.731,6.643,23.221,0.024,0.981,-0.062,0.671,-0.702,1.221,73.333,123571.000,1.000
9.405,5.989,20.349,7.965,11.888,5.683,5.577,22.934,0.021,0.982,-0.064,0.793,-0.488,1.190,73.333,123572.000,1.000
7.619,4.606,18.911,6.698,9.973,3.926,0.830,19.506,0.023,0.983,-0.064,0.885,-0.397,1.068,73.333,123573.000,1.000
5.194,2.925,17.328,5.313,8.121,1.686,-4.428,15.511,0.022,0.984,-0.067,1.099,-0.305,1.038,73.333,123574.000,1.000
3.073,1.742,16.483,4.785,7.609,0.528,-6.948,13.809,0.021,0.983,-0.064,1.129,-0.153,0.977,73.333,123575.000,1.000
1.992,1.393,16.888,5.587,8.809,0.891,-5.923,15.776,0.021,0.985,-0.064,1.190,-0.061,1.068,73.333,123576.000,1.000
2.036,1.567,18.321,7.372,11.029,1.979,-3.211,20.721,0.020,0.986,-0.065,1.221,0.031,1.038,73.333,123577.000,1.000
2.730,1.772,20.053,9.285,13.135,2.811,-1.307,26.503,0.020,0.989,-0.061,1.282,0.153,1.068,73.333,123578.000,1.000
3.422,1.727,21.336,10.535,14.293,3.018,-1.366,30.854,0.021,0.990,-0.063,1.251,0.244,1.221,73.333,123579.000,1.000
3.733,1.572,21.900,10.907,14.453,2.961,-2.738,32.763,0.019,0.991,-0.065,1.251,0.305,1.068,73.333,123580.000,1.000
3.535,1.636,21.836,10.638,14.081,3.151,-3.920,32.691,0.018,0.992,-0.064,1.221,0.305,1.099,73.333,123581.000,1.000
2.837,2.071,21.330,10.072,13.722,3.725,-3.724,31.775,0.017,0.995,-0.064,1.129,0.305,1.312,73.333,123582.000,1.000
1.724,2.714,20.500,9.365,13.662,4.395,-1.764,30.737,0.016,0.996,-0.063,1.099,0.336,1.312,73.333,123583.000,1.000
0.359,3.180,19.386,8.413,13.774,4.645,1.090,29.290,0.013,0.995,-0.062,1.038,0.214,1.373,73.333,123584.000,1.000
-0.918,3.196,18.143,7.129,13.779,4.192,3.046,26.704,0.013,0.996,-0.061,0.824,0.214,1.465,73.333,123585.000,1.000
-1.786,2.801,17.012,5.637,13.547,3.338,3.084,22.870,0.011,0.996,-0.061,0.580,0.183,1.343,73.333,123586.000,1.000
-2.012,2.379,16.330,4.397,13.329,2.888,1.779,18.731,0.009,0.994,-0.064,0.397,0.122,1.343,73.333,123587.000,1.000
-1.497,2.410,16.432,3.927,13.503,3.480,0.283,15.488,0.009,0.990,-0.064,0.275,0.000,1.312,73.333,123588.000,1.000
-0.380,3.031,17.414,4.388,14.172,4.942,-0.828,13.626,0.011,0.989,-0.066,0.183,-0.183,1.312,73.333,123589.000,1.000
1.048,4.015,19.099,5.557,15.177,6.481,-1.574,12.901,0.014,0.990,-0.068,0.244,-0.305,1.404,73.333,123590.000,1.000
2.286,4.896,20.882,6.826,16.036,7.240,-2.099,12.770,0.015,0.991,-0.070,0.275,-0.336,1.495,73.333,123591.000,1.000
2.748,5.157,21.862,7.419,16.090,6.701,-2.658,12.745,0.017,0.994,-0.065,0.275,-0.427,1.526,73.333,123592.000,1.000
1.970,4.318,21.168,6.684,14.713,4.687,-3.689,12.211,0.018,0.998,-0.068,0.183,-0.427,1.648,73.333,123593.000,1.000
-0.165,2.047,18.370,4.414,11.646,1.354,-5.281,10.537,0.018,0.996,-0.066,0.061,-0.427,1.648,73.333,123594.000,1.000
-3.218,-1.385,13.951,1.192,7.475,-2.528,-6.555,7.976,0.020,0.993,-0.067,-0.092,-0.458,1.770,73.333,123595.000,1.000
-6.504,-5.118,9.067,-1.951,3.315,-5.872,-6.477,5.564,0.021,0.990,-0.064,-0.153,-0.488,1.831,73.333,123596.000,1.000
-9.348,-8.169,5.022,-4.113,0.160,-7.943,-5.291,4.047,0.022,0.990,-0.066,-0.092,-0.641,1.923,73.333,123597.000,1.000
-11.178,-9.808,2.761,-4.887,-1.497,-8.582,-4.214,3.437,0.022,0.990,-0.066,-0.031,-0.519,2.075,73.333,123598.000,1.000
-11.689,-9.801,2.511,-4.395,-1.694,-8.008,-4.128,3.558,0.020,0.993,-0.063,-0.031,-0.488,1.984,73.333,123599.000,1.000
-11.013,-8.522,3.744,-3.164,-0.902,-6.680,-5.001,4.464,0.016,0.994,-0.060,-0.031,-0.549,1.862,73.333,123600.000,1.000
-9.904,-6.948,5.261,-2.116,-0.054,-5.396,-6.242,5.968,0.013,0.994,-0.063,-0.122,-0.549,1.678,73.333,123601.000,1.000
-9.334,-6.128,5.855,-2.037,0.038,-4.854,-7.183,7.637,0.013,0.992,-0.063,-0.092,-0.580,1.465,73.333,123602.000,1.000
-9.955,-6.584,4.982,-3.009,-0.727,-5.142,-7.305,9.343,0.014,0.989,-0.063,-0.061,-0.793,1.282,73.333,123603.000,1.000
-11.984,-8.323,2.742,-4.569,-1.978,-6.055,-6.787,11.097,0.016,0.989,-0.065,0.000,-0.946,1.129,73.333,123604.000,1.000
-15.150,-10.991,-0.313,-6.144,-3.308,-7.348,-6.539,12.692,0.017,0.985,-0.066,0.153,-1.099,0.885,73.333,123605.000,1.000
-18.821,-14.050,-3.423,-7.378,-4.455,-8.608,-7.097,13.919,0.018,0.986,-0.068,0.183,-1.099,0.702,73.333,123606.000,1.000
-22.152,-16.922,-5.855,-8.142,-5.179,-9.359,-8.112,14.971,0.017,0.986,-0.065,0.214,-1.068,0.549,73.333,123607.000,1.000
-24.460,-19.178,-7.274,-8.515,-5.413,-9.556,-9.078,16.185,0.019,0.985,-0.070,0.305,-1.038,0.580,73.333,123608.000,1.000
-25.588,-20.651,-7.879,-8.699,-5.338,-9.662,-9.942,17.656,0.020,0.988,-0.067,0.397,-1.068,0.519,73.333,123609.000,1.000
-25.811,-21.269,-7.991,-8.740,-5.008,-10.064,-10.561,19.502,0.020,0.989,-0.067,0.549,-1.068,0.671,73.333,123610.000,1.000
-25.653,-21.087,-7.874,-8.596,-4.340,-10.746,-10.156,21.959,0.020,0.989,-0.065,0.519,-1.038,0.671,73.333,123611.000,1.000
-25.449,-20.314,-7.595,-8.208,-3.311,-11.329,-8.144,25.009,0.018,0.990,-0.067,0.519,-1.129,0.763,73.333,123612.000,1.000
-25.145,-19.179,-6.989,-7.570,-2.155,-11.368,-5.057,28.064,0.018,0.988,-0.067,0.519,-1.129,0.732,73.333,123613.000,1.000
-24.532,-17.904,-5.883,-6.804,-1.297,-10.769,-2.247,30.212,0.019,0.990,-0.065,0.641,-1.190,0.763,73.333,123614.000,1.000
-23.430,-16.629,-4.253,-6.017,-1.018,-9.859,-0.919,30.790,0.019,0.990,-0.064,0.610,-1.190,0.916,73.333,123615.000,1.000
-21.927,-15.544,-2.430,-5.325,-1.455,-9.208,-1.554,29.601,0.016,0.991,-0.067,0.549,-1.129,0.977,73.333,123616.000,1.000
-20.340,-14.893,-0.885,-4.798,-2.517,-9.109,-3.881,27.079,0.015,0.991,-0.064,0.549,-1.190,1.129,73.333,123617.000,1.000
-19.080,-14.780,0.105,-4.442,-3.790,-9.284,-6.961,24.282,0.015,0.993,-0.063,0.519,-1.312,1.129,73.333,123618.000,1.000
-18.477,-15.069,0.581,-4.222,-4.675,-9.307,-9.717,22.399,0.015,0.992,-0.065,0.580,-1.343,1.343,73.333,123619.000,1.000
-18.481,-15.394,0.891,-4.007,-4.589,-9.088,-11.623,22.026,0.017,0.990,-0.063,0.519,-1.434,1.373,73.333,123620.000,1.000
-18.784,-15.423,1.318,-3.750,-3.328,-8.841,-12.585,22.558,0.017,0.990,-0.065,0.580,-1.282,1.343,73.333,123621.000,1.000
-19.066,-14.952,1.937,-3.505,-0.971,-8.440,-12.192,22.762,0.016,0.991,-0.063,0.488,-1.343,1.312,73.333,123622.000,1.000
-19.258,-13.875,2.622,-3.380,2.246,-7.165,-9.568,21.919,0.015,0.991,-0.064,0.519,-1.343,1.343,73.333,123623.000,1.000
-19.592,-12.352,3.038,-3.585,5.744,-4.468,-4.549,20.090,0.018,0.991,-0.069,0.549,-1.373,1.404,73.333,123624.000,1.000
-20.176,-10.713,2.926,-4.235,8.742,-0.629,1.516,17.844,0.019,0.989,-0.068,0.549,-1.434,1.343,73.333,123625.000,1.000
-20.819,-9.199,2.310,-5.209,10.638,3.486,6.727,15.888,0.018,0.990,-0.066,0.610,-1.404,1.373,73.333,123626.000,1.000
-21.044,-7.717,1.638,-6.041,11.433,7.157,9.841,14.742,0.019,0.990,-0.067,0.671,-1.404,1.404,73.333,123627.000,1.000
-20.372,-6.005,1.490,-6.243,11.481,9.878,10.472,14.246,0.019,0.989,-0.067,0.610,-1.343,1.343,73.333,123628.000,1.000
-18.646,-4.049,2.122,-5.766,10.937,11.107,8.809,13.513,0.021,0.989,-0.070,0.671,-1.190,1.312,73.333,123629.000,1.000
-15.917,-2.052,3.547,-4.848,9.906,10.757,5.753,11.905,0.020,0.989,-0.069,0.732,-1.282,1.282,73.333,123630.000,1.000
-12.448,-0.311,5.585,-3.749,8.573,9.401,2.685,9.646,0.021,0.989,-0.071,0.793,-1.312,1.099,73.333,123631.000,1.000
-8.730,0.855,7.820,-2.682,7.116,7.685,0.415,7.452,0.022,0.990,-0.068,0.763,-1.190,1.129,73.333,123632.000,1.000
-5.372,1.278,9.685,-1.860,5.664,5.983,-0.960,6.022,0.021,0.988,-0.068,0.824,-1.129,0.977,73.333,123633.000,1.000
-2.885,1.134,10.767,-1.409,4.451,4.704,-1.379,5.680,0.022,0.989,-0.070,0.885,-1.007,0.854,73.333,123634.000,1.000
-1.429,0.915,11.116,-1.231,3.807,4.318,-0.861,5.983,0.022,0.988,-0.069,0.916,-0.977,0.946,73.333,123635.000,1.000
-0.996,0.921,10.955,-1.239,3.671,4.652,0.041,5.758,0.022,0.989,-0.068,0.946,-0.885,0.885,73.333,123636.000,1.000
-1.424,1.041,10.497,-1.318,3.692,4.889,0.733,4.362,0.022,0.990,-0.069,1.007,-0.793,0.977,73.333,123637.000,1.000
-2.358,1.040,10.012,-1.169,3.747,4.500,1.679,2.617,0.021,0.988,-0.067,0.946,-0.732,0.946,73.333,123638.000,1.000
-3.398,0.779,9.794,-0.451,4.060,3.699,3.953,2.039,0.021,0.990,-0.069,0.977,-0.793,0.824,73.333,123639.000,1.000
-4.188,0.274,10.028,0.943,4.847,3.008,7.349,3.153,0.020,0.990,-0.068,1.007,-0.732,0.702,73.333,123640.000,1.000
-4.625,-0.455,10.507,2.589,5.799,2.547,9.749,4.560,0.018,0.992,-0.065,0.916,-0.702,0.671,73.333,123641.000,1.000
-4.737,-1.333,10.865,3.813,6.347,1.998,8.689,4.171,0.017,0.992,-0.069,0.854,-0.671,0.702,73.333,123642.000,1.000
-4.605,-2.118,10.886,4.121,6.198,1.119,3.574,1.154,0.015,0.992,-0.071,0.824,-0.610,0.641,73.333,123643.000,1.000
-4.470,-2.553,10.509,3.384,5.557,0.198,-3.618,-3.398,0.015,0.992,-0.066,0.732,-0.610,0.610,73.333,123644.000,1.000
-4.560,-2.429,9.920,1.993,5.125,0.046,-9.488,-7.173,0.015,0.993,-0.067,0.580,-0.702,0.641,73.333,123645.000,1.000
-5.033,-1.734,9.390,0.573,5.509,1.209,-11.327,-8.296,0.016,0.991,-0.069,0.610,-0.763,0.671,73.333,123646.000,1.000
-5.882,-0.720,9.120,-0.373,6.761,3.438,-8.757,-6.589,0.014,0.992,-0.069,0.488,-0.885,0.549,73.333,123647.000,1.000
-6.956,0.212,9.136,-0.706,8.350,5.858,-3.676,-3.536,0.014,0.992,-0.067,0.397,-0.885,0.580,73.333,123648.000,1.000
-8.089,0.659,9.266,-0.619,9.519,7.389,1.113,-1.095,0.014,0.994,-0.068,0.366,-0.885,0.610,73.333,123649.000,1.000
-9.011,0.505,9.423,-0.255,9.979,7.491,3.739,-0.103,0.014,0.991,-0.067,0.397,-0.946,0.671,73.333,123650.000,1.000
-9.449,-0.061,9.628,0.399,10.026,6.573,4.219,0.047,0.013,0.992,-0.067,0.244,-1.129,0.641,73.333,123651.000,1.000
-9.196,-0.741,9.924,1.371,10.149,5.563,3.515,0.357,0.014,0.991,-0.068,0.244,-1.190,0.732,73.333,123652.000,1.000
-8.327,-1.444,10.162,2.433,10.436,4.942,2.156,1.071,0.012,0.991,-0.068,0.183,-1.282,0.763,73.333,123653.000,1.000
-7.382,-2.416,9.915,2.995,10.448,4.369,0.198,1.656,0.011,0.991,-0.065,0.092,-1.404,0.824,73.333,123654.000,1.000
-7.094,-3.847,8.821,2.491,9.827,3.456,-1.694,1.861,0.012,0.992,-0.065,0.122,-1.404,0.793,73.333,123655.000,1.000
-8.109,-5.658,6.686,0.655,8.530,2.317,-2.132,2.121,0.015,0.990,-0.064,0.031,-1.465,0.916,73.333,123656.000,1.000
-10.628,-7.621,3.524,-2.339,6.597,1.303,-0.688,2.757,0.014,0.989,-0.068,-0.061,-1.495,0.885,73.333,123657.000,1.000
-14.266,-9.553,-0.480,-6.055,3.849,0.542,1.175,3.085,0.013,0.988,-0.069,-0.122,-1.587,0.885,73.333,123658.000,1.000
-18.227,-11.350,-4.956,-9.972,0.144,-0.063,1.390,1.972,0.013,0.989,-0.066,-0.183,-1.587,0.916,73.333,123659.000,1.000
-21.501,-12.737,-9.141,-13.349,-3.939,-0.471,-0.675,-0.576,0.014,0.988,-0.067,-0.092,-1.648,0.916,73.333,123660.000,1.000
-23.358,-13.359,-12.159,-15.468,-7.301,-0.610,-3.809,-3.360,0.015,0.988,-0.063,-0.061,-1.678,0.977,73.333,123661.000,1.000
-23.559,-13.012,-13.390,-15.907,-8.975,-0.521,-6.343,-5.176,0.015,0.988,-0.065,-0.061,-1.862,1.099,73.333,123662.000,1.000
-22.244,-11.713,-12.629,-14.601,-8.579,-0.152,-7.166,-5.422,0.015,0.989,-0.065,-0.153,-1.801,1.038,73.333,123663.000,1.000
-19.823,-9.792,-10.163,-11.923,-6.499,0.686,-6.110,-4.256,0.016,0.989,-0.068,-0.153,-1.770,1.129,73.333,123664.000,1.000
-16.829,-7.787,-6.675,-8.642,-3.660,2.087,-4.028,-2.513,0.017,0.990,-0.066,-0.214,-1.770,1.160,73.333,123665.000,1.000
-13.995,-6.291,-3.184,-5.789,-1.088,3.733,-1.948,-1.073,0.018,0.990,-0.066,-0.244,-1.801,1.312,73.333,123666.000,1.000
-12.096,-5.761,-0.706,-4.179,0.684,4.986,-0.153,-0.012,0.017,0.989,-0.063,-0.336,-1.709,1.221,73.333,123667.000,1.000
-11.702,-6.374,0.065,-4.083,1.622,5.255,1.716,1.188,0.020,0.990,-0.064,-0.275,-1.709,1.251,73.333,123668.000,1.000
-12.996,-8.018,-1.051,-5.258,1.828,4.329,3.926,2.886,0.021,0.989,-0.063,-0.275,-1.678,1.251,73.333,123669.000,1.000
-15.527,-10.232,-3.477,-6.990,1.578,2.553,6.350,5.344,0.020,0.990,-0.066,-0.336,-1.678,1.282,73.333,123670.000,1.000
-18.467,-12.365,-6.160,-8.542,1.173,0.487,8.259,8.637,0.019,0.990,-0.064,-0.366,-1.556,1.251,73.333,123671.000,1.000
-21.008,-13.831,-8.119,-9.594,0.743,-1.374,8.227,12.082,0.020,0.990,-0.065,-0.366,-1.465,1.251,73.333,123672.000,1.000
-22.623,-14.298,-8.846,-10.236,0.297,-2.573,5.305,14.430,0.019,0.990,-0.065,-0.366,-1.404,1.190,73.333,123673.000,1.000
-23.068,-13.794,-8.368,-10.604,-0.095,-2.682,0.157,14.938,0.020,0.990,-0.063,-0.305,-1.312,1.160,73.333,123674.000,1.000
-22.206,-12.603,-6.998,-10.639,-0.266,-1.414,-5.382,13.939,0.019,0.989,-0.065,-0.366,-1.190,1.160,73.333,123675.000,1.000
-20.239,-11.264,-5.328,-10.401,-0.340,0.970,-9.474,12.327,0.018,0.988,-0.064,-0.275,-1.221,1.282,73.333,123676.000,1.000
-17.697,-10.339,-3.932,-10.070,-0.599,3.577,-11.118,11.124,0.020,0.990,-0.063,-0.244,-1.129,1.282,73.333,123677.000,1.000
-15.152,-9.981,-3.014,-9.720,-1.085,5.405,-10.207,11.226,0.019,0.989,-0.064,-0.214,-0.977,1.312,73.333,123678.000,1.000
-13.015,-9.954,-2.489,-9.321,-1.579,5.987,-7.356,12.960,0.021,0.991,-0.063,-0.214,-0.946,1.190,73.333,123679.000,1.000
-11.410,-9.982,-2.247,-8.840,-1.808,5.555,-3.708,15.921,0.021,0.990,-0.063,-0.183,-0.916,1.190,73.333,123680.000,1.000
-10.406,-10.149,-2.508,-8.508,-1.860,4.482,-0.465,19.162,0.020,0.989,-0.064,-0.153,-0.916,1.038,73.333,123681.000,1.000
-10.013,-10.709,-3.541,-8.658,-2.019,2.979,1.498,21.846,0.019,0.990,-0.062,-0.122,-0.763,1.038,73.333,123682.000,1.000
-10.115,-11.598,-5.188,-9.368,-2.322,1.274,1.888,23.781,0.020,0.990,-0.063,-0.122,-0.671,1.038,73.333,123683.000,1.000
-10.608,-12.445,-6.944,-10.402,-2.532,-0.384,0.828,25.253,0.020,0.990,-0.063,-0.061,-0.610,1.068,73.333,123684.000,1.000
-11.328,-12.832,-8.206,-11.278,-2.336,-1.879,-1.392,26.721,0.019,0.990,-0.062,0.000,-0.610,1.129,73.333,123685.000,1.000
-12.024,-12.531,-8.549,-11.493,-1.620,-3.190,-4.140,28.430,0.020,0.991,-0.062,0.000,-0.519,1.099,73.333,123686.000,1.000
-12.277,-11.531,-7.704,-10.609,-0.350,-4.016,-6.397,30.246,0.019,0.990,-0.062,0.061,-0.580,1.129,73.333,123687.000,1.000
-11.690,-10.021,-5.646,-8.484,1.406,-3.828,-7.142,31.682,0.017,0.990,-0.063,0.061,-0.549,0.946,73.333,123688.000,1.000
-10.292,-8.490,-2.878,-5.620,3.109,-2.600,-6.347,31.763,0.017,0.990,-0.062,0.092,-0.519,0.977,73.333,123689.000,1.000
-8.518,-7.523,-0.282,-2.996,3.831,-1.128,-5.367,29.302,0.016,0.990,-0.060,0.092,-0.427,1.038,73.333,123690.000,1.000
-6.977,-7.457,1.298,-1.538,2.842,-0.409,-5.462,23.970,0.017,0.991,-0.062,0.183,-0.580,1.129,73.333,123691.000,1.000
-5.948,-8.109,1.615,-1.489,0.363,-0.589,-6.397,17.218,0.015,0.991,-0.065,0.183,-0.549,1.068,73.333,123692.000,1.000
-5.263,-8.942,1.063,-2.386,-2.611,-0.952,-7.113,11.391,0.016,0.989,-0.063,0.122,-0.610,1.038,73.333,123693.000,1.000
-4.666,-9.542,0.231,-3.547,-5.153,-0.933,-7.205,7.911,0.016,0.990,-0.063,0.244,-0.549,1.099,73.333,123694.000,1.000
-4.005,-9.665,-0.312,-4.360,-6.644,-0.507,-6.801,6.896,0.016,0.989,-0.060,0.275,-0.580,1.068,73.333,123695.000,1.000
-3.368,-9.143,-0.255,-4.533,-6.795,0.164,-5.756,7.887,0.017,0.991,-0.061,0.275,-0.641,1.068,73.333,123696.000,1.000
-2.948,-7.960,0.341,-4.087,-5.694,1.002,-4.143,10.367,0.016,0.991,-0.065,0.397,-0.610,1.038,73.333,123697.000,1.000
-2.961,-6.417,1.063,-3.336,-3.941,1.796,-2.739,13.691,0.014,0.990,-0.063,0.336,-0.641,1.190,73.333,123698.000,1.000
-3.649,-5.096,1.340,-2.817,-2.466,2.061,-2.449,17.045,0.015,0.990,-0.059,0.366,-0.702,1.160,73.333,123699.000,1.000
-5.023,-4.405,0.885,-2.951,-1.862,1.462,-3.569,19.747,0.013,0.990,-0.061,0.488,-0.763,1.099,73.333,123700.000,1.000
-6.792,-4.394,-0.227,-3.845,-2.084,0.194,-5.440,21.410,0.015,0.990,-0.060,0.519,-0.824,1.129,73.333,123701.000,1.000
-8.377,-4.793,-1.576,-5.151,-2.445,-0.957,-6.676,22.198,0.015,0.991,-0.065,0.580,-0.916,1.190,73.333,123702.000,1.000
-9.252,-5.181,-2.635,-6.294,-2.112,-1.146,-6.138,22.775,0.016,0.989,-0.064,0.610,-0.885,1.129,73.333,123703.000,1.000
-9.373,-5.280,-3.175,-6.902,-0.757,-0.120,-4.077,23.802,0.016,0.988,-0.066,0.519,-0.916,1.160,73.333,123704.000,1.000
-9.030,-5.003,-3.248,-6.819,1.523,1.983,-1.699,25.766,0.018,0.988,-0.064,0.580,-0.977,1.160,73.333,123705.000,1.000
-8.716,-4.504,-3.162,-6.133,4.365,4.973,0.287,28.919,0.017,0.990,-0.061,0.671,-0.916,1.099,73.333,123706.000,1.000
-8.864,-4.106,-3.268,-5.097,7.331,8.564,1.988,33.331,0.018,0.991,-0.064,0.732,-0.946,1.038,73.333,123707.000,1.000
-9.612,-4.075,-3.739,-4.094,9.919,12.085,3.552,38.633,0.017,0.990,-0.065,0.671,-1.007,1.007,73.333,123708.000,1.000
-10.823,-4.599,-4.663,-3.702,11.398,14.329,4.305,43.343,0.017,0.990,-0.066,0.702,-0.977,1.129,73.333,123709.000,1.000
-12.072,-5.644,-5.952,-4.339,11.156,14.251,3.099,45.383,0.017,0.989,-0.064,0.732,-1.068,1.099,73.333,123710.000,1.000
-12.822,-6.723,-7.193,-5.862,9.251,11.955,-0.181,43.815,0.016,0.990,-0.063,0.732,-1.099,1.099,73.333,123711.000,1.000
-12.591,-6.996,-7.606,-7.512,6.624,8.759,-4.224,39.749,0.016,0.991,-0.066,0.763,-1.099,1.068,73.333,123712.000,1.000
-11.300,-5.862,-6.509,-8.471,4.465,6.082,-7.256,35.354,0.017,0.992,-0.065,0.702,-1.099,1.007,73.333,123713.000,1.000
-9.422,-3.443,-3.875,-8.335,3.499,4.575,-7.911,32.560,0.018,0.991,-0.064,0.824,-1.251,0.916,73.333,123714.000,1.000
-7.635,-0.462,-0.360,-7.087,3.820,4.238,-5.823,32.298,0.015,0.993,-0.064,0.946,-1.099,0.916,73.333,123715.000,1.000
-6.632,1.932,2.772,-5.267,4.615,4.496,-2.411,33.533,0.015,0.991,-0.065,0.824,-1.190,0.946,73.333,123716.000,1.000
-6.795,2.619,4.308,-3.726,4.606,4.391,-0.495,33.700,0.015,0.991,-0.064,0.793,-1.312,0.977,73.333,123717.000,1.000
-7.913,1.272,3.901,-2.982,3.151,3.277,-1.713,30.969,0.014,0.990,-0.062,0.824,-1.251,0.885,73.333,123718.000,1.000
-9.365,-1.407,2.189,-2.952,0.751,1.382,-4.937,25.736,0.015,0.990,-0.063,0.916,-1.251,0.824,73.333,123719.000,1.000
-10.411,-4.064,0.423,-3.112,-1.357,-0.266,-7.825,19.969,0.015,0.990,-0.068,0.977,-1.282,0.916,73.333,123720.000,1.000
-10.532,-5.496,-0.265,-2.952,-2.191,-0.662,-8.947,15.490,0.014,0.989,-0.065,1.068,-1.312,0.977,73.333,123721.000,1.000
-9.462,-5.206,0.687,-2.125,-1.397,0.486,-8.129,13.209,0.015,0.989,-0.067,0.977,-1.373,0.854,73.333,123722.000,1.000
-7.329,-3.561,2.985,-0.581,0.724,2.633,-5.867,13.261,0.016,0.989,-0.067,0.916,-1.434,0.824,73.333,123723.000,1.000
-4.864,-1.632,5.452,1.231,3.202,4.682,-3.202,15.121,0.016,0.989,-0.065,0.885,-1.434,0.763,73.333,123724.000,1.000
-3.038,-0.550,6.753,2.619,4.930,5.697,-1.416,17.845,0.015,0.990,-0.064,0.824,-1.495,0.916,73.333,123725.000,1.000
-2.689,-0.985,6.037,2.942,5.118,5.278,-1.335,20.235,0.016,0.990,-0.066,0.793,-1.556,1.038,73.333,123726.000,1.000
-4.181,-2.991,3.256,1.924,3.648,3.606,-2.963,21.299,0.016,0.989,-0.064,0.671,-1.526,1.007,73.333,123727.000,1.000
-7.241,-5.987,-0.857,-0.154,1.203,1.468,-5.283,21.043,0.015,0.987,-0.065,0.671,-1.495,1.038,73.333,123728.000,1.000
-11.053,-9.015,-5.142,-2.573,-1.043,-0.149,-6.912,20.609,0.014,0.987,-0.063,0.671,-1.465,1.068,73.333,123729.000,1.000
-14.543,-11.246,-8.484,-4.470,-2.060,-0.720,-7.250,21.287,0.015,0.988,-0.064,0.641,-1.556,1.007,73.333,123730.000,1.000
-17.007,-12.526,-10.423,-5.374,-1.725,-0.465,-6.702,23.230,0.016,0.989,-0.066,0.702,-1.648,1.099,73.333,123731.000,1.000
-18.314,-13.298,-11.178,-5.343,-0.716,0.007,-6.252,25.506,0.018,0.990,-0.066,0.671,-1.556,1.129,73.333,123732.000,1.000
-18.803,-14.140,-11.359,-4.832,0.044,-0.054,-6.845,27.030,0.018,0.992,-0.064,0.793,-1.526,1.099,73.333,123733.000,1.000
-19.039,-15.456,-11.590,-4.437,-0.103,-1.290,-8.650,27.266,0.019,0.994,-0.064,0.793,-1.434,1.190,73.333,123734.000,1.000
-19.328,-17.214,-12.032,-4.439,-1.119,-3.617,-10.821,26.536,0.019,0.995,-0.063,0.702,-1.404,1.312,73.333,123735.000,1.000
-19.716,-19.080,-12.568,-4.890,-2.639,-6.340,-12.420,25.531,0.016,0.994,-0.065,0.641,-1.251,1.282,73.333,123736.000,1.000
-20.078,-20.669,-13.051,-5.709,-4.339,-8.823,-13.522,24.785,0.016,0.994,-0.067,0.549,-1.251,1.373,73.333,123737.000,1.000
-20.151,-21.586,-13.281,-6.630,-5.910,-10.704,-14.632,24.629,0.015,0.993,-0.064,0.397,-1.251,1.312,73.333,123738.000,1.000
-19.750,-21.586,-13.072,-7.318,-7.018,-11.681,-15.559,25.278,0.014,0.990,-0.065,0.366,-1.190,1.099,73.333,123739.000,1.000
-18.919,-20.713,-12.325,-7.492,-7.296,-11.397,-15.407,26.951,0.014,0.990,-0.064,0.458,-1.282,1.068,73.333,123740.000,1.000
-18.131,-19.349,-11.302,-7.194,-6.684,-9.818,-13.503,29.593,0.014,0.990,-0.068,0.488,-1.282,0.946,73.333,123741.000,1.000
-18.037,-18.077,-10.571,-6.780,-5.605,-7.467,-10.477,32.448,0.017,0.990,-0.065,0.519,-1.221,0.885,73.333,123742.000,1.000
-19.023,-17.484,-10.713,-6.713,-4.868,-5.227,-8.140,34.196,0.019,0.991,-0.065,0.458,-1.251,0.916,73.333,123743.000,1.000
-20.896,-17.932,-11.958,-7.268,-5.177,-3.930,-8.086,33.929,0.019,0.991,-0.066,0.427,-1.221,0.916,73.333,123744.000,1.000
-22.820,-19.184,-13.832,-8.212,-6.392,-3.758,-10.265,32.101,0.019,0.990,-0.065,0.336,-1.190,0.885,73.333,123745.000,1.000
-24.002,-20.579,-15.552,-9.102,-7.656,-4.181,-12.792,30.032,0.019,0.988,-0.066,0.397,-1.129,1.038,73.333,123746.000,1.000
-24.291,-21.626,-16.652,-9.733,-8.119,-4.580,-13.595,28.547,0.020,0.985,-0.068,0.336,-1.129,1.038,73.333,123747.000,1.000
-24.130,-22.271,-17.198,-10.263,-7.589,-4.858,-12.191,27.254,0.019,0.983,-0.067,0.397,-1.038,1.068,73.333,123748.000,1.000
-23.984,-22.657,-17.424,-10.820,-6.404,-5.150,-9.690,25.208,0.020,0.980,-0.063,0.488,-0.946,1.129,73.333,123749.000,1.000
-23.754,-22.604,-17.138,-10.951,-4.629,-4.997,-7.269,22.359,0.020,0.978,-0.069,0.580,-0.946,1.221,73.333,123750.000,1.000
-23.011,-21.595,-15.894,-9.952,-2.016,-3.628,-5.129,19.894,0.017,0.980,-0.066,0.824,-0.793,1.312,73.333,123751.000,1.000
-21.410,-19.227,-13.431,-7.532,1.569,-0.898,-2.966,19.385,0.019,0.984,-0.069,1.038,-0.793,1.312,73.333,123752.000,1.000
-19.046,-15.656,-10.062,-4.214,5.759,2.572,-0.528,21.535,0.016,0.989,-0.067,0.977,-0.671,1.404,73.333,123753.000,1.000
-16.577,-11.730,-6.779,-1.252,9.601,5.946,2.077,25.370,0.016,0.993,-0.066,1.038,-0.610,1.404,73.333,123754.000,1.000
-14.800,-8.489,-4.658,0.094,12.033,8.600,4.110,28.852,0.018,0.996,-0.066,0.916,-0.641,1.465,73.333,123755.000,1.000
-14.311,-6.590,-4.307,-0.872,12.302,10.088,4.569,30.309,0.019,0.997,-0.069,0.732,-0.610,1.556,73.333,123756.000,1.000
-15.166,-5.958,-5.494,-3.911,10.482,10.325,3.174,29.546,0.017,0.995,-0.072,0.610,-0.641,1.587,73.333,123757.000,1.000
-16.716,-5.759,-7.156,-7.805,7.652,9.964,1.254,27.814,0.017,0.995,-0.070,0.519,-0.580,1.373,73.333,123758.000,1.000
-17.921,-4.964,-8.000,-10.893,5.275,10.079,0.769,26.747,0.017,0.994,-0.070,0.427,-0.580,1.465,73.333,123759.000,1.000
-17.904,-3.162,-7.278,-11.945,4.182,11.099,1.901,27.067,0.015,0.995,-0.067,0.458,-0.549,1.373,73.333,123760.000,1.000
-16.500,-1.000,-5.318,-10.895,3.979,12.171,2.780,28.114,0.013,0.996,-0.067,0.397,-0.580,1.251,73.333,123761.000,1.000
-13.987,0.428,-3.003,-8.485,3.828,12.118,1.787,28.926,0.010,0.997,-0.067,0.214,-0.702,1.221,73.333,123762.000,1.000
-10.762,0.562,-1.063,-5.605,3.342,10.712,-0.746,29.272,0.011,0.999,-0.066,0.000,-0.763,1.129,73.333,123763.000,1.000
-7.493,-0.450,-0.011,-3.096,2.442,8.561,-3.466,29.384,0.013,1.000,-0.066,-0.183,-0.885,0.977,73.333,123764.000,1.000
-4.969,-2.118,-0.102,-1.585,1.022,6.231,-5.893,29.349,0.014,0.999,-0.067,-0.336,-1.160,0.763,73.333,123765.000,1.000
-3.763,-3.987,-1.281,-1.329,-1.108,3.787,-8.598,28.919,0.011,0.999,-0.064,-0.519,-1.129,0.702,73.333,123766.000,1.000
-3.881,-5.724,-3.098,-2.075,-3.792,1.246,-11.941,27.996,0.013,0.996,-0.065,-0.549,-1.282,0.763,73.333,123767.000,1.000
-4.872,-7.161,-5.007,-3.307,-6.523,-1.012,-15.237,26.923,0.015,0.995,-0.064,-0.580,-1.373,0.702,73.333,123768.000,1.000
-6.220,-8.473,-6.758,-4.627,-8.861,-2.480,-17.187,26.211,0.017,0.994,-0.065,-0.641,-1.404,0.763,73.333,123769.000,1.000
-7.374,-9.905,-8.158,-5.659,-10.378,-2.728,-16.717,26.414,0.017,0.994,-0.065,-0.580,-1.343,0.885,73.333,123770.000,1.000
-7.948,-11.393,-8.978,-6.112,-10.715,-1.576,-13.515,27.911,0.015,0.994,-0.062,-0.610,-1.465,0.854,73.333,123771.000,1.000
-7.897,-12.682,-9.175,-5.942,-9.812,0.726,-8.519,30.592,0.014,0.992,-0.063,-0.641,-1.556,0.824,73.333,123772.000,1.000
-7.577,-13.745,-9.153,-5.449,-8.146,3.375,-3.767,33.592,0.015,0.990,-0.062,-0.671,-1.465,0.885,73.333,123773.000,1.000
-7.563,-14.852,-9.542,-5.151,-6.564,5.201,-1.253,35.565,0.016,0.991,-0.062,-0.671,-1.556,1.068,73.333,123774.000,1.000
-8.191,-15.983,-10.496,-5.368,-5.528,5.392,-1.545,35.544,0.016,0.989,-0.062,-0.519,-1.709,1.099,73.333,123775.000,1.000
-9.470,-16.561,-11.628,-6.127,-4.926,4.012,-3.560,33.279,0.014,0.986,-0.060,-0.427,-1.587,1.160,73.333,123776.000,1.000
-11.088,-15.829,-12.380,-7.162,-4.335,2.002,-5.736,29.224,0.015,0.985,-0.061,-0.275,-1.648,1.251,73.333,123777.000,1.000
-12.590,-13.516,-12.446,-8.113,-3.442,0.615,-6.859,24.533,0.016,0.987,-0.064,-0.214,-1.678,1.312,73.333,123778.000,1.000
-13.649,-10.275,-11.971,-8.817,-2.354,0.497,-6.434,20.569,0.015,0.987,-0.063,-0.153,-1.648,1.221,73.333,123779.000,1.000
-14.061,-7.370,-11.312,-9.280,-1.505,1.223,-5.113,17.970,0.015,0.984,-0.059,0.000,-1.648,1.312,73.333,123780.000,1.000
-13.820,-5.944,-10.779,-9.542,-1.472,1.681,-4.211,16.097,0.017,0.985,-0.062,0.092,-1.709,1.282,73.333,123781.000,1.000
-12.930,-6.239,-10.204,-9.271,-2.283,1.236,-4.319,14.025,0.018,0.986,-0.062,0.153,-1.587,1.343,73.333,123782.000,1.000
-11.310,-7.440,-8.954,-7.782,-3.172,0.366,-4.744,11.715,0.018,0.987,-0.062,0.214,-1.465,1.373,73.333,123783.000,1.000
-9.032,-8.387,-6.644,-4.784,-3.367,-0.011,-4.746,9.614,0.020,0.985,-0.062,0.275,-1.404,1.282,73.333,123784.000,1.000
-6.348,-8.290,-3.521,-0.741,-2.677,0.670,-4.475,7.967,0.019,0.985,-0.062,0.458,-1.343,1.190,73.333,123785.000,1.000
-3.739,-7.101,-0.388,3.353,-1.538,2.312,-4.332,6.922,0.020,0.985,-0.062,0.519,-1.251,1.221,73.333,123786.000,1.000
-1.793,-5.452,1.910,6.496,-0.592,4.249,-4.657,6.738,0.019,0.983,-0.062,0.641,-1.129,1.160,73.333,123787.000,1.000
-0.991,-4.242,2.876,7.993,-0.417,5.481,-6.034,7.394,0.019,0.983,-0.063,0.641,-1.099,1.007,73.333,123788.000,1.000
-1.442,-4.112,2.485,7.677,-1.287,5.206,-8.892,8.392,0.020,0.984,-0.066,0.763,-0.977,1.068,73.333,123789.000,1.000
-2.611,-5.028,1.315,6.120,-2.780,3.600,-12.587,9.382,0.021,0.983,-0.063,0.885,-0.977,0.916,73.333,123790.000,1.000
-3.693,-6.463,0.157,4.270,-4.038,1.725,-15.380,10.589,0.020,0.985,-0.064,0.946,-0.854,0.916,73.333,123791.000,1.000
-4.039,-7.899,-0.392,2.983,-4.293,0.657,-15.769,12.620,0.019,0.986,-0.061,1.099,-0.793,0.885,73.333,123792.000,1.000
-3.447,-9.112,-0.172,2.664,-3.364,0.739,-13.548,15.737,0.018,0.986,-0.063,1.190,-0.763,0.946,73.333,123793.000,1.000
-2.273,-10.150,0.478,3.084,-1.839,1.470,-9.847,19.407,0.017,0.986,-0.067,1.221,-0.671,0.885,73.333,123794.000,1.000
-1.057,-11.045,1.092,3.696,-0.584,2.040,-6.572,22.833,0.017,0.987,-0.066,1.282,-0.641,0.885,73.333,123795.000,1.000
-0.231,-11.621,1.342,3.920,-0.239,1.991,-5.285,25.471,0.019,0.986,-0.069,1.251,-0.580,0.854,73.333,123796.000,1.000
0.131,-11.489,1.250,3.471,-0.801,1.631,-6.332,27.106,0.019,0.987,-0.069,1.312,-0.519,0.916,73.333,123797.000,1.000
0.153,-10.276,1.034,2.412,-1.744,1.676,-8.859,27.667,0.018,0.987,-0.067,1.373,-0.488,0.916,73.333,123798.000,1.000
-0.249,-8.036,0.723,0.921,-2.513,2.499,-11.413,27.287,0.018,0.988,-0.067,1.373,-0.549,1.068,73.333,123799.000,1.000
-1.171,-5.280,0.214,-0.777,-2.697,3.967,-12.541,26.616,0.018,0.991,-0.068,1.282,-0.549,1.068,73.333,123800.000,1.000
-2.427,-2.728,-0.583,-2.509,-2.271,5.610,-11.426,26.522,0.018,0.994,-0.068,1.282,-0.549,1.129,73.333,123801.000,1.000
-3.414,-0.890,-1.490,-3.978,-1.451,7.006,-8.530,27.608,0.018,0.992,-0.069,1.190,-0.488,1.160,73.333,123802.000,1.000
-3.501,0.262,-2.086,-4.742,-0.423,8.077,-5.295,29.776,0.016,0.994,-0.067,1.160,-0.397,1.160,73.333,123803.000,1.000
-2.610,1.099,-2.087,-4.529,0.696,8.929,-3.108,32.039,0.014,0.995,-0.067,1.099,-0.427,1.190,73.333,123804.000,1.000
-1.267,1.910,-1.540,-3.419,1.868,9.613,-2.638,33.222,0.012,0.997,-0.067,0.977,-0.427,1.251,73.333,123805.000,1.000
-0.442,2.546,-0.923,-1.914,2.875,9.958,-3.848,32.688,0.011,0.996,-0.067,0.885,-0.458,1.282,73.333,123806.000,1.000
-0.891,2.657,-0.683,-0.498,3.500,9.783,-6.234,30.802,0.009,0.994,-0.066,0.671,-0.458,1.343,73.333,123807.000,1.000
-2.599,2.175,-0.769,0.817,3.836,9.116,-8.761,28.935,0.009,0.992,-0.068,0.641,-0.641,1.221,73.333,123808.000,1.000
-4.887,1.373,-0.760,2.328,4.177,8.144,-10.276,28.445,0.012,0.991,-0.069,0.549,-0.671,1.160,73.333,123809.000,1.000
-6.779,0.639,-0.170,4.338,4.861,7.230,-10.252,29.531,0.013,0.990,-0.069,0.519,-0.824,1.190,73.333,123810.000,1.000
-7.641,0.017,1.050,6.791,5.864,6.511,-9.027,30.990,0.017,0.990,-0.067,0.580,-0.854,1.190,73.333,123811.000,1.000
-7.393,-0.990,2.407,9.279,6.736,5.613,-7.619,31.136,0.019,0.993,-0.067,0.610,-0.885,1.129,73.333,123812.000,1.000
-6.294,-2.866,3.259,11.309,6.983,4.270,-6.953,28.938,0.019,0.995,-0.067,0.641,-0.916,1.282,73.333,123813.000,1.000
-4.627,-5.405,3.362,12.583,6.471,2.957,-7.170,24.620,0.018,0.996,-0.068,0.488,-0.885,1.404,73.333,123814.000,1.000
-2.450,-7.638,3.204,13.216,5.629,2.555,-7.570,19.631,0.018,0.995,-0.069,0.366,-0.763,1.343,73.333,123815.000,1.000
0.108,-8.542,3.488,13.421,4.979,3.394,-7.233,15.629,0.019,0.994,-0.069,0.183,-0.763,1.434,73.333,123816.000,1.000
2.655,-7.666,4.595,13.250,4.738,5.037,-6.216,13.293,0.021,0.990,-0.072,0.153,-0.732,1.556,73.333,123817.000,1.000
4.616,-5.278,6.365,12.545,4.754,6.796,-5.576,12.096,0.021,0.989,-0.069,0.305,-0.671,1.709,73.333,123818.000,1.000
5.452,-2.230,8.110,11.090,4.675,8.123,-6.188,11.135,0.017,0.991,-0.066,0.275,-0.671,1.831,73.333,123819.000,1.000
4.999,0.476,9.007,8.950,4.362,8.801,-8.016,10.097,0.015,0.992,-0.066,0.366,-0.702,1.740,73.333,123820.000,1.000
3.387,2.066,8.397,6.380,3.787,8.903,-10.256,9.206,0.014,0.992,-0.068,0.244,-0.671,1.617,73.333,123821.000,1.000
1.011,2.247,6.153,3.633,2.974,8.754,-11.993,8.686,0.011,0.993,-0.066,0.214,-0.610,1.434,73.333,123822.000,1.000
-1.559,1.263,2.804,0.840,2.034,8.798,-12.536,8.492,0.011,0.991,-0.068,0.092,-0.763,1.221,73.333,123823.000,1.000
-3.843,-0.342,-0.785,-1.987,1.125,9.196,-11.674,8.397,0.013,0.989,-0.065,0.061,-0.885,1.038,73.333,123824.000,1.000
-5.443,-1.877,-3.629,-4.604,0.531,9.683,-9.834,8.492,0.014,0.987,-0.066,0.061,-1.007,0.916,73.333,123825.000,1.000
-6.114,-2.714,-4.947,-6.480,0.462,9.770,-7.657,9.385,0.017,0.985,-0.068,0.153,-1.007,0.854,73.333,123826.000,1.000
-5.774,-2.549,-4.394,-7.023,0.946,9.195,-5.692,11.679,0.018,0.983,-0.069,0.275,-0.977,0.793,73.333,123827.000,1.000
-4.691,-1.537,-2.294,-6.066,1.814,8.201,-4.321,15.231,0.019,0.984,-0.069,0.397,-0.946,0.824,73.333,123828.000,1.000
-3.558,-0.222,0.344,-4.081,2.775,7.370,-3.674,19.353,0.018,0.985,-0.069,0.458,-0.977,0.702,73.333,123829.000,1.000
-3.065,0.733,2.369,-1.760,3.701,7.199,-3.598,23.610,0.018,0.986,-0.070,0.366,-0.946,0.732,73.333,123830.000,1.000
-3.744,0.617,2.816,0.194,4.369,7.463,-3.953,27.441,0.016,0.988,-0.068,0.397,-0.885,0.793,73.333,123831.000,1.000
-5.770,-1.106,1.324,1.322,4.446,7.294,-5.025,29.820,0.015,0.988,-0.068,0.549,-0.977,0.824,73.333,123832.000,1.000
-8.683,-4.329,-1.481,1.747,3.889,6.020,-6.980,30.195,0.016,0.989,-0.068,0.549,-0.946,0.946,73.333,123833.000,1.000
-11.507,-8.281,-4.283,2.062,3.000,3.597,-9.470,29.158,0.016,0.988,-0.068,0.549,-0.946,0.977,73.333,123834.000,1.000
-13.155,-11.942,-5.787,2.876,2.200,0.462,-11.945,28.021,0.016,0.989,-0.068,0.519,-0.946,1.007,73.333,123835.000,1.000
-13.052,-14.518,-5.513,4.246,1.647,-2.681,-13.631,27.891,0.013,0.990,-0.066,0.549,-1.007,1.160,73.333,123836.000,1.000
-11.253,-15.644,-3.927,5.684,1.214,-4.999,-13.867,28.984,0.016,0.992,-0.066,0.580,-1.099,1.251,73.333,123837.000,1.000
-8.266,-15.364,-2.045,6.497,0.536,-5.986,-12.917,30.370,0.016,0.992,-0.067,0.580,-1.099,1.221,73.333,123838.000,1.000
-4.900,-14.099,-0.873,6.150,-0.841,-5.773,-12.041,30.522,0.015,0.989,-0.070,0.519,-1.129,1.221,73.333,123839.000,1.000
-1.952,-12.382,-0.799,4.647,-2.877,-4.665,-12.429,28.607,0.015,0.989,-0.072,0.519,-1.068,1.343,73.333,123840.000,1.000
-0.059,-10.582,-1.555,2.435,-4.908,-2.855,-14.099,25.192,0.016,0.990,-0.074,0.519,-1.190,1.312,73.333,123841.000,1.000
0.548,-8.711,-2.389,0.223,-5.893,-0.554,-16.004,22.059,0.014,0.991,-0.069,0.458,-1.160,1.434,73.333,123842.000,1.000
0.097,-6.422,-2.436,-1.317,-5.002,1.980,-16.689,21.181,0.016,0.991,-0.067,0.519,-1.160,1.404,73.333,123843.000,1.000
-1.014,-3.442,-1.311,-1.967,-2.277,4.505,-15.204,23.078,0.016,0.992,-0.068,0.427,-1.099,1.465,73.333,123844.000,1.000
-2.379,0.029,0.679,-2.013,1.354,6.847,-11.991,26.056,0.018,0.992,-0.065,0.458,-1.099,1.465,73.333,123845.000,1.000
-3.742,3.291,2.633,-2.035,4.482,8.782,-8.541,27.313,0.018,0.991,-0.069,0.397,-1.099,1.404,73.333,123846.000,1.000
-4.842,5.519,3.677,-2.353,6.099,10.039,-6.188,25.185,0.019,0.990,-0.070,0.366,-1.038,1.404,73.333,123847.000,1.000
-5.384,6.093,3.430,-2.803,6.035,10.358,-5.222,20.241,0.020,0.991,-0.071,0.397,-0.977,1.282,73.333,123848.000,1.000
-5.299,4.649,1.930,-3.074,4.620,9.521,-5.253,14.359,0.019,0.990,-0.070,0.366,-0.916,1.251,73.333,123849.000,1.000
-4.710,1.331,-0.394,-2.970,2.445,7.546,-6.096,9.303,0.019,0.990,-0.069,0.488,-0.946,1.190,73.333,123850.000,1.000
-3.859,-2.990,-2.874,-2.509,0.229,4.840,-7.608,6.005,0.018,0.990,-0.067,0.397,-0.946,1.190,73.333,123851.000,1.000
-2.911,-6.876,-4.699,-1.624,-1.078,2.373,-8.911,4.923,0.019,0.990,-0.072,0.458,-0.916,1.221,73.333,123852.000,1.000
-2.058,-9.029,-5.275,-0.158,-0.656,1.400,-8.403,6.313,0.018,0.988,-0.071,0.458,-0.916,1.221,73.333,123853.000,1.000
-1.803,-9.161,-4.744,1.724,1.426,2.576,-5.271,9.669,0.018,0.989,-0.071,0.427,-0.793,1.160,73.333,123854.000,1.000
-2.653,-8.070,-3.850,3.518,4.169,5.371,-0.791,13.438,0.019,0.989,-0.070,0.458,-0.702,1.129,73.333,123855.000,1.000
-4.771,-7.048,-3.563,4.574,6.068,8.164,2.344,15.489,0.021,0.990,-0.070,0.397,-0.641,1.068,73.333,123856.000,1.000
-7.713,-7.156,-4.484,4.498,5.939,9.117,1.693,14.191,0.020,0.990,-0.070,0.397,-0.641,0.977,73.333,123857.000,1.000
-10.545,-8.701,-6.416,3.441,3.640,7.334,-3.265,9.410,0.019,0.990,-0.070,0.427,-0.671,0.916,73.333,123858.000,1.000
-12.292,-11.128,-8.500,2.033,0.174,3.438,-10.460,2.802,0.018,0.990,-0.071,0.427,-0.549,0.977,73.333,123859.000,1.000
-12.250,-13.241,-9.648,1.128,-2.758,-0.684,-16.291,-2.828,0.018,0.991,-0.072,0.397,-0.580,0.946,73.333,123860.000,1.000
-10.475,-13.939,-9.348,1.177,-3.930,-3.058,-17.893,-5.303,0.017,0.993,-0.072,0.366,-0.580,0.916,73.333,123861.000,1.000
-7.872,-12.910,-7.966,1.951,-3.297,-2.820,-15.097,-4.479,0.015,0.991,-0.071,0.427,-0.610,0.824,73.333,123862.000,1.000
-5.842,-10.717,-6.443,2.788,-1.724,-0.552,-9.990,-1.883,0.013,0.991,-0.070,0.244,-0.641,0.793,73.333,123863.000,1.000
-5.652,-8.359,-5.778,3.034,-0.269,2.314,-4.954,0.652,0.013,0.991,-0.066,0.244,-0.580,0.641,73.333,123864.000,1.000
-7.641,-6.582,-6.355,2.510,0.513,4.567,-1.616,1.941,0.013,0.991,-0.069,0.122,-0.610,0.763,73.333,123865.000,1.000
-11.163,-5.598,-7.854,1.449,0.556,5.738,-0.648,1.555,0.015,0.988,-0.069,0.000,-0.671,0.763,73.333,123866.000,1.000
-14.959,-5.240,-9.549,0.204,0.094,5.895,-1.917,-0.386,0.015,0.990,-0.070,-0.031,-0.702,0.793,73.333,123867.000,1.000
-17.756,-5.334,-10.823,-1.087,-0.714,5.038,-4.867,-3.688,0.013,0.990,-0.069,-0.061,-0.702,0.763,73.333,123868.000,1.000
-18.871,-5.996,-11.560,-2.575,-2.025,2.761,-8.923,-8.150,0.014,0.991,-0.068,-0.061,-0.854,0.885,73.333,123869.000,1.000
-18.285,-7.454,-11.953,-4.322,-3.930,-1.153,-13.427,-13.032,0.013,0.991,-0.069,-0.153,-0.916,0.916,73.333,123870.000,1.000
-16.619,-9.774,-12.366,-6.210,-6.312,-6.118,-17.436,-17.221,0.012,0.991,-0.069,-0.153,-0.946,0.885,73.333,123871.000,1.000
-14.756,-12.703,-13.085,-7.943,-8.807,-10.823,-20.290,-19.840,0.013,0.990,-0.070,-0.275,-0.916,0.916,73.333,123872.000,1.000
-13.469,-15.718,-14.208,-9.215,-10.973,-13.947,-22.022,-20.646,0.012,0.991,-0.067,-0.275,-0.946,0.916,73.333,123873.000,1.000
-13.324,-18.325,-15.769,-10.011,-12.612,-14.870,-22.982,-20.071,0.013,0.992,-0.069,-0.366,-1.068,1.007,73.333,123874.000,1.000
-14.435,-20.135,-17.574,-10.485,-13.594,-13.591,-23.061,-18.689,0.013,0.990,-0.068,-0.458,-1.099,0.977,73.333,123875.000,1.000
-16.486,-20.854,-19.223,-10.798,-13.811,-10.474,-21.517,-16.875,0.011,0.990,-0.069,-0.427,-1.068,1.007,73.333,123876.000,1.000
-18.836,-20.384,-20.298,-11.042,-13.320,-6.313,-18.303,-14.968,0.011,0.989,-0.068,-0.458,-1.099,1.068,73.333,123877.000,1.000
-20.685,-18.852,-20.550,-11.235,-12.467,-2.319,-14.849,-13.446,0.014,0.988,-0.065,-0.458,-1.221,1.068,73.333,123878.000,1.000
-21.277,-16.509,-19.860,-11.196,-11.605,0.425,-12.756,-12.629,0.012,0.989,-0.066,-0.610,-1.160,1.099,73.333,123879.000,1.000
-19.957,-13.468,-17.901,-10.284,-10.529,1.782,-12.168,-12.135,0.012,0.990,-0.064,-0.488,-1.190,1.190,73.333,123880.000,1.000
-16.576,-9.773,-14.406,-7.833,-8.763,2.454,-11.790,-11.161,0.013,0.989,-0.065,-0.519,-1.282,1.251,73.333,123881.000,1.000
-11.655,-5.692,-9.612,-3.705,-6.094,3.227,-10.455,-9.173,0.013,0.987,-0.065,-0.580,-1.312,1.282,73.333,123882.000,1.000
-6.188,-1.779,-4.344,1.503,-2.803,4.415,-8.069,-6.275,0.013,0.989,-0.064,-0.580,-1.282,1.312,73.333,123883.000,1.000
-1.339,1.265,0.250,6.627,0.363,5.650,-5.400,-3.163,0.015,0.990,-0.065,-0.580,-1.312,1.343,73.333,123884.000,1.000
1.961,2.802,3.121,10.408,2.458,6.038,-3.748,-0.939,0.016,0.990,-0.065,-0.549,-1.343,1.373,73.333,123885.000,1.000
3.054,2.338,3.392,11.749,2.524,4.691,-4.374,-0.947,0.016,0.990,-0.066,-0.580,-1.312,1.495,73.333,123886.000,1.000
1.847,-0.160,0.868,10.252,0.363,1.638,-7.455,-3.790,0.015,0.988,-0.064,-0.610,-1.312,1.373,73.333,123887.000,1.000
-0.870,-3.876,-3.400,6.703,-2.916,-1.854,-11.281,-8.292,0.016,0.989,-0.066,-0.671,-1.251,1.404,73.333,123888.000,1.000
-3.725,-7.459,-7.531,2.723,-5.607,-4.384,-13.339,-12.019,0.017,0.989,-0.065,-0.671,-1.160,1.465,73.333,123889.000,1.000
-5.410,-9.818,-9.848,-0.142,-6.566,-5.631,-12.641,-13.090,0.018,0.990,-0.066,-0.702,-1.129,1.556,73.333,123890.000,1.000
-5.469,-10.693,-9.835,-1.392,-5.981,-6.303,-10.465,-11.797,0.019,0.990,-0.064,-0.580,-1.099,1.526,73.333,123891.000,1.000
-4.320,-10.493,-8.083,-1.557,-4.879,-6.987,-8.806,-10.091,0.019,0.990,-0.064,-0.671,-1.068,1.587,73.333,123892.000,1.000
-2.708,-9.740,-5.661,-1.461,-4.227,-7.563,-8.533,-9.651,0.017,0.991,-0.064,-0.641,-0.946,1.617,73.333,123893.000,1.000
-1.225,-8.810,-3.608,-1.617,-4.544,-7.654,-9.454,-10.951,0.016,0.990,-0.063,-0.610,-0.885,1.617,73.333,123894.000,1.000
-0.079,-7.934,-2.537,-1.995,-5.677,-6.984,-11.090,-13.384,0.019,0.991,-0.062,-0.671,-0.916,1.526,73.333,123895.000,1.000
0.501,-7.433,-2.849,-2.482,-7.106,-5.567,-12.550,-15.736,0.019,0.991,-0.063,-0.671,-0.885,1.556,73.333,123896.000,1.000
0.128,-7.821,-4.917,-3.266,-8.408,-3.865,-12.965,-16.894,0.020,0.991,-0.064,-0.641,-0.610,1.526,73.333,123897.000,1.000
-1.513,-9.558,-8.941,-4.809,-9.638,-2.686,-12.396,-16.802,0.020,0.990,-0.061,-0.610,-0.580,1.465,73.333,123898.000,1.000
-4.519,-12.769,-14.710,-7.584,-11.358,-2.780,-11.910,-16.782,0.020,0.990,-0.063,-0.610,-0.488,1.678,73.333,123899.000,1.000
-8.488,-16.960,-21.227,-11.460,-13.938,-4.256,-12.605,-18.302,0.018,0.990,-0.062,-0.641,-0.427,1.678,73.333,123900.000,1.000
-12.548,-20.970,-26.799,-15.406,-16.996,-6.406,-14.381,-21.413,0.019,0.990,-0.063,-0.641,-0.305,1.648,73.333,123901.000,1.000
-15.614,-23.375,-29.600,-17.820,-19.394,-8.090,-16.056,-24.484,0.020,0.989,-0.063,-0.549,-0.275,1.617,73.333,123902.000,1.000
-17.040,-23.354,-28.752,-17.587,-20.076,-8.514,-16.561,-25.582,0.021,0.990,-0.062,-0.549,-0.275,1.678,73.333,123903.000,1.000
-17.106,-21.332,-25.107,-14.971,-18.999,-7.769,-15.773,-24.063,0.021,0.990,-0.065,-0.580,-0.183,1.617,73.333,123904.000,1.000
-16.593,-18.539,-20.627,-11.298,-16.937,-6.514,-14.368,-20.740,0.020,0.991,-0.065,-0.488,-0.092,1.526,73.333,123905.000,1.000
-16.245,-16.120,-17.188,-8.068,-14.849,-5.388,-13.084,-17.087,0.018,0.991,-0.066,-0.427,0.092,1.556,73.333,123906.000,1.000
-16.407,-14.651,-15.717,-6.134,-13.251,-4.662,-12.394,-14.206,0.018,0.989,-0.064,-0.427,0.122,1.434,73.333,123907.000,1.000
-17.067,-14.162,-16.148,-5.521,-12.217,-4.351,-12.435,-12.490,0.019,0.991,-0.063,-0.397,0.122,1.495,73.333,123908.000,1.000
-18.052,-14.361,-17.766,-5.727,-11.668,-4.356,-12.990,-11.909,0.020,0.990,-0.065,-0.397,0.214,1.465,73.333,123909.000,1.000
-18.919,-14.749,-19.349,-5.908,-11.262,-4.259,-13.494,-11.936,0.018,0.991,-0.063,-0.366,0.153,1.556,73.333,123910.000,1.000
-19.101,-14.926,-19.740,-5.323,-10.596,-3.578,-13.085,-11.610,0.019,0.991,-0.065,-0.336,0.183,1.404,73.333,123911.000,1.000
-18.123,-14.830,-18.377,-3.648,-9.383,-2.309,-11.125,-10.008,0.019,0.991,-0.064,-0.366,0.183,1.495,73.333,123912.000,1.000
-15.891,-14.578,-15.459,-1.098,-7.500,-1.024,-7.638,-6.733,0.019,0.992,-0.062,-0.214,0.214,1.465,73.333,123913.000,1.000
-12.846,-14.219,-11.824,1.559,-5.044,-0.392,-3.531,-2.191,0.018,0.990,-0.060,-0.183,0.275,1.526,73.333,123914.000,1.000
-9.593,-13.563,-8.410,3.312,-2.316,-0.500,-0.533,2.299,0.015,0.989,-0.063,-0.183,0.214,1.526,73.333,123915.000,1.000
-6.798,-12.459,-6.108,3.134,-0.102,-0.983,-0.351,4.592,0.018,0.988,-0.062,-0.183,0.214,1.495,73.333,123916.000,1.000
-5.100,-11.164,-5.621,0.408,0.571,-1.619,-3.669,2.912,0.016,0.989,-0.059,-0.183,0.153,1.434,73.333,123917.000,1.000
-4.882,-10.232,-7.197,-4.680,-0.873,-2.437,-9.506,-2.697,0.018,0.991,-0.065,-0.122,0.092,1.526,73.333,123918.000,1.000
-6.186,-10.150,-10.565,-11.180,-4.171,-3.390,-15.527,-10.262,0.016,0.991,-0.063,-0.061,0.031,1.495,73.333,123919.000,1.000
-8.656,-11.046,-14.981,-17.600,-8.213,-4.030,-19.233,-16.876,0.017,0.990,-0.063,-0.061,0.061,1.526,73.333,123920.000,1.000
-11.797,-12.767,-19.623,-22.556,-11.739,-3.806,-19.070,-20.118,0.015,0.991,-0.063,-0.061,0.061,1.495,73.333,123921.000,1.000
-15.043,-15.098,-23.850,-25.327,-14.052,-2.707,-15.241,-19.166,0.015,0.991,-0.064,0.000,0.000,1.465,73.333,123922.000,1.000
-17.827,-17.820,-27.343,-26.132,-15.450,-1.511,-9.876,-15.421,0.013,0.990,-0.065,0.031,-0.092,1.434,73.333,123923.000,1.000
-19.797,-20.748,-30.231,-26.032,-17.098,-1.349,-6.178,-12.161,0.014,0.989,-0.066,0.031,0.000,1.465,73.333,123924.000,1.000
-20.804,-23.622,-32.721,-26.071,-19.920,-2.800,-6.382,-12.369,0.013,0.991,-0.064,0.061,-0.122,1.495,73.333,123925.000,1.000
-20.905,-25.999,-34.727,-26.463,-23.771,-5.467,-9.946,-16.405,0.015,0.989,-0.064,0.092,-0.214,1.434,73.333,123926.000,1.000
-20.101,-27.266,-35.647,-26.402,-27.538,-8.263,-14.428,-21.909,0.015,0.990,-0.063,0.061,-0.214,1.526,73.333,123927.000,1.000
-18.233,-26.905,-34.706,-24.817,-30.078,-10.105,-17.759,-26.055,0.014,0.993,-0.062,0.153,-0.336,1.434,73.333,123928.000,1.000
-15.246,-24.824,-31.538,-21.311,-30.922,-10.464,-19.302,-27.505,0.015,0.990,-0.062,0.183,-0.427,1.495,73.333,123929.000,1.000
-11.196,-21.287,-26.213,-16.153,-29.923,-9.330,-19.241,-26.238,0.016,0.989,-0.062,0.153,-0.427,1.556,73.333,123930.000,1.000
-6.490,-16.858,-19.314,-10.087,-27.141,-7.251,-17.861,-22.820,0.015,0.990,-0.063,0.183,-0.488,1.526,73.333,123931.000,1.000
-2.079,-12.425,-11.969,-4.172,-23.079,-5.308,-15.996,-18.318,0.015,0.990,-0.063,0.183,-0.519,1.526,73.333,123932.000,1.000
0.758,-8.897,-5.528,0.566,-18.585,-4.470,-14.855,-14.087,0.015,0.989,-0.060,0.061,-0.580,1.495,73.333,123933.000,1.000
1.074,-6.759,-1.023,3.661,-14.244,-4.754,-14.595,-10.782,0.017,0.987,-0.063,0.092,-0.610,1.465,73.333,123934.000,1.000
-0.954,-5.816,1.386,5.495,-9.810,-5.049,-13.687,-7.585,0.016,0.989,-0.062,0.092,-0.732,1.648,73.333,123935.000,1.000
-4.087,-5.383,2.302,6.785,-4.692,-3.955,-10.151,-3.128,0.017,0.987,-0.062,0.122,-0.702,1.617,73.333,123936.000,1.000
-6.540,-4.726,2.742,8.056,1.318,-0.747,-3.913,2.756,0.018,0.990,-0.062,0.031,-0.732,1.648,73.333,123937.000,1.000
-6.847,-3.510,3.535,9.314,7.593,4.152,2.502,8.294,0.017,0.989,-0.064,0.031,-0.824,1.648,73.333,123938.000,1.000
-4.658,-1.982,4.805,10.057,12.857,9.381,6.028,11.017,0.018,0.992,-0.064,0.092,-0.824,1.648,73.333,123939.000,1.000
-0.673,-0.671,6.154,9.824,16.106,13.375,5.544,10.011,0.016,0.992,-0.064,0.000,-0.793,1.648,73.333,123940.000,1.000
3.700,-0.140,6.864,8.451,16.952,14.918,2.385,6.459,0.018,0.990,-0.062,0.031,-0.763,1.709,73.333,123941.000,1.000
6.921,-0.832,6.179,6.045,15.550,13.634,-1.098,2.424,0.019,0.990,-0.060,0.000,-0.763,1.678,73.333,123942.000,1.000
7.902,-2.878,3.646,2.825,12.397,10.271,-2.952,-0.518,0.016,0.991,-0.062,-0.031,-0.824,1.587,73.333,123943.000,1.000
6.305,-6.086,-0.688,-1.053,8.058,6.199,-2.547,-1.942,0.016,0.991,-0.061,-0.092,-0.885,1.587,73.333,123944.000,1.000
2.692,-10.001,-6.174,-5.372,3.168,2.596,-0.802,-2.265,0.016,0.990,-0.063,-0.031,-0.854,1.495,73.333,123945.000,1.000
-1.912,-14.068,-11.940,-9.912,-1.766,-0.087,0.641,-2.262,0.018,0.990,-0.063,0.031,-0.885,1.404,73.333,123946.000,1.000
-6.421,-17.794,-17.192,-14.413,-6.355,-1.910,0.399,-2.687,0.020,0.992,-0.067,0.000,-0.885,1.221,73.333,123947.000,1.000
-9.931,-20.758,-21.264,-18.419,-10.192,-2.882,-1.683,-3.843,0.021,0.993,-0.063,-0.031,-0.946,1.221,73.333,123948.000,1.000
-11.983,-22.656,-23.750,-21.332,-12.965,-2.951,-4.453,-5.396,0.022,0.992,-0.064,-0.061,-0.885,1.251,73.333,123949.000,1.000
-12.653,-23.416,-24.638,-22.703,-14.740,-2.409,-6.880,-6.850,0.024,0.991,-0.062,-0.153,-0.824,1.343,73.333,123950.000,1.000
-12.652,-23.310,-24.543,-22.730,-16.259,-2.042,-9.052,-8.297,0.024,0.991,-0.064,-0.153,-0.763,1.373,73.333,123951.000,1.000
-12.797,-22.699,-24.241,-21.935,-18.240,-2.479,-11.416,-9.889,0.024,0.987,-0.064,-0.122,-0.610,1.404,73.333,123952.000,1.000
-13.327,-21.705,-23.941,-20.470,-20.472,-3.534,-13.454,-10.843,0.025,0.985,-0.065,-0.061,-0.458,1.434,73.333,123953.000,1.000
-13.881,-20.320,-23.241,-18.101,-22.036,-4.448,-14.116,-9.859,0.025,0.984,-0.068,0.031,-0.397,1.648,73.333,123954.000,1.000
-13.862,-18.594,-21.527,-14.598,-22.135,-4.559,-13.409,-6.448,0.024,0.985,-0.067,0.183,-0.366,1.648,73.333,123955.000,1.000
-13.027,-16.708,-18.621,-10.195,-20.792,-3.680,-12.307,-1.479,0.023,0.988,-0.069,0.244,-0.244,1.648,73.333,123956.000,1.000
-11.474,-14.776,-14.761,-5.356,-18.419,-1.709,-11.148,4.011,0.021,0.991,-0.066,0.305,-0.214,1.495,73.333,123957.000,1.000
-9.392,-12.619,-10.258,-0.417,-15.222,1.621,-8.980,9.971,0.023,0.993,-0.069,0.214,-0.061,1.587,73.333,123958.000,1.000
-7.177,-10.102,-5.599,4.181,-11.543,6.007,-5.219,16.622,0.023,0.996,-0.067,0.153,-0.122,1.678,73.333,123959.000,1.000
-5.311,-7.508,-1.431,7.865,-8.030,10.211,-1.163,23.294,0.024,0.997,-0.064,0.031,-0.061,1.740,73.333,123960.000,1.000
-4.063,-5.339,1.727,10.184,-5.255,12.929,1.264,28.575,0.022,0.995,-0.065,0.031,0.000,1.709,73.333,123961.000,1.000
-3.147,-3.774,3.934,11.204,-3.026,13.862,1.508,31.692,0.021,0.995,-0.065,-0.031,0.000,1.801,73.333,123962.000,1.000
-2.004,-2.523,5.767,11.442,-0.449,13.706,0.879,33.357,0.022,0.992,-0.063,-0.122,-0.031,1.740,73.333,123963.000,1.000
-0.458,-1.283,7.690,11.360,3.161,13.298,1.186,34.891,0.019,0.992,-0.062,-0.244,-0.061,1.556,73.333,123964.000,1.000
1.234,-0.129,9.680,11.086,7.693,13.052,2.954,36.842,0.017,0.994,-0.063,-0.305,0.000,1.343,73.333,123965.000,1.000
2.530,0.497,11.177,10.358,12.209,12.868,5.350,38.406,0.017,0.996,-0.065,-0.366,-0.122,1.312,73.333,123966.000,1.000
2.896,0.095,11.495,8.861,15.582,12.403,6.999,37.913,0.015,0.996,-0.063,-0.488,-0.244,1.160,73.333,123967.000,1.000
1.927,-1.577,10.176,6.486,17.061,11.438,6.813,33.961,0.013,0.999,-0.062,-0.610,-0.305,1.038,73.333,123968.000,1.000
-0.605,-4.367,7.054,3.321,16.522,10.069,4.801,26.658,0.014,0.997,-0.062,-0.641,-0.366,0.946,73.333,123969.000,1.000
-4.552,-7.806,2.360,-0.355,14.508,8.673,2.182,17.876,0.013,0.995,-0.060,-0.824,-0.549,0.793,73.333,123970.000,1.000
-9.626,-11.573,-3.549,-4.415,11.583,7.388,0.461,9.906,0.016,0.993,-0.061,-0.916,-0.641,0.732,73.333,123971.000,1.000
-15.379,-15.724,-10.223,-8.889,7.990,5.809,0.051,4.126,0.019,0.994,-0.061,-0.977,-0.671,0.610,73.333,123972.000,1.000
-21.046,-20.326,-17.014,-13.675,3.797,3.342,0.106,0.724,0.018,0.994,-0.064,-1.068,-0.702,0.641,73.333,123973.000,1.000
-25.748,-25.078,-23.162,-18.387,-0.858,-0.213,-0.300,-0.799,0.019,0.994,-0.065,-1.007,-0.763,0.641,73.333,123974.000,1.000
-28.727,-29.215,-27.792,-22.340,-5.406,-4.278,-1.204,-0.937,0.017,0.994,-0.063,-0.977,-0.732,0.610,73.333,123975.000,1.000
-29.740,-31.789,-30.209,-25.022,-9.089,-7.818,-2.054,-0.197,0.017,0.993,-0.062,-1.007,-0.885,0.671,73.333,123976.000,1.000
-29.058,-32.035,-30.154,-26.343,-11.257,-9.728,-2.679,0.850,0.018,0.992,-0.061,-1.099,-1.038,0.763,73.333,123977.000,1.000
-27.215,-29.529,-27.865,-26.469,-11.452,-8.938,-2.779,2.070,0.017,0.991,-0.059,-1.007,-1.068,0.885,73.333,123978.000,1.000
-24.865,-24.400,-24.067,-25.664,-9.614,-4.875,-1.244,3.929,0.017,0.990,-0.057,-1.007,-0.946,0.977,73.333,123979.000,1.000
-22.488,-17.482,-19.643,-24.095,-6.253,1.953,2.465,6.841,0.015,0.990,-0.057,-0.977,-1.038,1.038,73.333,123980.000,1.000
-20.313,-10.134,-15.418,-21.857,-2.499,9.963,7.192,10.576,0.017,0.990,-0.056,-0.824,-1.099,1.099,73.333,123981.000,1.000
-18.281,-3.728,-11.889,-18.938,0.564,17.327,11.072,14.634,0.015,0.988,-0.058,-0.854,-1.190,1.160,73.333,123982.000,1.000
-16.281,0.712,-9.272,-15.434,2.451,22.690,13.120,18.587,0.016,0.989,-0.056,-0.916,-1.221,1.282,73.333,123983.000,1.000
-14.481,2.542,-7.762,-11.791,3.171,25.311,13.524,22.060,0.017,0.989,-0.054,-0.763,-1.251,1.282,73.333,123984.000,1.000
-13.077,1.740,-7.341,-8.448,3.151,25.224,12.944,24.959,0.017,0.989,-0.057,-0.763,-1.282,1.343,73.333,123985.000,1.000
-12.174,-0.987,-7.785,-5.704,2.769,23.087,11.803,27.118,0.018,0.988,-0.057,-0.702,-1.404,1.343,73.333,123986.000,1.000
-11.742,-4.567,-8.785,-3.731,2.133,19.759,9.933,28.090,0.019,0.987,-0.056,-0.610,-1.404,1.343,73.333,123987.000,1.000
-11.600,-7.975,-9.962,-2.480,1.348,16.052,7.333,27.869,0.018,0.987,-0.056,-0.549,-1.404,1.343,73.333,123988.000,1.000
-11.590,-10.579,-10.971,-1.729,0.658,12.546,4.661,27.139,0.019,0.986,-0.057,-0.549,-1.373,1.312,73.333,123989.000,1.000
-11.528,-12.192,-11.447,-1.094,0.460,9.568,2.577,26.732,0.020,0.986,-0.059,-0.397,-1.312,1.373,73.333,123990.000,1.000
-11.253,-12.956,-11.161,-0.218,0.974,7.203,1.376,27.198,0.020,0.985,-0.058,-0.305,-1.251,1.343,73.333,123991.000,1.000
-10.686,-13.325,-10.226,1.029,1.988,5.211,0.848,28.644,0.021,0.984,-0.056,-0.122,-1.160,1.251,73.333,123992.000,1.000
-9.983,-13.998,-9.188,2.335,2.789,3.001,0.293,30.478,0.022,0.985,-0.058,0.000,-1.160,1.312,73.333,123993.000,1.000
-9.451,-15.563,-8.696,3.107,2.543,-0.007,-0.986,31.625,0.020,0.984,-0.057,0.122,-1.160,1.190,73.333,123994.000,1.000
-9.079,-17.940,-8.822,3.121,1.109,-3.633,-2.821,31.580,0.020,0.984,-0.059,0.305,-1.007,1.221,73.333,123995.000,1.000
-8.689,-20.353,-9.139,2.630,-0.884,-6.841,-3.756,30.917,0.021,0.986,-0.059,0.519,-0.793,1.160,73.333,123996.000,1.000
-8.218,-21.899,-9.161,2.088,-2.519,-8.575,-2.516,30.540,0.023,0.985,-0.060,0.580,-0.885,1.160,73.333,123997.000,1.000
-7.746,-22.049,-8.659,1.822,-3.205,-8.616,0.383,30.487,0.025,0.984,-0.059,0.641,-0.793,1.129,73.333,123998.000,1.000
-7.384,-20.775,-7.752,1.872,-2.974,-7.555,3.187,29.844,0.022,0.984,-0.059,0.732,-0.671,1.343,73.333,123999.000,1.000
-7.075,-18.443,-6.676,2.112,-2.184,-6.099,4.486,27.825,0.022,0.984,-0.061,0.885,-0.549,1.251,73.333,124000.000,1.000
-6.829,-15.807,-5.764,2.165,-1.463,-4.808,3.872,24.245,0.021,0.987,-0.062,0.946,-0.519,1.129,73.333,124001.000,1.000
-6.713,-13.749,-5.207,1.697,-1.335,-4.033,1.717,19.596,0.022,0.987,-0.063,1.068,-0.458,1.129,73.333,124002.000,1.000
-6.681,-12.741,-4.805,0.866,-1.770,-3.751,-0.765,15.167,0.022,0.990,-0.060,1.099,-0.458,1.160,73.333,124003.000,1.000
-6.744,-12.778,-4.308,0.107,-2.466,-3.708,-2.275,12.208,0.022,0.990,-0.061,1.068,-0.397,1.190,73.333,124004.000,1.000
-7.083,-13.666,-3.775,-0.345,-3.244,-3.662,-2.866,10.738,0.022,0.989,-0.062,1.160,-0.183,1.251,73.333,124005.000,1.000
-8.084,-15.185,-3.669,-0.717,-4.162,-3.507,-3.555,9.605,0.021,0.991,-0.062,1.160,-0.183,1.373,73.333,124006.000,1.000
-9.949,-16.987,-4.416,-1.339,-5.182,-3.248,-4.936,7.800,0.021,0.993,-0.064,1.099,-0.214,1.282,73.333,124007.000,1.000
-12.417,-18.572,-6.053,-2.296,-6.105,-2.972,-6.735,5.343,0.019,0.995,-0.063,1.068,-0.153,1.312,73.333,124008.000,1.000
-14.911,-19.518,-8.288,-3.433,-6.795,-2.758,-8.328,2.970,0.019,0.996,-0.062,0.977,-0.092,1.343,73.333,124009.000,1.000
-16.658,-19.591,-10.527,-4.373,-7.060,-2.378,-9.226,1.334,0.018,0.997,-0.060,0.946,-0.092,1.373,73.333,124010.000,1.000
-17.059,-18.784,-12.149,-4.824,-6.712,-1.401,-8.977,0.481,0.016,0.997,-0.060,0.793,-0.092,1.373,73.333,124011.000,1.000
-15.852,-17.327,-12.650,-4.669,-5.588,0.371,-7.379,0.198,0.015,0.992,-0.061,0.671,-0.183,1.282,73.333,124012.000,1.000
-13.216,-15.613,-11.827,-3.951,-3.754,2.520,-4.944,0.282,0.013,0.990,-0.063,0.549,-0.183,1.343,73.333,124013.000,1.000
-9.956,-14.166,-10.118,-2.997,-1.795,4.017,-2.739,0.383,0.016,0.990,-0.063,0.519,-0.214,1.160,73.333,124014.000,1.000
-7.153,-13.403,-8.380,-2.163,-0.361,3.973,-1.389,0.427,0.019,0.991,-0.063,0.580,-0.366,1.190,73.333,124015.000,1.000
-5.653,-13.398,-7.447,-1.600,0.265,2.351,-0.332,0.930,0.021,0.994,-0.065,0.549,-0.366,1.160,73.333,124016.000,1.000
-5.655,-13.938,-7.722,-1.203,0.238,0.031,1.231,2.432,0.021,0.995,-0.061,0.519,-0.427,1.190,73.333,124017.000,1.000
-6.825,-14.733,-9.139,-0.883,-0.214,-1.782,3.133,4.584,0.019,0.998,-0.061,0.366,-0.458,1.404,73.333,124018.000,1.000
-8.748,-15.585,-11.435,-0.884,-1.089,-2.339,4.245,6.029,0.021,0.997,-0.060,0.275,-0.336,1.343,73.333,124019.000,1.000
-10.935,-16.345,-14.125,-1.520,-2.266,-1.596,3.578,5.628,0.022,0.994,-0.061,0.183,-0.275,1.434,73.333,124020.000,1.000
-12.871,-16.897,-16.640,-2.854,-3.404,-0.180,1.459,3.496,0.024,0.992,-0.063,0.122,-0.397,1.526,73.333,124021.000,1.000
-14.141,-17.289,-18.513,-4.593,-4.172,0.937,-0.935,0.691,0.025,0.990,-0.064,0.122,-0.366,1.648,73.333,124022.000,1.000
-14.584,-17.656,-19.478,-6.283,-4.538,1.100,-2.694,-1.842,0.026,0.990,-0.063,0.153,-0.305,1.770,73.333,124023.000,1.000
-14.219,-17.913,-19.373,-7.424,-4.658,0.403,-3.453,-3.554,0.024,0.994,-0.061,0.214,-0.275,1.740,73.333,124024.000,1.000
-12.879,-17.596,-17.819,-7.262,-4.336,-0.466,-3.135,-3.756,0.017,0.996,-0.060,0.092,-0.244,1.678,73.333,124025.000,1.000
-10.449,-16.243,-14.566,-5.263,-3.286,-0.936,-1.959,-2.031,0.016,0.996,-0.058,-0.061,-0.336,1.587,73.333,124026.000,1.000
-7.222,-13.919,-10.000,-1.701,-1.637,-0.894,-0.817,0.799,0.014,0.994,-0.061,-0.122,-0.580,1.404,73.333,124027.000,1.000
-3.940,-11.252,-5.208,2.350,0.062,-0.414,-0.819,2.883,0.015,0.991,-0.060,-0.153,-0.702,1.160,73.333,124028.000,1.000
-1.509,-9.084,-1.559,5.594,1.265,0.499,-2.248,2.790,0.015,0.987,-0.062,-0.122,-0.763,0.977,73.333,124029.000,1.000
-0.432,-7.982,0.087,7.297,1.973,1.908,-4.115,0.856,0.016,0.986,-0.061,-0.061,-0.824,0.793,73.333,124030.000,1.000
-0.699,-8.001,-0.315,7.476,2.509,3.670,-4.750,-1.156,0.018,0.987,-0.059,0.000,-0.916,0.732,73.333,124031.000,1.000
-1.797,-8.751,-2.014,6.780,3.139,5.364,-3.387,-1.599,0.018,0.989,-0.062,0.092,-1.038,0.580,73.333,124032.000,1.000
-2.967,-9.726,-3.910,6.039,3.776,6.408,-0.898,-0.264,0.019,0.989,-0.063,0.153,-1.038,0.641,73.333,124033.000,1.000
-3.756,-10.792,-5.299,5.608,3.800,6.048,0.759,1.438,0.019,0.990,-0.062,0.214,-1.099,0.671,73.333,124034.000,1.000
-4.077,-12.192,-6.046,5.315,2.513,3.650,-0.454,1.518,0.018,0.989,-0.064,0.244,-1.099,0.641,73.333,124035.000,1.000
-4.063,-14.027,-6.376,4.845,-0.204,-0.579,-5.068,-1.157,0.018,0.987,-0.062,0.336,-1.099,0.671,73.333,124036.000,1.000
-3.741,-15.808,-6.396,4.296,-3.423,-5.093,-11.187,-5.793,0.018,0.988,-0.064,0.305,-1.129,0.763,73.333,124037.000,1.000
-2.937,-16.627,-5.924,4.204,-5.645,-7.705,-15.547,-10.041,0.018,0.989,-0.063,0.336,-1.221,0.793,73.333,124038.000,1.000
-1.596,-15.948,-4.868,4.893,-6.006,-7.202,-16.049,-11.827,0.018,0.990,-0.063,0.427,-1.251,0.885,73.333,124039.000,1.000
0.056,-13.996,-3.408,6.108,-4.679,-4.020,-13.152,-10.689,0.018,0.993,-0.062,0.427,-1.312,1.007,73.333,124040.000,1.000
1.401,-11.455,-2.043,7.126,-2.594,0.372,-8.749,-7.686,0.018,0.992,-0.063,0.458,-1.312,0.946,73.333,124041.000,1.000
1.800,-9.095,-1.295,7.355,-0.768,4.315,-4.808,-4.314,0.018,0.994,-0.060,0.427,-1.404,1.099,73.333,124042.000,1.000
1.061,-7.594,-1.386,6.740,0.163,6.484,-2.414,-1.470,0.017,0.994,-0.057,0.397,-1.465,1.038,73.333,124043.000,1.000
-0.501,-7.374,-2.202,5.654,0.086,6.352,-1.217,0.836,0.019,0.995,-0.058,0.336,-1.556,1.221,73.333,124044.000,1.000
-2.163,-8.365,-3.304,4.707,-0.572,4.496,-0.284,3.084,0.017,0.994,-0.062,0.305,-1.526,1.251,73.333,124045.000,1.000
-3.218,-10.015,-4.233,4.316,-1.324,2.086,0.651,5.472,0.016,0.992,-0.061,0.214,-1.404,1.282,73.333,124046.000,1.000
-3.227,-11.511,-4.632,4.536,-1.857,0.054,0.803,7.622,0.018,0.991,-0.059,0.153,-1.526,1.221,73.333,124047.000,1.000
-2.129,-11.967,-4.242,5.172,-1.958,-1.099,-0.791,8.840,0.018,0.991,-0.057,0.153,-1.526,1.221,73.333,124048.000,1.000
-0.307,-10.771,-3.023,5.947,-1.499,-0.972,-4.091,8.659,0.017,0.991,-0.058,0.214,-1.587,1.282,73.333,124049.000,1.000
1.651,-8.014,-1.184,6.704,-0.434,0.696,-7.795,7.457,0.019,0.992,-0.061,0.214,-1.526,1.251,73.333,124050.000,1.000
2.976,-4.774,0.542,7.165,0.835,3.393,-10.133,6.262,0.021,0.989,-0.061,0.183,-1.556,1.282,73.333,124051.000,1.000
2.921,-2.708,1.081,6.890,1.622,5.935,-10.169,6.104,0.020,0.991,-0.064,0.122,-1.556,1.251,73.333,124052.000,1.000
1.149,-3.058,-0.334,5.612,1.537,7.427,-8.149,7.586,0.022,0.990,-0.063,0.305,-1.404,1.251,73.333,124053.000,1.000
-2.092,-6.017,-3.722,3.456,0.623,7.595,-5.009,10.603,0.023,0.991,-0.060,0.305,-1.434,1.282,73.333,124054.000,1.000
-5.963,-10.706,-8.244,0.979,-0.745,6.569,-1.737,14.430,0.023,0.990,-0.063,0.305,-1.373,1.129,73.333,124055.000,1.000
-9.438,-15.604,-12.666,-1.175,-2.187,4.794,1.224,18.067,0.023,0.987,-0.061,0.427,-1.343,1.221,73.333,124056.000,1.000
-11.599,-19.227,-15.846,-2.516,-3.392,2.958,3.581,20.785,0.022,0.988,-0.061,0.397,-1.282,1.160,73.333,124057.000,1.000
-11.870,-20.774,-17.178,-2.926,-4.222,1.554,4.697,22.359,0.024,0.990,-0.064,0.427,-1.099,1.068,73.333,124058.000,1.000
-10.319,-20.414,-16.864,-2.734,-4.862,0.523,3.881,22.771,0.024,0.989,-0.066,0.519,-0.946,1.038,73.333,124059.000,1.000
-7.562,-18.996,-15.562,-2.303,-5.499,-0.443,0.809,21.980,0.023,0.989,-0.064,0.549,-0.977,1.160,73.333,124060.000,1.000
-4.693,-17.540,-14.108,-1.913,-6.229,-1.555,-4.055,19.956,0.022,0.988,-0.065,0.549,-0.946,1.099,73.333,124061.000,1.000
-2.848,-16.720,-13.200,-1.775,-6.973,-2.746,-9.357,17.140,0.023,0.989,-0.062,0.610,-0.824,1.038,73.333,124062.000,1.000
-2.667,-16.595,-13.150,-2.013,-7.515,-3.641,-13.126,14.625,0.023,0.989,-0.064,0.580,-0.763,0.916,73.333,124063.000,1.000
-4.186,-16.902,-13.963,-2.694,-7.808,-3.845,-13.768,13.490,0.023,0.990,-0.066,0.549,-0.671,1.038,73.333,124064.000,1.000
-6.827,-17.387,-15.297,-3.643,-7.930,-3.197,-11.280,14.147,0.024,0.993,-0.066,0.641,-0.671,1.068,73.333,124065.000,1.000
-9.742,-17.963,-16.641,-4.529,-8.117,-2.045,-7.284,15.980,0.021,0.992,-0.064,0.549,-0.641,0.946,73.333,124066.000,1.000
-12.183,-18.706,-17.542,-5.062,-8.658,-1.247,-3.989,17.588,0.022,0.993,-0.063,0.610,-0.580,0.916,73.333,124067.000,1.000
-13.768,-19.554,-17.774,-5.123,-9.621,-1.515,-2.563,17.695,0.021,0.994,-0.061,0.549,-0.580,0.854,73.333,124068.000,1.000
-14.526,-20.123,-17.416,-4.815,-10.737,-2.759,-2.551,15.970,0.018,0.993,-0.061,0.458,-0.610,0.671,73.333,124069.000,1.000
-14.570,-19.894,-16.645,-4.262,-11.421,-4.155,-2.782,13.171,0.017,0.991,-0.062,0.458,-0.641,0.793,73.333,124070.000,1.000
-14.057,-18.572,-15.688,-3.608,-11.211,-4.713,-1.992,10.548,0.015,0.993,-0.065,0.366,-0.671,0.763,73.333,124071.000,1.000
-13.181,-16.271,-14.681,-2.971,-10.016,-3.711,0.368,9.059,0.014,0.993,-0.063,0.336,-0.702,0.671,73.333,124072.000,1.000
-12.208,-13.524,-13.737,-2.509,-8.295,-1.196,3.300,8.662,0.016,0.990,-0.062,0.244,-0.793,0.519,73.333,124073.000,1.000
-11.557,-11.263,-13.263,-2.565,-7.088,1.632,4.841,8.296,0.016,0.993,-0.063,0.122,-0.854,0.580,73.333,124074.000,1.000
-11.501,-10.444,-13.790,-3.446,-7.402,3.046,3.463,6.693,0.014,0.991,-0.064,0.031,-0.916,0.519,73.333,124075.000,1.000
-12.093,-11.562,-15.690,-5.292,-9.767,1.880,-1.041,3.009,0.014,0.991,-0.062,0.061,-1.068,0.458,73.333,124076.000,1.000
-13.139,-14.424,-18.814,-7.884,-13.816,-1.756,-7.424,-2.591,0.015,0.990,-0.064,0.061,-1.099,0.488,73.333,124077.000,1.000
-14.251,-18.181,-22.397,-10.616,-18.211,-6.390,-13.134,-8.587,0.015,0.992,-0.062,0.061,-1.068,0.580,73.333,124078.000,1.000
-15.022,-21.593,-25.394,-12.789,-21.261,-9.829,-15.496,-12.861,0.013,0.991,-0.063,-0.092,-1.343,0.458,73.333,124079.000,1.000
-15.043,-23.397,-26.792,-13.784,-21.675,-10.208,-13.521,-13.899,0.013,0.991,-0.060,-0.153,-1.343,0.610,73.333,124080.000,1.000
-14.246,-22.969,-26.226,-13.435,-19.439,-7.278,-8.574,-11.691,0.012,0.992,-0.059,-0.214,-1.556,0.702,73.333,124081.000,1.000
-12.979,-20.790,-24.199,-12.105,-15.806,-2.639,-3.379,-7.585,0.013,0.992,-0.061,-0.153,-1.587,0.702,73.333,124082.000,1.000
-11.679,-18.069,-21.652,-10.343,-12.312,1.608,0.059,-3.203,0.012,0.991,-0.061,-0.214,-1.770,0.824,73.333,124083.000,1.000
-10.674,-15.999,-19.469,-8.655,-9.947,4.224,1.415,0.485,0.013,0.991,-0.062,-0.305,-1.831,0.763,73.333,124084.000,1.000
-9.974,-15.097,-18.026,-7.275,-8.758,5.252,1.384,3.514,0.014,0.990,-0.059,-0.244,-1.892,0.793,73.333,124085.000,1.000
-9.384,-15.084,-17.246,-6.238,-8.256,5.477,1.023,6.414,0.013,0.987,-0.062,-0.214,-1.923,0.885,73.333,124086.000,1.000
-8.604,-15.359,-16.882,-5.537,-7.975,5.553,0.963,9.255,0.015,0.988,-0.060,-0.214,-2.045,0.824,73.333,124087.000,1.000
-7.382,-15.482,-16.755,-5.216,-7.775,5.553,1.021,11.391,0.017,0.989,-0.064,-0.183,-2.075,0.854,73.333,124088.000,1.000
-5.827,-15.393,-16.880,-5.389,-7.849,5.096,0.641,12.207,0.017,0.989,-0.064,-0.214,-2.136,0.824,73.333,124089.000,1.000
-4.352,-15.310,-17.290,-6.051,-8.310,3.922,-0.273,11.987,0.019,0.990,-0.063,-0.214,-2.106,1.038,73.333,124090.000,1.000
-3.531,-15.476,-18.016,-7.111,-9.098,2.235,-0.864,11.762,0.019,0.989,-0.062,-0.214,-2.167,1.160,73.333,124091.000,1.000
-3.657,-15.982,-18.968,-8.353,-10.035,0.495,-0.350,12.539,0.020,0.990,-0.063,-0.153,-2.167,1.190,73.333,124092.000,1.000
-4.412,-16.670,-19.826,-9.398,-10.958,-0.943,0.904,14.532,0.021,0.990,-0.060,-0.153,-2.075,1.099,73.333,124093.000,1.000
-5.080,-17.145,-20.136,-9.821,-11.699,-1.803,1.914,16.986,0.021,0.990,-0.060,-0.092,-1.953,1.160,73.333,124094.000,1.000
-4.932,-16.873,-19.378,-9.205,-11.748,-1.579,2.121,18.892,0.022,0.988,-0.062,-0.122,-1.892,1.251,73.333,124095.000,1.000
-3.865,-15.512,-17.422,-7.491,-10.557,0.247,1.764,19.811,0.022,0.989,-0.059,-0.122,-1.862,1.251,73.333,124096.000,1.000
-2.512,-13.246,-14.753,-5.051,-7.942,3.720,1.606,20.350,0.022,0.990,-0.060,-0.122,-1.678,1.282,73.333,124097.000,1.000
-1.828,-10.710,-12.266,-2.449,-4.192,8.242,2.852,21.911,0.023,0.990,-0.062,0.000,-1.617,1.312,73.333,124098.000,1.000
-2.614,-8.742,-10.898,-0.314,-0.130,12.687,6.353,25.405,0.022,0.991,-0.060,-0.031,-1.556,1.160,73.333,124099.000,1.000
-4.976,-8.065,-11.176,0.785,3.034,15.737,10.996,29.962,0.024,0.991,-0.058,0.000,-1.495,1.190,73.333,124100.000,1.000
-8.292,-8.977,-13.128,0.349,3.980,16.347,14.012,33.065,0.023,0.991,-0.058,0.000,-1.373,1.251,73.333,124101.000,1.000
-11.409,-11.177,-16.207,-1.653,2.153,14.287,13.261,32.586,0.024,0.990,-0.061,-0.061,-1.221,1.160,73.333,124102.000,1.000
-13.211,-13.938,-19.429,-4.542,-1.766,10.287,8.982,28.489,0.023,0.990,-0.061,-0.061,-1.099,1.282,73.333,124103.000,1.000
-13.318,-16.559,-21.887,-7.343,-6.445,5.606,3.405,22.435,0.023,0.992,-0.059,-0.122,-0.946,1.373,73.333,124104.000,1.000
-11.932,-18.441,-22.948,-9.073,-10.414,1.665,-0.804,16.730,0.023,0.992,-0.060,-0.153,-0.946,1.251,73.333,124105.000,1.000
-9.536,-19.071,-22.446,-9.098,-12.639,-0.460,-1.904,13.255,0.022,0.992,-0.059,-0.153,-0.885,1.129,73.333,124106.000,1.000
-6.823,-18.310,-20.758,-7.525,-12.977,-0.547,-0.235,12.210,0.022,0.990,-0.059,-0.031,-0.732,1.160,73.333,124107.000,1.000
-4.697,-16.474,-18.615,-5.257,-12.168,0.756,2.214,11.953,0.021,0.990,-0.061,-0.092,-0.580,1.068,73.333,124108.000,1.000
-4.013,-14.182,-16.802,-3.466,-11.347,2.271,3.424,10.504,0.021,0.992,-0.058,-0.031,-0.610,1.007,73.333,124109.000,1.000
-4.967,-12.092,-15.756,-2.803,-11.246,2.991,2.388,7.228,0.022,0.992,-0.061,-0.122,-0.641,1.007,73.333,124110.000,1.000
-7.036,-10.672,-15.549,-3.263,-11.916,2.758,-0.157,3.105,0.022,0.993,-0.060,-0.061,-0.519,0.885,73.333,124111.000,1.000
-9.257,-10.079,-15.930,-4.314,-12.748,2.196,-2.095,-0.019,0.019,0.992,-0.059,-0.122,-0.458,0.977,73.333,124112.000,1.000
-10.674,-10.206,-16.482,-5.196,-12.972,1.873,-1.895,-0.720,0.016,0.991,-0.060,-0.092,-0.305,1.038,73.333,124113.000,1.000
-10.871,-10.890,-16.960,-5.442,-12.340,1.659,-0.208,0.961,0.016,0.990,-0.059,-0.061,-0.275,1.068,73.333,124114.000,1.000
-10.072,-12.008,-17.326,-5.045,-11.092,1.021,1.038,3.868,0.018,0.991,-0.059,0.061,-0.214,0.946,73.333,124115.000,1.000
-9.082,-13.529,-17.809,-4.432,-9.779,-0.470,0.917,6.825,0.019,0.991,-0.056,-0.031,-0.275,0.946,73.333,124116.000,1.000
-8.788,-15.562,-18.709,-4.110,-8.962,-2.867,-0.023,9.348,0.016,0.991,-0.059,0.092,-0.275,1.068,73.333,124117.000,1.000
-9.611,-18.131,-20.124,-4.344,-8.973,-5.786,-0.819,11.511,0.018,0.992,-0.060,0.031,-0.305,1.160,73.333,124118.000,1.000
-11.393,-20.969,-21.894,-5.119,-9.859,-8.581,-0.971,13.371,0.017,0.990,-0.061,0.122,-0.275,1.099,73.333,124119.000,1.000
-13.422,-23.558,-23.541,-6.131,-11.297,-10.644,-0.901,14.600,0.016,0.991,-0.059,0.183,-0.275,1.038,73.333,124120.000,1.000
-14.825,-25.372,-24.537,-7.091,-12.999,-11.713,-1.787,14.259,0.015,0.991,-0.059,0.153,-0.397,1.007,73.333,124121.000,1.000
-14.871,-26.031,-24.523,-7.766,-14.726,-11.719,-4.465,11.679,0.015,0.991,-0.059,0.214,-0.458,1.099,73.333,124122.000,1.000
-13.269,-25.334,-23.479,-7.928,-16.037,-10.501,-7.864,7.822,0.016,0.990,-0.057,0.275,-0.488,1.038,73.333,124123.000,1.000
-10.571,-23.514,-21.972,-7.663,-16.550,-8.099,-9.498,4.963,0.017,0.990,-0.057,0.397,-0.458,1.038,73.333,124124.000,1.000
-7.939,-21.365,-20.869,-7.427,-16.224,-5.139,-8.077,4.935,0.016,0.992,-0.059,0.427,-0.610,1.099,73.333,124125.000,1.000
-6.576,-19.875,-20.868,-7.823,-15.538,-2.769,-4.863,7.584,0.016,0.991,-0.057,0.366,-0.671,1.038,73.333,124126.000,1.000
-7.008,-19.628,-22.018,-9.070,-15.092,-1.943,-2.577,10.928,0.016,0.990,-0.060,0.366,-0.732,0.977,73.333,124127.000,1.000
-8.803,-20.442,-23.648,-10.750,-15.109,-2.675,-2.850,12.980,0.015,0.991,-0.059,0.397,-0.824,1.099,73.333,124128.000,1.000
-10.899,-21.608,-24.865,-12.133,-15.373,-4.145,-4.755,13.302,0.015,0.990,-0.059,0.488,-0.885,1.099,73.333,124129.000,1.000
-11.965,-22.318,-24.936,-12.519,-15.331,-5.322,-5.727,13.058,0.015,0.989,-0.059,0.549,-0.916,1.190,73.333,124130.000,1.000
-11.134,-21.968,-23.672,-11.674,-14.665,-5.529,-3.809,13.631,0.015,0.990,-0.057,0.519,-0.977,1.129,73.333,124131.000,1.000
-8.467,-20.369,-21.460,-9.943,-13.639,-4.718,0.228,15.218,0.017,0.992,-0.059,0.458,-0.977,1.221,73.333,124132.000,1.000
-4.731,-17.747,-18.890,-7.946,-12.833,-3.332,3.557,16.871,0.017,0.991,-0.058,0.580,-1.038,1.190,73.333,124133.000,1.000
-0.870,-14.699,-16.432,-6.200,-12.707,-2.010,4.101,17.540,0.017,0.991,-0.063,0.610,-1.068,1.251,73.333,124134.000,1.000
2.368,-12.076,-14.333,-4.916,-13.344,-1.275,1.860,16.688,0.016,0.991,-0.059,0.610,-1.190,1.099,73.333,124135.000,1.000
4.194,-10.784,-12.990,-4.314,-14.725,-1.432,-1.642,14.207,0.016,0.990,-0.060,0.610,-1.312,1.129,73.333,124136.000,1.000
3.895,-11.501,-12.968,-4.706,-16.728,-2.533,-4.640,10.516,0.016,0.988,-0.060,0.702,-1.251,1.190,73.333,124137.000,1.000
1.432,-14.254,-14.511,-6.185,-18.979,-4.331,-6.057,6.492,0.017,0.988,-0.058,0.702,-1.282,1.221,73.333,124138.000,1.000
-2.261,-18.164,-17.185,-8.337,-20.943,-6.351,-5.775,2.969,0.018,0.988,-0.056,0.641,-1.221,1.282,73.333,124139.000,1.000
-5.574,-21.736,-19.904,-10.225,-22.041,-8.026,-4.471,0.521,0.018,0.988,-0.055,0.732,-1.251,1.373,73.333,124140.000,1.000
-7.283,-23.665,-21.586,-11.008,-22.064,-8.935,-3.071,-0.605,0.020,0.989,-0.058,0.854,-1.373,1.282,73.333,124141.000,1.000
-7.151,-23.494,-21.662,-10.438,-21.198,-8.951,-2.395,-0.580,0.021,0.991,-0.059,0.824,-1.312,1.373,73.333,124142.000,1.000
-5.784,-21.650,-20.317,-9.016,-19.912,-8.344,-2.831,-0.216,0.022,0.991,-0.058,0.854,-1.282,1.373,73.333,124143.000,1.000
-4.185,-19.133,-18.454,-7.806,-18.951,-7.656,-4.255,-0.824,0.021,0.993,-0.061,0.763,-1.251,1.465,73.333,124144.000,1.000
-2.997,-16.942,-16.957,-7.590,-18.821,-7.092,-6.170,-3.153,0.021,0.990,-0.058,0.824,-1.160,1.404,73.333,124145.000,1.000
-2.240,-15.543,-16.128,-8.310,-19.458,-6.337,-7.569,-6.716,0.018,0.992,-0.060,0.763,-1.099,1.404,73.333,124146.000,1.000
-1.491,-14.823,-15.629,-9.171,-20.254,-5.036,-7.377,-10.187,0.017,0.991,-0.060,0.641,-1.068,1.404,73.333,124147.000,1.000
-0.356,-14.415,-14.882,-9.289,-20.549,-3.212,-5.396,-12.368,0.019,0.991,-0.058,0.580,-1.129,1.312,73.333,124148.000,1.000
1.071,-14.133,-13.640,-8.412,-20.294,-1.447,-3.087,-13.036,0.018,0.989,-0.060,0.671,-1.099,1.221,73.333,124149.000,1.000
2.335,-14.081,-12.124,-6.938,-19.921,-0.637,-2.874,-12.827,0.021,0.990,-0.062,0.641,-1.099,1.190,73.333,124150.000,1.000
2.845,-14.453,-10.919,-5.620,-19.807,-1.328,-5.504,-12.322,0.021,0.991,-0.060,0.671,-1.129,1.129,73.333,124151.000,1.000
2.295,-15.211,-10.482,-4.963,-19.704,-3.031,-8.814,-11.214,0.021,0.992,-0.059,0.702,-1.007,1.129,73.333,124152.000,1.000
0.967,-15.988,-10.756,-4.861,-18.940,-4.435,-9.758,-8.733,0.022,0.991,-0.060,0.641,-0.977,1.160,73.333,124153.000,1.000
-0.482,-16.409,-11.343,-4.914,-17.283,-4.528,-7.411,-5.067,0.026,0.991,-0.062,0.671,-0.916,1.190,73.333,124154.000,1.000
-1.332,-16.314,-11.717,-4.786,-15.090,-3.256,-3.630,-1.796,0.024,0.990,-0.059,0.702,-0.793,1.251,73.333,124155.000,1.000
-1.192,-15.619,-11.447,-4.376,-12.878,-1.128,-0.703,-0.661,0.022,0.987,-0.062,0.732,-0.793,1.221,73.333,124156.000,1.000
0.011,-14.187,-10.152,-3.536,-10.677,1.550,0.673,-1.922,0.023,0.985,-0.064,0.732,-0.854,1.221,73.333,124157.000,1.000
2.192,-11.847,-7.542,-1.964,-8.075,4.660,1.288,-4.181,0.023,0.982,-0.062,0.732,-0.732,1.190,73.333,124158.000,1.000
4.988,-8.680,-3.827,0.390,-4.958,7.616,1.971,-5.798,0.021,0.983,-0.059,0.946,-0.702,1.221,73.333,124159.000,1.000
7.849,-5.258,0.165,3.086,-1.908,9.220,2.457,-6.091,0.021,0.983,-0.062,1.038,-0.580,1.160,73.333,124160.000,1.000
10.210,-2.582,3.202,5.232,-0.109,8.226,1.737,-5.491,0.021,0.984,-0.062,1.038,-0.488,1.221,73.333,124161.000,1.000
11.927,-1.557,4.404,6.075,-0.426,4.391,-0.790,-4.738,0.022,0.989,-0.063,1.160,-0.549,1.282,73.333,124162.000,1.000
13.307,-2.289,3.825,5.539,-2.578,-0.717,-4.173,-4.081,0.021,0.993,-0.063,1.068,-0.488,1.251,73.333,124163.000,1.000
14.507,-4.064,2.165,4.131,-5.395,-4.381,-6.180,-3.307,0.021,0.994,-0.065,0.977,-0.427,1.251,73.333,124164.000,1.000
15.281,-5.984,0.248,2.587,-7.590,-4.591,-5.196,-2.161,0.019,0.996,-0.062,0.916,-0.488,1.251,73.333,124165.000,1.000
15.098,-7.582,-1.552,1.320,-8.710,-1.668,-1.645,-0.818,0.020,0.993,-0.062,0.732,-0.519,1.190,73.333,124166.000,1.000
13.656,-8.954,-3.292,0.372,-9.222,1.930,2.205,0.114,0.021,0.994,-0.065,0.702,-0.610,1.221,73.333,124167.000,1.000
11.282,-10.327,-4.985,-0.219,-9.782,3.542,4.016,0.042,0.020,0.994,-0.064,0.671,-0.580,1.160,73.333,124168.000,1.000
8.720,-11.698,-6.388,-0.334,-10.674,2.072,2.972,-1.248,0.016,0.994,-0.063,0.580,-0.702,0.885,73.333,124169.000,1.000
6.778,-12.762,-7.029,0.183,-11.538,-1.544,-0.044,-3.336,0.015,0.995,-0.062,0.519,-0.824,0.824,73.333,124170.000,1.000
5.971,-13.032,-6.517,1.340,-11.706,-5.109,-2.962,-5.280,0.014,0.997,-0.064,0.519,-0.946,0.580,73.333,124171.000,1.000
6.469,-12.185,-4.774,2.948,-10.679,-6.522,-3.802,-6.105,0.010,0.996,-0.062,0.397,-1.160,0.336,73.333,124172.000,1.000
8.044,-10.425,-2.223,4.579,-8.631,-4.971,-1.913,-5.515,0.010,0.997,-0.062,0.275,-1.221,0.305,73.333,124173.000,1.000
10.088,-8.425,0.292,5.725,-6.362,-1.146,2.085,-3.932,0.012,0.998,-0.061,0.214,-1.343,0.153,73.333,124174.000,1.000
12.081,-6.680,2.238,6.410,-4.296,3.852,7.620,-1.423,0.012,0.995,-0.063,0.000,-1.526,-0.061,73.333,124175.000,1.000
13.649,-5.176,3.614,7.111,-2.241,9.257,14.732,2.443,0.012,0.993,-0.060,-0.122,-1.740,-0.183,73.333,124176.000,1.000
14.385,-3.848,4.560,8.046,-0.133,14.225,22.138,7.014,0.015,0.993,-0.060,-0.214,-1.923,-0.183,73.333,124177.000,1.000
13.862,-2.965,4.939,8.758,1.355,17.415,26.327,9.756,0.015,0.992,-0.060,-0.183,-1.984,-0.122,73.333,124178.000,1.000
11.822,-2.998,4.322,8.415,1.174,17.398,24.079,8.038,0.014,0.993,-0.063,-0.336,-2.106,-0.122,73.333,124179.000,1.000
8.622,-4.141,2.558,6.638,-0.996,13.749,15.349,1.595,0.015,0.993,-0.064,-0.366,-2.228,0.000,73.333,124180.000,1.000
5.288,-5.870,0.146,3.879,-4.291,7.817,3.825,-7.046,0.016,0.992,-0.063,-0.275,-2.197,0.153,73.333,124181.000,1.000
3.215,-7.031,-1.737,1.320,-6.992,2.264,-5.376,-14.049,0.015,0.992,-0.063,-0.214,-2.350,0.183,73.333,124182.000,1.000
3.416,-6.507,-1.895,0.159,-7.619,-0.565,-8.854,-16.569,0.015,0.990,-0.061,-0.061,-2.472,0.305,73.333,124183.000,1.000
5.763,-4.033,-0.112,0.683,-5.988,0.071,-6.304,-14.397,0.016,0.990,-0.058,-0.061,-2.502,0.488,73.333,124184.000,1.000
9.214,-0.364,2.735,2.209,-3.033,3.429,0.330,-9.443,0.015,0.990,-0.060,-0.122,-2.563,0.641,73.333,124185.000,1.000
12.507,3.196,5.275,3.669,-0.133,7.958,8.300,-4.172,0.016,0.991,-0.061,-0.061,-2.594,0.793,73.333,124186.000,1.000
14.798,5.391,6.464,4.361,1.621,11.845,14.526,-0.507,0.016,0.989,-0.056,-0.061,-2.563,1.038,73.333,124187.000,1.000
15.771,5.500,6.005,4.180,1.796,13.603,16.548,0.558,0.016,0.989,-0.056,-0.061,-2.563,1.007,73.333,124188.000,1.000
15.462,3.609,4.290,3.424,0.611,12.704,14.096,-0.838,0.016,0.989,-0.059,0.000,-2.594,1.068,73.333,124189.000,1.000
14.453,0.653,2.337,2.811,-1.094,9.900,9.212,-3.309,0.019,0.990,-0.060,0.000,-2.655,1.129,73.333,124190.000,1.000
13.624,-2.060,1.213,3.137,-2.435,6.495,4.713,-4.972,0.019,0.990,-0.061,0.061,-2.533,1.160,73.333,124191.000,1.000
13.606,-3.613,1.385,4.757,-3.017,3.363,2.360,-4.496,0.019,0.990,-0.062,0.092,-2.472,1.099,73.333,124192.000,1.000
14.445,-3.839,2.519,7.334,-3.042,0.852,2.427,-1.653,0.022,0.988,-0.059,0.153,-2.319,1.007,73.333,124193.000,1.000
15.721,-3.173,3.742,9.973,-3.082,-0.763,4.363,2.676,0.021,0.985,-0.058,0.183,-2.258,1.068,73.333,124194.000,1.000
17.036,-2.287,4.337,11.845,-3.493,-1.143,7.286,7.153,0.021,0.987,-0.059,0.214,-2.167,0.946,73.333,124195.000,1.000
17.926,-1.885,3.914,12.435,-4.426,-0.425,10.212,10.494,0.024,0.987,-0.061,0.244,-2.075,0.946,73.333,124196.000,1.000
17.690,-2.683,2.200,11.452,-6.096,0.484,11.968,11.602,0.022,0.986,-0.064,0.305,-2.014,1.038,73.333,124197.000,1.000
15.702,-5.073,-0.926,8.826,-8.678,0.519,11.681,10.035,0.022,0.984,-0.061,0.458,-1.862,0.916,73.333,124198.000,1.000
11.904,-8.765,-5.159,4.874,-11.990,-0.661,9.342,6.527,0.022,0.985,-0.061,0.580,-1.617,0.854,73.333,124199.000,1.000
7.040,-12.908,-9.641,0.438,-15.357,-2.485,5.408,2.478,0.022,0.983,-0.061,0.671,-1.556,0.854,73.333,124200.000,1.000
2.119,-16.683,-13.531,-3.553,-18.193,-4.334,0.365,-1.247,0.023,0.983,-0.061,0.916,-1.495,0.824,73.333,124201.000,1.000
-2.058,-19.692,-16.423,-6.436,-20.212,-6.107,-5.098,-4.342,0.022,0.985,-0.063,0.946,-1.343,0.671,73.333,124202.000,1.000
-5.063,-21.773,-18.286,-7.903,-21.179,-7.817,-9.572,-6.315,0.021,0.984,-0.064,1.007,-1.312,0.641,73.333,124203.000,1.000
-6.941,-22.837,-19.339,-8.111,-21.023,-9.448,-11.665,-6.700,0.020,0.985,-0.063,1.190,-1.221,0.580,73.333,124204.000,1.000
-7.908,-22.908,-19.789,-7.529,-19.983,-11.169,-11.390,-5.690,0.020,0.986,-0.060,1.373,-1.190,0.610,73.333,124205.000,1.000
-8.193,-22.120,-19.770,-6.727,-18.597,-13.072,-9.644,-4.005,0.021,0.987,-0.063,1.404,-0.885,0.702,73.333,124206.000,1.000
-7.913,-20.696,-19.307,-6.019,-17.251,-14.689,-7.021,-2.020,0.021,0.987,-0.065,1.373,-0.824,0.824,73.333,124207.000,1.000
-7.084,-18.921,-18.383,-5.410,-16.028,-15.265,-3.754,0.562,0.021,0.988,-0.063,1.434,-0.763,0.824,73.333,124208.000,1.000
-5.894,-17.232,-17.231,-5.020,-15.111,-14.585,-0.420,3.827,0.020,0.989,-0.062,1.495,-0.580,0.732,73.333,124209.000,1.000
-4.694,-16.142,-16.276,-5.196,-14.831,-13.231,1.738,6.783,0.019,0.992,-0.063,1.495,-0.610,0.824,73.333,124210.000,1.000
-3.942,-15.999,-15.948,-6.356,-15.519,-12.206,1.563,7.505,0.019,0.993,-0.065,1.434,-0.580,0.946,73.333,124211.000,1.000
-3.851,-16.765,-16.321,-8.480,-17.040,-12.173,-0.974,4.561,0.018,0.995,-0.064,1.434,-0.488,0.916,73.333,124212.000,1.000
-4.061,-17.822,-16.882,-10.718,-18.467,-12.752,-4.200,-1.371,0.017,0.995,-0.063,1.343,-0.549,1.038,73.333,124213.000,1.000
-3.927,-18.231,-16.885,-11.783,-18.593,-12.704,-5.598,-7.641,0.016,0.996,-0.062,1.251,-0.458,1.038,73.333,124214.000,1.000
-2.928,-17.328,-15.837,-10.724,-16.751,-10.834,-3.648,-11.580,0.012,0.997,-0.062,1.038,-0.488,1.038,73.333,124215.000,1.000
-1.053,-15.146,-13.911,-7.683,-13.536,-6.973,1.226,-12.449,0.012,0.997,-0.061,1.007,-0.580,1.038,73.333,124216.000,1.000
1.281,-12.485,-11.823,-3.813,-10.526,-2.356,6.833,-11.500,0.011,0.996,-0.060,0.824,-0.580,0.977,73.333,124217.000,1.000
3.492,-10.524,-10.395,-0.587,-9.259,1.010,10.610,-10.596,0.010,0.990,-0.060,0.580,-0.641,1.068,73.333,124218.000,1.000
4.977,-10.254,-10.213,0.836,-10.477,1.484,10.883,-11.145,0.012,0.991,-0.060,0.427,-0.641,1.038,73.333,124219.000,1.000
5.405,-11.994,-11.300,0.089,-13.847,-1.385,6.945,-13.744,0.015,0.989,-0.064,0.458,-0.732,0.977,73.333,124220.000,1.000
4.693,-15.251,-13.232,-2.472,-18.363,-6.758,-0.600,-18.013,0.019,0.989,-0.065,0.519,-0.732,1.099,73.333,124221.000,1.000
3.016,-19.008,-15.369,-6.023,-22.725,-12.848,-9.567,-22.513,0.019,0.992,-0.063,0.519,-0.763,1.068,73.333,124222.000,1.000
0.882,-22.117,-17.050,-9.568,-25.746,-17.644,-16.964,-25.433,0.018,0.995,-0.063,0.397,-0.763,1.160,73.333,124223.000,1.000
-1.081,-23.692,-17.846,-12.279,-26.803,-19.846,-20.550,-25.719,0.018,0.995,-0.063,0.397,-0.702,1.221,73.333,124224.000,1.000
-2.334,-23.417,-17.555,-13.560,-25.777,-19.253,-19.977,-23.321,0.017,0.995,-0.063,0.275,-0.702,1.434,73.333,124225.000,1.000
-2.712,-21.597,-16.287,-13.194,-23.036,-16.522,-16.426,-18.810,0.019,0.994,-0.064,0.153,-0.824,1.495,73.333,124226.000,1.000
-2.299,-18.907,-14.340,-11.293,-19.206,-12.526,-11.452,-12.867,0.021,0.991,-0.063,0.275,-0.793,1.556,73.333,124227.000,1.000
-1.213,-15.955,-12.010,-8.188,-14.900,-7.885,-5.862,-6.008,0.021,0.990,-0.065,0.305,-0.732,1.678,73.333,124228.000,1.000
0.239,-13.228,-9.689,-4.489,-10.826,-3.236,0.062,1.153,0.019,0.991,-0.065,0.305,-0.671,1.709,73.333,124229.000,1.000
1.624,-11.168,-7.799,-0.916,-7.719,0.516,5.309,7.666,0.015,0.991,-0.066,0.275,-0.610,1.556,73.333,124230.000,1.000
2.431,-10.065,-6.748,1.808,-6.214,2.526,8.169,12.241,0.012,0.993,-0.061,0.183,-0.519,1.465,73.333,124231.000,1.000
2.282,-9.954,-6.751,3.158,-6.488,2.601,7.426,13.802,0.010,0.992,-0.060,0.122,-0.671,1.404,73.333,124232.000,1.000
1.151,-10.575,-7.605,3.072,-8.002,1.403,3.694,12.431,0.010,0.990,-0.061,0.092,-0.793,1.129,73.333,124233.000,1.000
-0.641,-11.515,-8.809,1.984,-9.757,0.018,-0.499,9.662,0.011,0.986,-0.064,0.061,-0.916,1.068,73.333,124234.000,1.000
-2.463,-12.376,-9.822,0.628,-10.746,-0.651,-2.435,7.682,0.012,0.986,-0.065,0.092,-1.068,0.854,73.333,124235.000,1.000
-3.746,-12.892,-10.459,-0.559,-10.633,-0.443,-0.957,7.799,0.016,0.986,-0.064,0.183,-1.129,0.824,73.333,124236.000,1.000
-4.164,-12.953,-10.778,-1.581,-9.784,0.123,3.015,9.598,0.017,0.987,-0.062,0.305,-1.190,0.702,73.333,124237.000,1.000
-3.617,-12.480,-10.708,-2.526,-8.735,0.536,7.584,11.505,0.019,0.989,-0.063,0.458,-1.343,0.641,73.333,124238.000,1.000
-2.324,-11.464,-10.134,-3.383,-7.904,0.567,11.023,11.863,0.019,0.988,-0.063,0.427,-1.221,0.580,73.333,124239.000,1.000
-0.650,-10.007,-8.983,-3.966,-7.381,0.151,12.054,9.911,0.018,0.988,-0.062,0.458,-1.160,0.641,73.333,124240.000,1.000
1.035,-8.239,-7.274,-4.025,-6.974,-0.589,10.341,6.139,0.018,0.989,-0.060,0.427,-1.251,0.549,73.333,124241.000,1.000
2.588,-6.325,-5.045,-3.324,-6.348,-1.250,6.627,1.847,0.015,0.989,-0.063,0.427,-1.282,0.641,73.333,124242.000,1.000
4.150,-4.490,-2.361,-1.763,-5.291,-1.387,2.225,-1.743,0.015,0.990,-0.065,0.366,-1.190,0.671,73.333,124243.000,1.000
5.832,-2.974,0.545,0.496,-3.869,-0.886,-1.487,-4.048,0.016,0.991,-0.061,0.488,-1.251,0.793,73.333,124244.000,1.000
7.600,-1.870,3.424,3.178,-2.097,0.190,-3.345,-4.903,0.016,0.993,-0.062,0.458,-1.343,0.946,73.333,124245.000,1.000
9.195,-1.044,5.998,5.946,0.044,1.881,-2.497,-4.347,0.016,0.993,-0.060,0.488,-1.312,1.099,73.333,124246.000,1.000
10.331,-0.292,7.959,8.447,2.443,4.216,1.021,-2.648,0.016,0.992,-0.059,0.366,-1.282,1.190,73.333,124247.000,1.000
10.875,0.461,9.009,10.329,4.728,6.868,6.077,-0.382,0.015,0.993,-0.064,0.366,-1.373,1.251,73.333,124248.000,1.000
10.749,0.983,8.876,11.216,6.203,8.994,10.996,1.547,0.016,0.993,-0.059,0.366,-1.373,1.434,73.333,124249.000,1.000
10.094,0.962,7.656,11.072,6.441,9.823,14.433,2.407,0.017,0.993,-0.061,0.305,-1.343,1.282,73.333,124250.000,1.000
9.310,0.484,5.931,10.361,5.722,9.402,16.209,2.088,0.016,0.993,-0.063,0.366,-1.434,1.343,73.333,124251.000,1.000
8.997,0.036,4.561,9.824,4.860,8.479,16.746,0.891,0.017,0.991,-0.061,0.336,-1.404,1.312,73.333,124252.000,1.000
9.699,0.126,4.249,10.057,4.595,7.695,16.141,-0.855,0.018,0.991,-0.063,0.244,-1.465,1.343,73.333,124253.000,1.000
11.451,0.896,5.102,11.112,5.135,7.133,14.538,-2.558,0.020,0.991,-0.060,0.305,-1.526,1.373,73.333,124254.000,1.000
13.734,2.077,6.646,12.556,6.322,6.689,12.833,-3.123,0.018,0.991,-0.063,0.275,-1.526,1.312,73.333,124255.000,1.000
15.684,3.203,8.021,13.619,7.621,6.357,12.132,-2.003,0.018,0.991,-0.060,0.244,-1.404,1.404,73.333,124256.000,1.000
16.655,3.895,8.528,13.683,8.331,6.122,12.399,-0.071,0.017,0.990,-0.061,0.305,-1.404,1.282,73.333,124257.000,1.000
16.603,4.201,8.137,12.759,8.152,6.075,12.905,1.423,0.019,0.989,-0.061,0.305,-1.373,1.251,73.333,124258.000,1.000
15.826,4.530,7.344,11.329,7.325,6.542,13.595,2.159,0.019,0.989,-0.063,0.336,-1.312,1.251,73.333,124259.000,1.000
14.679,5.124,6.711,9.917,6.288,7.716,14.770,2.643,0.019,0.988,-0.062,0.336,-1.373,1.251,73.333,124260.000,1.000
13.332,5.760,6.335,8.691,5.102,9.169,16.229,3.445,0.018,0.989,-0.061,0.366,-1.404,1.099,73.333,124261.000,1.000
11.878,5.972,5.891,7.621,3.590,10.102,17.225,4.981,0.018,0.988,-0.064,0.366,-1.465,1.068,73.333,124262.000,1.000
10.498,5.508,5.047,6.717,1.711,9.983,17.030,7.255,0.018,0.988,-0.063,0.427,-1.373,1.099,73.333,124263.000,1.000
9.357,4.429,3.652,5.896,-0.537,8.776,15.146,9.323,0.019,0.989,-0.063,0.519,-1.282,0.977,73.333,124264.000,1.000
8.731,3.116,1.995,5.131,-2.888,7.049,11.705,10.053,0.019,0.988,-0.060,0.488,-1.251,0.946,73.333,124265.000,1.000
8.951,2.199,0.765,4.636,-4.695,5.846,8.314,9.620,0.018,0.987,-0.061,0.610,-1.190,0.885,73.333,124266.000,1.000
10.128,2.045,0.584,4.698,-5.337,5.913,6.878,9.388,0.019,0.988,-0.061,0.549,-1.160,0.916,73.333,124267.000,1.000
11.858,2.329,1.393,5.210,-4.880,6.980,7.586,10.293,0.017,0.989,-0.062,0.580,-1.160,0.793,73.333,124268.000,1.000
13.268,2.209,2.321,5.563,-4.109,7.960,9.063,12.034,0.017,0.991,-0.063,0.671,-1.099,0.793,73.333,124269.000,1.000
13.657,0.978,2.417,5.222,-3.726,7.829,9.865,13.787,0.018,0.991,-0.062,0.702,-1.038,0.732,73.333,124270.000,1.000
12.801,-1.393,1.234,4.056,-3.995,6.253,9.418,14.897,0.017,0.990,-0.061,0.610,-0.946,0.732,73.333,124271.000,1.000
10.958,-4.215,-0.973,2.364,-4.691,3.883,8.037,15.258,0.017,0.990,-0.064,0.671,-0.977,0.702,73.333,124272.000,1.000
8.648,-6.485,-3.462,0.634,-5.282,2.110,6.807,15.454,0.016,0.991,-0.066,0.702,-1.007,0.854,73.333,124273.000,1.000
6.301,-7.612,-5.573,-0.896,-5.542,1.871,6.691,16.107,0.018,0.992,-0.062,0.702,-1.068,0.763,73.333,124274.000,1.000
4.292,-7.799,-6.952,-2.201,-5.759,2.700,7.202,16.945,0.014,0.990,-0.062,0.671,-0.946,0.671,73.333,124275.000,1.000
2.877,-7.718,-7.591,-3.297,-6.498,3.212,6.993,16.770,0.015,0.990,-0.064,0.671,-1.068,0.549,73.333,124276.000,1.000
2.118,-7.951,-7.726,-4.125,-7.940,2.532,5.476,14.650,0.017,0.990,-0.065,0.732,-0.946,0.641,73.333,124277.000,1.000
1.898,-8.584,-7.695,-4.590,-9.631,0.983,3.314,10.836,0.014,0.991,-0.065,0.702,-0.977,0.763,73.333,124278.000,1.000
1.985,-9.242,-7.822,-4.677,-10.948,-0.488,1.548,6.187,0.013,0.993,-0.065,0.702,-1.068,0.793,73.333,124279.000,1.000
2.246,-9.468,-8.110,-4.308,-11.432,-1.096,0.676,1.459,0.015,0.993,-0.061,0.641,-1.068,0.824,73.333,124280.000,1.000
2.624,-9.072,-8.236,-3.381,-11.027,-0.702,0.865,-2.538,0.014,0.993,-0.062,0.580,-1.068,0.824,73.333,124281.000,1.000
3.261,-8.133,-7.639,-1.784,-9.910,0.268,2.112,-4.750,0.015,0.993,-0.062,0.580,-1.068,0.763,73.333,124282.000,1.000
4.556,-6.702,-5.783,0.583,-8.336,1.339,3.948,-4.718,0.014,0.990,-0.061,0.549,-1.190,0.793,73.333,124283.000,1.000
6.729,-4.820,-2.678,3.561,-6.758,2.212,5.401,-3.295,0.012,0.992,-0.063,0.458,-1.251,0.885,73.333,124284.000,1.000
9.485,-2.765,0.986,6.661,-5.614,2.771,5.788,-1.782,0.014,0.992,-0.062,0.336,-1.221,0.946,73.333,124285.000,1.000
11.897,-1.117,3.974,9.029,-5.251,2.952,5.510,-0.929,0.014,0.992,-0.063,0.305,-1.251,0.916,73.333,124286.000,1.000
12.844,-0.605,5.060,9.787,-5.882,2.561,5.146,-1.031,0.013,0.991,-0.061,0.458,-1.221,0.885,73.333,124287.000,1.000
11.714,-1.626,3.790,8.678,-7.363,1.495,4.719,-2.153,0.013,0.992,-0.061,0.427,-1.343,0.854,73.333,124288.000,1.000
8.747,-3.908,0.779,6.343,-9.088,0.164,4.313,-3.965,0.014,0.991,-0.061,0.275,-1.282,1.007,73.333,124289.000,1.000
4.979,-6.666,-2.630,3.971,-10.231,-0.586,4.153,-5.854,0.012,0.990,-0.062,0.244,-1.282,1.068,73.333,124290.000,1.000
1.557,-9.068,-5.296,2.385,-10.515,-0.321,4.138,-7.443,0.012,0.992,-0.060,0.183,-1.343,1.129,73.333,124291.000,1.000
-0.785,-10.699,-6.815,1.653,-10.391,0.331,3.635,-8.780,0.013,0.991,-0.061,0.183,-1.434,1.190,73.333,124292.000,1.000
-1.823,-11.621,-7.428,1.369,-10.505,0.179,2.216,-10.056,0.015,0.992,-0.062,0.153,-1.434,1.068,73.333,124293.000,1.000
-1.764,-12.161,-7.678,1.084,-11.167,-1.356,0.582,-11.103,0.015,0.994,-0.063,0.153,-1.434,1.129,73.333,124294.000,1.000
-0.908,-12.630,-7.939,0.676,-12.056,-3.610,0.220,-11.140,0.015,0.991,-0.063,0.153,-1.465,1.221,73.333,124295.000,1.000
0.403,-13.173,-8.352,0.108,-12.711,-5.327,1.900,-9.817,0.017,0.989,-0.064,0.031,-1.434,1.190,73.333,124296.000,1.000
1.755,-13.885,-8.991,-0.911,-13.122,-5.868,4.240,-8.443,0.017,0.992,-0.062,0.000,-1.434,1.190,73.333,124297.000,1.000
2.699,-14.801,-9.877,-2.758,-13.699,-5.676,4.672,-9.178,0.018,0.990,-0.062,-0.031,-1.312,1.221,73.333,124298.000,1.000
2.924,-15.694,-10.835,-5.364,-14.628,-5.528,2.148,-12.855,0.018,0.991,-0.062,-0.031,-1.282,1.190,73.333,124299.000,1.000
2.665,-15.896,-11.247,-7.787,-15.159,-5.323,-1.715,-17.986,0.019,0.990,-0.062,0.000,-1.190,1.282,73.333,124300.000,1.000
2.516,-14.560,-10.376,-8.657,-14.021,-3.887,-3.850,-21.884,0.019,0.990,-0.061,-0.031,-1.221,1.404,73.333,124301.000,1.000
2.943,-11.368,-7.899,-7.027,-10.475,-0.193,-2.142,-22.425,0.021,0.990,-0.063,-0.031,-1.068,1.404,73.333,124302.000,1.000
3.985,-6.870,-4.169,-3.019,-5.102,5.250,3.016,-19.465,0.018,0.991,-0.065,-0.061,-1.038,1.312,73.333,124303.000,1.000
5.284,-2.113,-0.080,2.236,0.379,10.484,9.059,-15.121,0.020,0.992,-0.063,-0.031,-0.977,1.373,73.333,124304.000,1.000
6.537,1.998,3.601,7.516,4.430,13.788,13.121,-11.967,0.020,0.990,-0.060,0.000,-0.977,1.312,73.333,124305.000,1.000
7.599,4.913,6.450,12.027,6.421,14.674,13.898,-11.092,0.020,0.990,-0.063,0.000,-0.916,1.343,73.333,124306.000,1.000
8.422,6.291,8.268,15.378,6.506,13.456,11.735,-12.001,0.019,0.988,-0.062,0.000,-0.885,1.373,73.333,124307.000,1.000
9.030,6.129,9.043,17.515,5.347,10.843,8.179,-13.514,0.019,0.989,-0.062,-0.092,-0.793,1.251,73.333,124308.000,1.000
9.369,4.804,8.872,18.578,3.693,7.776,5.146,-14.610,0.017,0.989,-0.059,-0.061,-0.671,1.312,73.333,124309.000,1.000
9.375,2.858,7.944,18.766,2.067,5.084,3.441,-14.978,0.017,0.990,-0.061,0.061,-0.641,1.282,73.333,124310.000,1.000
8.984,0.869,6.485,18.154,0.637,3.292,2.874,-14.922,0.018,0.989,-0.062,-0.031,-0.580,1.282,73.333,124311.000,1.000
8.278,-0.607,4.878,16.885,-0.407,2.775,3.498,-14.434,0.019,0.988,-0.061,0.122,-0.641,1.251,73.333,124312.000,1.000
7.544,-1.232,3.568,15.271,-0.843,3.609,5.613,-13.020,0.018,0.992,-0.063,0.031,-0.580,1.282,73.333,124313.000,1.000
6.907,-1.283,2.513,13.338,-1.059,5.047,8.399,-10.993,0.020,0.991,-0.061,0.031,-0.549,1.221,73.333,124314.000,1.000
6.202,-1.616,1.120,10.708,-1.982,5.727,9.653,-9.927,0.018,0.990,-0.061,0.031,-0.488,1.221,73.333,124315.000,1.000
5.085,-2.989,-1.281,7.004,-4.350,4.618,7.778,-11.326,0.019,0.989,-0.062,0.122,-0.549,1.221,73.333,124316.000,1.000
3.419,-5.489,-4.736,2.443,-7.966,1.868,3.367,-15.258,0.020,0.990,-0.063,0.153,-0.610,1.251,73.333,124317.000,1.000
1.530,-8.432,-8.401,-2.035,-11.680,-1.104,-1.044,-20.152,0.019,0.992,-0.061,0.153,-0.549,1.190,73.333,124318.000,1.000
0.041,-10.824,-11.024,-5.282,-14.164,-2.647,-2.831,-23.750,0.016,0.992,-0.062,0.305,-0.458,1.282,73.333,124319.000,1.000
-0.347,-11.949,-11.595,-6.516,-14.673,-2.200,-1.450,-24.530,0.016,0.991,-0.063,0.275,-0.427,1.251,73.333,124320.000,1.000
0.738,-11.584,-9.871,-5.682,-13.392,-0.506,1.802,-22.501,0.018,0.992,-0.062,0.336,-0.458,1.282,73.333,124321.000,1.000
3.246,-9.874,-6.265,-3.165,-10.861,1.554,5.618,-18.529,0.017,0.991,-0.062,0.366,-0.458,1.221,73.333,124322.000,1.000
6.776,-7.189,-1.566,0.498,-7.544,3.835,9.267,-13.594,0.018,0.991,-0.063,0.366,-0.549,1.190,73.333,124323.000,1.000
10.464,-4.289,3.035,4.421,-4.224,6.269,11.828,-8.972,0.017,0.991,-0.061,0.397,-0.549,1.282,73.333,124324.000,1.000
13.218,-2.249,6.358,7.609,-1.849,8.103,12.278,-5.829,0.017,0.992,-0.061,0.580,-0.549,1.282,73.333,124325.000,1.000
14.158,-1.818,7.817,9.476,-0.947,8.362,10.698,-4.415,0.016,0.991,-0.060,0.671,-0.580,1.160,73.333,124326.000,1.000
13.138,-2.903,7.700,10.152,-1.256,6.953,8.281,-4.126,0.018,0.992,-0.063,0.580,-0.610,1.190,73.333,124327.000,1.000
10.839,-4.634,6.874,10.247,-2.023,4.947,6.438,-4.085,0.019,0.992,-0.060,0.610,-0.549,1.190,73.333,124328.000,1.000
8.253,-5.957,6.139,10.325,-2.714,3.579,5.925,-3.543,0.018,0.992,-0.058,0.580,-0.641,1.282,73.333,124329.000,1.000
6.266,-6.221,5.886,10.650,-3.207,3.336,6.398,-2.163,0.017,0.988,-0.059,0.519,-0.702,1.251,73.333,124330.000,1.000
5.223,-5.394,5.930,11.058,-3.688,3.967,7.189,-0.255,0.018,0.990,-0.060,0.580,-0.702,1.129,73.333,124331.000,1.000
4.840,-3.983,5.763,11.182,-4.330,4.922,8.006,1.506,0.019,0.992,-0.060,0.732,-0.580,1.160,73.333,124332.000,1.000
4.581,-2.645,5.056,10.757,-5.109,5.751,8.775,2.504,0.017,0.991,-0.055,0.732,-0.793,1.221,73.333,124333.000,1.000
4.100,-1.801,3.847,9.634,-6.003,6.244,9.099,2.163,0.016,0.990,-0.060,0.763,-0.824,1.160,73.333,124334.000,1.000
3.617,-1.428,2.585,7.879,-6.915,6.465,8.285,0.213,0.017,0.991,-0.060,0.854,-0.793,1.129,73.333,124335.000,1.000
3.640,-1.063,1.909,5.806,-7.589,6.730,6.387,-2.811,0.015,0.991,-0.062,0.793,-0.916,1.007,73.333,124336.000,1.000
4.485,-0.121,2.388,3.950,-7.501,7.583,4.527,-5.464,0.015,0.990,-0.063,0.793,-0.916,1.038,73.333,124337.000,1.000
6.114,1.798,4.322,2.884,-5.937,9.630,4.467,-5.839,0.014,0.989,-0.061,0.793,-1.007,1.038,73.333,124338.000,1.000
8.183,4.713,7.575,2.890,-2.413,13.169,7.965,-2.451,0.015,0.991,-0.061,0.793,-1.068,1.129,73.333,124339.000,1.000
10.269,8.152,11.613,3.811,2.889,17.936,15.347,4.617,0.016,0.989,-0.063,0.824,-1.068,1.038,73.333,124340.000,1.000
11.866,11.223,15.448,4.968,8.679,22.867,24.271,12.949,0.015,0.990,-0.062,0.793,-0.977,1.099,73.333,124341.000,1.000
12.537,12.900,17.941,5.553,13.075,26.235,30.425,18.951,0.017,0.989,-0.063,0.885,-1.007,1.099,73.333,124342.000,1.000
12.099,12.523,18.391,5.171,14.805,26.589,30.583,20.430,0.016,0.990,-0.064,0.854,-1.129,1.038,73.333,124343.000,1.000
10.617,10.132,16.819,3.974,13.827,23.721,25.043,17.966,0.014,0.990,-0.063,0.732,-1.190,1.038,73.333,124344.000,1.000
8.615,6.572,14.109,2.691,11.278,18.849,17.089,14.083,0.018,0.989,-0.062,0.702,-1.190,1.099,73.333,124345.000,1.000
7.003,3.205,11.626,2.332,8.657,13.891,10.739,11.248,0.017,0.988,-0.061,0.763,-1.282,1.068,73.333,124346.000,1.000
6.674,1.089,10.492,3.676,6.933,10.269,8.113,10.527,0.017,0.989,-0.060,0.885,-1.312,1.007,73.333,124347.000,1.000
7.931,0.392,10.973,6.757,6.141,8.209,8.428,11.588,0.018,0.990,-0.062,0.824,-1.434,0.977,73.333,124348.000,1.000
10.145,0.504,12.374,10.716,5.629,7.059,9.342,13.388,0.020,0.994,-0.065,0.763,-1.373,1.038,73.333,124349.000,1.000
12.252,0.768,13.718,14.419,4.906,6.337,9.251,15.087,0.020,0.991,-0.063,0.763,-1.343,1.099,73.333,124350.000,1.000
13.366,0.987,14.336,17.033,3.928,6.161,8.588,16.505,0.021,0.993,-0.061,0.824,-1.312,1.282,73.333,124351.000,1.000
13.142,1.146,14.025,18.261,2.833,6.640,8.508,17.779,0.019,0.991,-0.059,0.793,-1.282,1.282,73.333,124352.000,1.000
11.750,1.096,12.909,18.300,1.710,7.410,9.216,18.765,0.018,0.991,-0.063,0.671,-1.312,1.343,73.333,124353.000,1.000
9.520,0.643,11.131,17.552,0.576,7.974,10.010,18.818,0.016,0.990,-0.061,0.641,-1.282,1.282,73.333,124354.000,1.000
6.776,-0.218,8.814,16.404,-0.407,8.249,10.138,17.338,0.015,0.988,-0.062,0.732,-1.526,1.190,73.333,124355.000,1.000
3.767,-1.236,6.082,14.986,-1.069,8.529,9.622,14.446,0.016,0.986,-0.062,0.732,-1.556,1.068,73.333,124356.000,1.000
0.805,-2.125,3.092,13.118,-1.508,9.032,8.994,10.744,0.018,0.987,-0.063,0.763,-1.465,0.977,73.333,124357.000,1.000
-1.630,-2.631,0.087,10.527,-2.122,9.781,8.704,6.600,0.017,0.988,-0.063,0.763,-1.526,0.977,73.333,124358.000,1.000
-3.059,-2.554,-2.608,7.140,-3.338,10.688,8.915,2.173,0.020,0.992,-0.063,0.702,-1.495,0.885,73.333,124359.000,1.000
-3.069,-1.881,-4.548,3.412,-5.153,11.521,9.277,-2.007,0.021,0.991,-0.059,0.793,-1.465,0.854,73.333,124360.000,1.000
-1.630,-0.867,-5.460,0.119,-7.225,11.891,9.254,-5.092,0.021,0.991,-0.065,0.732,-1.343,0.916,73.333,124361.000,1.000
0.705,-0.025,-5.441,-2.065,-9.107,11.483,8.572,-6.465,0.021,0.990,-0.064,0.580,-1.404,0.916,73.333,124362.000,1.000
3.015,0.120,-4.871,-2.913,-10.477,10.262,7.446,-6.190,0.021,0.988,-0.063,0.519,-1.373,1.007,73.333,124363.000,1.000
4.475,-0.655,-4.223,-2.767,-11.353,8.376,6.398,-5.034,0.020,0.983,-0.064,0.702,-1.251,0.977,73.333,124364.000,1.000
4.891,-2.083,-3.702,-2.144,-11.825,6.130,5.686,-3.766,0.020,0.979,-0.067,0.793,-1.190,0.946,73.333,124365.000,1.000
4.528,-3.529,-3.281,-1.475,-11.942,3.933,5.044,-2.746,0.020,0.979,-0.068,1.038,-1.190,0.824,73.333,124366.000,1.000
3.739,-4.425,-2.907,-0.993,-11.700,2.200,3.816,-2.060,0.021,0.981,-0.067,1.099,-1.221,0.854,73.333,124367.000,1.000
2.972,-4.398,-2.411,-0.556,-10.917,1.360,2.012,-1.371,0.019,0.984,-0.066,1.282,-1.099,0.977,73.333,124368.000,1.000
2.780,-3.251,-1.448,0.241,-9.353,1.677,0.915,0.134,0.019,0.990,-0.065,1.251,-1.038,0.824,73.333,124369.000,1.000
3.651,-1.091,0.339,1.676,-6.962,3.034,1.806,3.107,0.021,0.994,-0.065,1.282,-1.007,0.916,73.333,124370.000,1.000
5.593,1.662,2.880,3.457,-4.164,5.029,4.725,7.317,0.020,0.995,-0.065,1.068,-1.007,0.854,73.333,124371.000,1.000
8.123,4.442,5.589,4.875,-1.632,7.233,8.438,11.723,0.019,0.997,-0.065,1.007,-1.068,0.854,73.333,124372.000,1.000
10.575,6.788,7.710,5.363,0.112,9.288,11.473,15.190,0.020,0.997,-0.065,0.854,-1.068,0.702,73.333,124373.000,1.000
12.348,8.421,8.679,4.868,0.906,10.944,13.154,17.286,0.019,0.995,-0.065,0.854,-0.977,0.824,73.333,124374.000,1.000
13.232,9.269,8.470,3.970,1.093,12.338,13.661,18.492,0.019,0.994,-0.066,0.824,-0.946,0.946,73.333,124375.000,1.000
13.387,9.562,7.496,3.450,1.106,14.004,13.602,19.290,0.016,0.996,-0.065,0.671,-1.068,0.885,73.333,124376.000,1.000
13.160,9.687,6.296,3.801,1.140,16.347,13.430,19.639,0.013,0.997,-0.065,0.488,-1.099,0.671,73.333,124377.000,1.000
12.822,9.905,5.230,4.965,1.215,19.127,13.335,19.573,0.011,0.998,-0.064,0.336,-1.160,0.519,73.333,124378.000,1.000
12.328,10.203,4.295,6.368,1.234,21.479,13.413,19.480,0.010,1.000,-0.062,0.275,-1.251,0.427,73.333,124379.000,1.000
11.657,10.508,3.466,7.489,1.248,22.565,13.758,19.915,0.007,0.999,-0.062,0.153,-1.526,0.336,73.333,124380.000,1.000
11.069,10.931,2.915,8.206,1.474,22.133,14.759,21.361,0.010,0.998,-0.062,0.061,-1.678,0.244,73.333,124381.000,1.000
10.994,11.605,2.915,8.702,2.145,20.625,16.654,23.759,0.010,0.998,-0.065,-0.153,-1.678,0.214,73.333,124382.000,1.000
11.677,12.517,3.597,9.192,3.269,18.919,18.901,26.145,0.011,0.997,-0.063,-0.275,-1.770,0.214,73.333,124383.000,1.000
12.930,13.489,4.785,9.791,4.553,17.812,20.539,27.201,0.012,0.997,-0.062,-0.427,-2.045,0.153,73.333,124384.000,1.000
14.387,14.299,6.241,10.715,5.818,17.717,21.178,26.371,0.013,0.997,-0.064,-0.488,-2.075,0.214,73.333,124385.000,1.000
15.678,14.825,7.727,12.120,7.007,18.491,21.387,24.010,0.014,0.995,-0.064,-0.549,-2.014,0.366,73.333,124386.000,1.000
16.481,14.978,8.905,13.803,7.851,19.246,21.427,20.619,0.013,0.993,-0.063,-0.549,-2.014,0.519,73.333,124387.000,1.000
16.615,14.761,9.436,15.293,7.905,18.806,20.724,16.530,0.014,0.990,-0.061,-0.610,-2.106,0.580,73.333,124388.000,1.000
