EEG 1,EEG 2,EEG 3,EEG 4,EEG 5,EEG 6,EEG 7,EEG 8,Accelerometer X,Accelerometer Y,Accelerometer Z,Gyroscope X,Gyroscope Y,Gyroscope Z,Battery Level,Counter,Validation Indicator
13.179,11.416,20.958,14.517,10.086,2.082,-0.228,7.470,0.038,0.979,-0.128,0.000,-0.732,0.824,66.667,666625.000,1.000
13.783,12.969,21.106,14.654,11.159,6.122,3.687,10.104,0.037,0.978,-0.126,-0.061,-0.732,0.763,66.667,666626.000,1.000
13.034,12.680,19.349,13.152,10.156,8.117,5.555,9.841,0.037,0.979,-0.130,0.000,-0.671,0.824,66.667,666627.000,1.000
11.524,10.897,16.361,10.790,7.514,7.834,4.783,7.293,0.036,0.980,-0.125,0.061,-0.671,0.641,66.667,666628.000,1.000
10.349,8.694,13.435,8.944,4.644,6.421,2.748,4.555,0.037,0.981,-0.124,0.000,-0.519,0.549,66.667,666629.000,1.000
10.195,6.968,11.503,8.534,2.864,5.172,1.469,3.553,0.037,0.982,-0.125,0.000,-0.488,0.488,66.667,666630.000,1.000
11.005,6.064,10.697,9.447,2.634,4.605,1.820,4.651,0.037,0.983,-0.126,0.061,-0.488,0.458,66.667,666631.000,1.000
12.059,5.752,10.391,10.607,3.393,4.400,3.033,6.504,0.037,0.981,-0.125,0.092,-0.519,0.336,66.667,666632.000,1.000
12.251,5.309,9.524,10.574,3.969,3.831,3.649,7.184,0.034,0.977,-0.124,-0.092,-0.488,0.275,66.667,666633.000,1.000
10.811,4.040,7.370,8.570,3.503,2.441,2.993,5.843,0.034,0.976,-0.125,0.061,-0.458,0.305,66.667,666634.000,1.000
7.961,1.906,4.167,5.117,2.056,0.470,1.732,3.344,0.034,0.977,-0.129,0.122,-0.549,0.366,66.667,666635.000,1.000
4.676,-0.556,0.837,1.528,0.268,-1.431,0.955,1.263,0.033,0.975,-0.128,0.183,-0.488,0.397,66.667,666636.000,1.000
1.945,-2.705,-1.734,-1.058,-1.258,-2.735,1.123,0.681,0.033,0.974,-0.126,0.336,-0.580,0.458,66.667,666637.000,1.000
0.370,-4.003,-3.068,-2.106,-2.158,-3.315,1.811,1.648,0.030,0.976,-0.124,0.458,-0.549,0.488,66.667,666638.000,1.000
0.037,-4.112,-3.124,-1.702,-2.303,-3.389,2.211,3.206,0.030,0.977,-0.125,0.458,-0.580,0.549,66.667,666639.000,1.000
0.459,-3.007,-2.218,-0.427,-1.738,-3.082,2.113,4.133,0.029,0.979,-0.124,0.458,-0.732,0.641,66.667,666640.000,1.000
0.795,-0.974,-0.835,0.980,-0.524,-1.996,2.297,3.967,0.028,0.980,-0.122,0.488,-0.854,0.702,66.667,666641.000,1.000
0.285,1.416,0.479,1.929,1.119,0.332,3.432,3.077,0.028,0.980,-0.124,0.488,-0.916,0.793,66.667,666642.000,1.000
-1.302,3.383,1.238,2.094,2.603,3.374,4.809,1.903,0.029,0.981,-0.124,0.427,-0.916,0.763,66.667,666643.000,1.000
-3.317,4.388,1.376,1.625,3.369,5.647,5.072,0.794,0.031,0.979,-0.125,0.366,-1.068,0.885,66.667,666644.000,1.000
-4.382,4.596,1.499,1.264,3.516,6.097,3.920,0.423,0.029,0.977,-0.126,0.366,-1.007,1.038,66.667,666645.000,1.000
-3.321,4.622,2.379,1.817,3.660,4.973,2.292,1.441,0.028,0.977,-0.129,0.397,-1.068,0.977,66.667,666646.000,1.000
-0.157,4.788,4.116,3.351,4.143,3.301,1.275,3.592,0.028,0.978,-0.127,0.580,-1.221,1.099,66.667,666647.000,1.000
3.887,4.870,6.003,5.125,4.678,1.884,1.315,5.707,0.026,0.975,-0.126,0.580,-1.251,1.068,66.667,666648.000,1.000
7.305,4.462,7.182,6.283,4.753,0.922,2.242,6.689,0.029,0.975,-0.122,0.580,-1.343,1.160,66.667,666649.000,1.000
9.152,3.387,7.219,6.463,4.138,0.256,3.624,6.269,0.030,0.972,-0.124,0.580,-1.434,1.251,66.667,666650.000,1.000
9.088,1.634,6.049,5.751,2.892,-0.417,4.837,4.865,0.029,0.974,-0.125,0.702,-1.617,1.251,66.667,666651.000,1.000
6.988,-0.948,3.555,4.209,0.961,-1.571,5.039,2.957,0.030,0.977,-0.127,0.732,-1.678,1.221,66.667,666652.000,1.000
2.929,-4.642,-0.525,1.638,-1.981,-3.649,3.470,0.610,0.029,0.977,-0.128,0.702,-1.678,1.282,66.667,666653.000,1.000
-2.415,-9.381,-6.104,-2.089,-6.187,-6.597,-0.027,-2.352,0.029,0.977,-0.126,0.763,-1.801,1.251,66.667,666654.000,1.000
-7.587,-14.233,-12.151,-6.461,-11.215,-9.575,-4.600,-5.679,0.031,0.978,-0.128,0.793,-1.831,1.160,66.667,666655.000,1.000
-10.698,-17.500,-16.749,-10.225,-15.700,-11.318,-8.512,-8.410,0.032,0.976,-0.130,0.885,-1.953,1.221,66.667,666656.000,1.000
-10.447,-17.807,-18.206,-12.156,-18.190,-11.116,-10.104,-9.579,0.032,0.977,-0.127,0.946,-2.075,1.251,66.667,666657.000,1.000
-7.272,-15.394,-16.483,-12.083,-18.415,-9.571,-9.139,-9.127,0.034,0.976,-0.128,0.946,-2.075,1.282,66.667,666658.000,1.000
-3.294,-12.059,-13.301,-10.958,-17.355,-8.099,-6.939,-7.763,0.035,0.976,-0.129,0.885,-2.075,1.343,66.667,666659.000,1.000
-0.849,-9.744,-10.759,-9.970,-16.211,-7.901,-5.246,-6.237,0.034,0.974,-0.130,0.854,-2.075,1.343,66.667,666660.000,1.000
-1.126,-9.471,-10.079,-9.850,-15.750,-9.533,-5.340,-5.286,0.034,0.977,-0.128,1.007,-2.014,1.251,66.667,666661.000,1.000
-3.926,-11.213,-11.294,-10.735,-16.215,-12.701,-7.534,-5.701,0.035,0.978,-0.129,0.977,-1.862,1.221,66.667,666662.000,1.000
-7.957,-13.953,-13.333,-12.078,-17.057,-15.890,-10.542,-7.470,0.034,0.979,-0.130,0.916,-1.953,1.282,66.667,666663.000,1.000
-11.240,-15.837,-14.423,-12.761,-16.935,-16.715,-11.845,-9.279,0.034,0.980,-0.126,0.885,-1.953,1.312,66.667,666664.000,1.000
-11.985,-15.078,-13.121,-11.812,-14.683,-13.501,-9.698,-9.636,0.034,0.980,-0.127,0.824,-1.923,1.312,66.667,666665.000,1.000
-9.754,-11.381,-9.455,-9.244,-10.492,-6.911,-4.732,-8.224,0.033,0.980,-0.126,0.763,-1.862,1.282,66.667,666666.000,1.000
-5.943,-6.479,-5.133,-6.233,-6.081,0.075,0.547,-6.024,0.034,0.977,-0.124,0.702,-1.923,1.343,66.667,666667.000,1.000
-2.901,-2.966,-2.409,-4.302,-3.516,4.138,3.699,-4.380,0.031,0.977,-0.124,0.732,-1.892,1.221,66.667,666668.000,1.000
-2.248,-2.387,-2.448,-4.150,-3.593,3.977,4.100,-3.831,0.031,0.977,-0.129,0.641,-1.892,1.068,66.667,666669.000,1.000
-3.927,-4.381,-4.692,-5.299,-5.419,0.723,2.828,-3.929,0.031,0.977,-0.131,0.671,-1.862,0.946,66.667,666670.000,1.000
-6.670,-7.317,-7.591,-6.724,-7.394,-3.459,1.192,-4.054,0.029,0.976,-0.127,0.641,-1.953,0.824,66.667,666671.000,1.000
-9.026,-9.437,-9.674,-7.584,-8.251,-6.629,0.164,-3.837,0.030,0.973,-0.126,0.641,-2.014,0.732,66.667,666672.000,1.000
-10.167,-9.889,-10.315,-7.636,-7.609,-7.783,0.288,-3.159,0.031,0.971,-0.126,0.671,-2.045,0.702,66.667,666673.000,1.000
-10.236,-9.199,-10.015,-7.361,-6.188,-7.301,0.997,-2.469,0.032,0.972,-0.125,0.641,-2.014,0.671,66.667,666674.000,1.000
-10.085,-8.723,-9.909,-7.601,-5.331,-6.568,0.651,-2.773,0.035,0.969,-0.127,0.702,-2.014,0.671,66.667,666675.000,1.000
-10.546,-9.525,-10.806,-8.816,-5.930,-6.808,-2.024,-4.710,0.040,0.970,-0.127,0.732,-1.923,0.763,66.667,666676.000,1.000
-11.849,-11.606,-12.589,-10.636,-7.714,-8.177,-6.519,-7.657,0.042,0.970,-0.128,0.885,-1.831,0.702,66.667,666677.000,1.000
-13.604,-13.957,-14.376,-12.112,-9.459,-9.660,-10.517,-9.871,0.042,0.971,-0.132,0.916,-1.709,0.854,66.667,666678.000,1.000
-15.187,-15.269,-15.208,-12.380,-9.840,-9.721,-11.324,-9.617,0.042,0.972,-0.129,0.946,-1.526,0.946,66.667,666679.000,1.000
-16.137,-14.745,-14.732,-11.236,-8.346,-7.392,-7.891,-6.548,0.039,0.972,-0.130,0.977,-1.434,1.038,66.667,666680.000,1.000
-16.386,-12.600,-13.389,-9.203,-5.583,-3.105,-1.757,-2.052,0.037,0.975,-0.132,0.916,-1.404,1.068,66.667,666681.000,1.000
-16.268,-9.881,-12.019,-7.150,-2.730,1.526,4.177,1.878,0.036,0.977,-0.132,1.038,-1.221,1.099,66.667,666682.000,1.000
-16.217,-7.700,-11.237,-5.845,-0.761,4.755,7.529,3.777,0.035,0.979,-0.132,1.007,-1.038,1.129,66.667,666683.000,1.000
-16.429,-6.595,-11.137,-5.644,-0.074,5.672,7.376,3.099,0.036,0.980,-0.132,0.977,-0.946,1.160,66.667,666684.000,1.000
-16.860,-6.538,-11.454,-6.334,-0.519,4.399,4.406,0.465,0.034,0.981,-0.132,0.854,-0.946,1.038,66.667,666685.000,1.000
-17.204,-7.058,-11.680,-7.143,-1.392,1.971,0.661,-2.381,0.034,0.984,-0.134,0.916,-0.824,1.038,66.667,666686.000,1.000
-16.790,-7.180,-11.050,-7.016,-1.531,0.085,-1.389,-3.440,0.035,0.986,-0.131,0.763,-0.793,1.099,66.667,666687.000,1.000
-15.046,-6.015,-9.057,-5.320,-0.040,0.063,-0.566,-1.831,0.033,0.986,-0.131,0.580,-0.763,1.099,66.667,666688.000,1.000
-12.274,-3.675,-6.179,-2.486,2.835,1.722,2.127,1.572,0.032,0.987,-0.129,0.488,-0.763,1.099,66.667,666689.000,1.000
-9.679,-1.311,-3.741,0.192,5.805,3.713,4.693,4.859,0.030,0.990,-0.131,0.244,-0.763,1.129,66.667,666690.000,1.000
-8.548,-0.287,-2.981,1.404,7.487,4.753,5.901,6.412,0.030,0.987,-0.131,0.153,-0.854,1.221,66.667,666691.000,1.000
-9.443,-1.326,-4.319,0.563,7.194,4.320,5.869,5.776,0.030,0.987,-0.129,-0.061,-0.732,1.099,66.667,666692.000,1.000
-11.824,-4.061,-7.167,-1.876,5.219,2.775,5.422,3.700,0.029,0.988,-0.130,-0.153,-0.946,0.977,66.667,666693.000,1.000
-14.347,-7.296,-10.244,-4.645,2.583,1.006,4.998,1.386,0.030,0.987,-0.126,-0.397,-0.946,1.038,66.667,666694.000,1.000
-15.757,-9.852,-12.339,-6.469,0.295,-0.489,4.081,-0.496,0.030,0.988,-0.126,-0.397,-0.977,0.946,66.667,666695.000,1.000
-15.591,-11.154,-12.961,-6.793,-1.153,-1.942,1.892,-2.042,0.031,0.988,-0.127,-0.641,-1.038,0.885,66.667,666696.000,1.000
-14.187,-11.197,-12.387,-5.849,-1.695,-3.653,-1.441,-3.479,0.033,0.990,-0.127,-0.824,-1.160,0.916,66.667,666697.000,1.000
-12.454,-10.464,-11.439,-4.389,-1.580,-5.625,-4.914,-4.726,0.035,0.988,-0.129,-1.007,-1.190,0.854,66.667,666698.000,1.000
-11.552,-9.866,-11.080,-3.367,-1.372,-7.811,-7.585,-5.630,0.034,0.984,-0.128,-1.068,-1.312,0.824,66.667,666699.000,1.000
-12.146,-10.116,-11.734,-3.424,-1.606,-9.989,-9.007,-6.263,0.035,0.986,-0.128,-1.221,-1.221,0.793,66.667,666700.000,1.000
-13.823,-11.054,-12.895,-4.468,-2.287,-11.490,-9.069,-6.731,0.035,0.985,-0.126,-1.221,-1.190,0.854,66.667,666701.000,1.000
-15.456,-11.788,-13.591,-5.813,-2.945,-11.615,-7.999,-6.892,0.037,0.983,-0.125,-1.190,-1.251,0.916,66.667,666702.000,1.000
-16.056,-11.433,-13.111,-6.626,-3.107,-10.247,-6.498,-6.574,0.034,0.984,-0.123,-1.312,-1.160,0.977,66.667,666703.000,1.000
-15.297,-9.644,-11.251,-6.292,-2.552,-7.789,-5.264,-5.826,0.035,0.982,-0.126,-1.251,-1.190,1.129,66.667,666704.000,1.000
-13.678,-6.801,-8.347,-4.712,-1.337,-4.741,-4.280,-4.700,0.035,0.981,-0.124,-1.312,-1.129,1.099,66.667,666705.000,1.000
-12.327,-3.904,-5.267,-2.438,0.102,-1.658,-3.224,-3.233,0.031,0.978,-0.123,-1.129,-1.251,1.160,66.667,666706.000,1.000
-12.302,-2.034,-3.038,-0.382,1.053,0.732,-2.387,-1.869,0.031,0.976,-0.124,-1.038,-1.251,1.038,66.667,666707.000,1.000
-13.719,-1.555,-2.124,0.845,1.159,2.001,-2.344,-1.239,0.032,0.976,-0.121,-0.946,-1.282,1.007,66.667,666708.000,1.000
-15.643,-1.812,-2.125,1.324,0.924,2.683,-2.659,-1.239,0.030,0.972,-0.125,-0.824,-1.251,1.007,66.667,666709.000,1.000
-16.917,-1.732,-2.233,1.528,1.237,3.950,-1.997,-1.058,0.029,0.970,-0.122,-0.671,-1.282,0.885,66.667,666710.000,1.000
-16.925,-0.651,-1.851,1.836,2.503,6.482,0.156,-0.235,0.031,0.968,-0.122,-0.519,-1.465,0.732,66.667,666711.000,1.000
-15.749,1.336,-0.839,2.383,4.394,9.830,2.879,0.976,0.030,0.967,-0.124,-0.366,-1.556,0.732,66.667,666712.000,1.000
-14.028,3.502,0.450,3.074,6.219,12.822,5.047,2.182,0.031,0.969,-0.120,-0.183,-1.465,0.671,66.667,666713.000,1.000
-12.583,5.023,1.391,3.644,7.365,14.435,6.388,3.171,0.032,0.969,-0.118,-0.031,-1.465,0.610,66.667,666714.000,1.000
-11.863,5.565,1.484,3.807,7.518,14.343,7.166,3.744,0.031,0.970,-0.119,0.214,-1.587,0.519,66.667,666715.000,1.000
-11.717,5.370,0.642,3.460,6.745,13.022,7.597,3.741,0.031,0.970,-0.118,0.244,-1.648,0.519,66.667,666716.000,1.000
-11.592,5.059,-0.709,2.813,5.529,11.580,7.859,3.358,0.032,0.970,-0.119,0.336,-1.617,0.305,66.667,666717.000,1.000
-11.038,5.263,-1.868,2.236,4.528,10.995,7.866,2.972,0.032,0.968,-0.123,0.580,-1.709,0.275,66.667,666718.000,1.000
-10.303,5.979,-2.568,1.745,3.957,11.091,6.928,2.542,0.031,0.969,-0.124,0.763,-1.770,0.214,66.667,666719.000,1.000
-10.399,6.253,-3.399,0.791,3.308,10.488,4.208,1.605,0.031,0.969,-0.126,0.916,-1.617,0.366,66.667,666720.000,1.000
-12.124,4.954,-5.125,-1.119,1.954,7.902,-0.329,-0.109,0.028,0.971,-0.127,1.007,-1.740,0.305,66.667,666721.000,1.000
-14.869,2.112,-7.523,-3.594,0.039,3.630,-5.335,-2.260,0.030,0.972,-0.127,1.190,-1.831,0.336,66.667,666722.000,1.000
-16.804,-0.816,-9.298,-5.509,-1.474,-0.316,-8.599,-4.110,0.033,0.971,-0.127,1.373,-1.770,0.336,66.667,666723.000,1.000
-16.331,-2.077,-9.177,-5.956,-1.623,-1.614,-8.408,-4.940,0.032,0.972,-0.128,1.495,-1.831,0.305,66.667,666724.000,1.000
-13.206,-0.938,-6.896,-4.849,-0.219,0.610,-4.677,-4.398,0.032,0.975,-0.128,1.709,-1.862,0.305,66.667,666725.000,1.000
-8.746,1.631,-3.541,-3.034,1.778,4.763,0.774,-2.923,0.029,0.977,-0.126,1.678,-1.801,0.366,66.667,666726.000,1.000
-5.091,3.473,-1.037,-1.911,2.663,7.668,5.213,-1.756,0.031,0.976,-0.124,1.648,-1.831,0.366,66.667,666727.000,1.000
-3.681,2.905,-0.767,-2.465,1.175,6.907,6.538,-2.174,0.033,0.973,-0.130,1.587,-1.770,0.305,66.667,666728.000,1.000
-4.334,-0.105,-2.598,-4.594,-2.731,2.282,4.074,-4.742,0.036,0.976,-0.130,1.709,-1.740,0.275,66.667,666729.000,1.000
-5.760,-4.221,-5.233,-7.375,-8.053,-4.446,-1.374,-9.017,0.038,0.984,-0.128,1.984,-1.648,0.336,66.667,666730.000,1.000
-6.652,-7.738,-7.213,-9.682,-13.189,-10.556,-7.717,-13.510,0.035,0.990,-0.124,1.953,-1.556,0.671,66.667,666731.000,1.000
-6.294,-9.387,-7.626,-10.648,-16.516,-13.610,-12.267,-16.255,0.033,0.987,-0.124,1.648,-1.556,0.946,66.667,666732.000,1.000
-4.504,-8.720,-6.225,-9.839,-17.048,-12.640,-13.083,-15.941,0.030,0.986,-0.127,1.373,-1.587,1.160,66.667,666733.000,1.000
-1.508,-6.124,-3.314,-7.350,-14.784,-8.471,-9.887,-12.536,0.028,0.982,-0.128,1.312,-1.495,1.190,66.667,666734.000,1.000
2.068,-2.586,0.293,-3.843,-10.629,-3.029,-3.823,-6.967,0.028,0.980,-0.128,1.251,-1.556,1.129,66.667,666735.000,1.000
5.291,0.582,3.345,-0.479,-6.206,1.493,2.896,-0.886,0.028,0.978,-0.128,1.190,-1.678,1.129,66.667,666736.000,1.000
7.193,2.099,4.485,1.386,-3.553,3.154,7.266,3.279,0.030,0.978,-0.124,1.251,-1.770,1.007,66.667,666737.000,1.000
7.250,1.279,2.996,0.909,-4.197,0.948,6.680,3.278,0.031,0.980,-0.125,1.129,-1.648,0.977,66.667,666738.000,1.000
5.793,-1.534,-0.578,-1.607,-8.086,-4.513,0.674,-1.285,0.035,0.981,-0.127,1.038,-1.648,0.977,66.667,666739.000,1.000
3.871,-5.175,-4.668,-4.920,-13.549,-11.256,-8.532,-8.556,0.036,0.981,-0.129,1.038,-1.526,0.977,66.667,666740.000,1.000
2.786,-8.133,-7.424,-7.517,-18.172,-16.884,-17.234,-15.590,0.037,0.983,-0.127,0.946,-1.465,1.007,66.667,666741.000,1.000
3.563,-9.025,-7.478,-8.242,-19.926,-19.475,-22.159,-19.795,0.035,0.982,-0.132,0.793,-1.343,1.129,66.667,666742.000,1.000
6.227,-7.396,-4.760,-6.897,-18.225,-18.482,-22.098,-20.012,0.034,0.977,-0.135,0.671,-1.251,1.251,66.667,666743.000,1.000
9.697,-4.022,-0.585,-4.314,-14.107,-15.021,-18.200,-16.730,0.035,0.973,-0.137,0.641,-1.190,1.251,66.667,666744.000,1.000
12.696,-0.082,3.418,-1.560,-9.249,-10.875,-12.650,-11.376,0.038,0.971,-0.136,0.763,-1.160,1.343,66.667,666745.000,1.000
14.347,3.513,6.211,0.614,-5.027,-7.268,-7.218,-5.637,0.039,0.970,-0.137,0.916,-1.007,1.373,66.667,666746.000,1.000
14.027,6.013,7.337,1.670,-2.284,-4.622,-2.908,-1.068,0.038,0.971,-0.136,1.129,-0.885,1.251,66.667,666747.000,1.000
11.524,6.844,6.793,1.370,-1.260,-2.852,-0.247,1.423,0.037,0.978,-0.130,1.221,-0.763,1.282,66.667,666748.000,1.000
7.429,6.007,5.127,0.065,-1.554,-1.531,0.661,1.794,0.034,0.982,-0.128,1.282,-0.732,1.190,66.667,666749.000,1.000
3.070,4.293,3.342,-1.388,-2.337,-0.072,0.223,0.554,0.030,0.983,-0.129,1.038,-0.641,1.099,66.667,666750.000,1.000
-0.156,2.867,2.376,-2.125,-2.739,1.895,-0.845,-1.411,0.030,0.982,-0.133,0.854,-0.580,1.038,66.667,666751.000,1.000
-1.618,2.384,2.447,-1.841,-2.309,4.051,-1.838,-2.949,0.031,0.982,-0.131,0.641,-0.610,0.916,66.667,666752.000,1.000
-1.755,2.385,2.876,-1.019,-1.422,5.273,-2.389,-3.262,0.031,0.980,-0.131,0.610,-0.732,0.702,66.667,666753.000,1.000
-1.517,1.736,2.675,-0.547,-1.057,4.353,-2.484,-2.386,0.030,0.977,-0.130,0.580,-0.885,0.641,66.667,666754.000,1.000
-1.500,-0.192,1.439,-0.982,-1.945,1.098,-2.208,-0.932,0.031,0.976,-0.132,0.610,-0.854,0.671,66.667,666755.000,1.000
-1.686,-2.978,-0.444,-2.199,-4.014,-3.419,-1.879,0.192,0.032,0.977,-0.131,0.580,-0.824,0.610,66.667,666756.000,1.000
-1.932,-5.676,-2.392,-3.694,-6.618,-7.578,-2.049,0.053,0.032,0.974,-0.132,0.549,-0.824,0.458,66.667,666757.000,1.000
-2.448,-7.634,-4.212,-5.056,-9.008,-10.124,-2.960,-1.678,0.032,0.973,-0.133,0.580,-0.824,0.427,66.667,666758.000,1.000
-3.770,-8.952,-6.194,-6.272,-10.794,-10.865,-4.472,-4.589,0.032,0.975,-0.131,0.702,-0.732,0.488,66.667,666759.000,1.000
-6.168,-10.215,-8.718,-7.648,-12.163,-10.771,-6.637,-7.995,0.032,0.975,-0.129,0.732,-0.793,0.549,66.667,666760.000,1.000
-8.938,-11.578,-11.540,-9.243,-13.382,-10.898,-9.505,-11.067,0.032,0.976,-0.130,0.793,-0.885,0.488,66.667,666761.000,1.000
-10.746,-12.470,-13.728,-10.666,-14.326,-11.411,-12.530,-12.925,0.032,0.975,-0.130,0.702,-0.977,0.580,66.667,666762.000,1.000
-10.946,-12.505,-14.615,-11.679,-14.897,-12.275,-15.232,-13.378,0.031,0.976,-0.129,0.610,-0.885,0.641,66.667,666763.000,1.000
-9.986,-11.923,-14.309,-12.408,-15.276,-13.867,-17.690,-13.054,0.030,0.978,-0.128,0.702,-0.977,0.671,66.667,666764.000,1.000
-8.546,-10.928,-13.139,-12.724,-15.299,-15.944,-19.509,-12.319,0.029,0.978,-0.131,0.702,-0.946,0.671,66.667,666765.000,1.000
-7.118,-9.566,-11.438,-12.182,-14.415,-17.253,-19.514,-10.815,0.029,0.979,-0.133,0.702,-1.129,0.854,66.667,666766.000,1.000
-6.353,-8.376,-9.953,-10.859,-12.698,-16.986,-17.218,-8.499,0.028,0.982,-0.130,0.610,-1.099,0.916,66.667,666767.000,1.000
-6.874,-8.219,-9.533,-9.520,-11.099,-15.598,-13.687,-6.236,0.028,0.981,-0.129,0.488,-1.129,1.007,66.667,666768.000,1.000
-8.483,-9.196,-10.117,-8.724,-10.338,-13.783,-10.323,-4.813,0.029,0.982,-0.129,0.366,-1.221,1.068,66.667,666769.000,1.000
-10.118,-10.374,-10.638,-8.321,-10.213,-11.684,-7.640,-4.208,0.027,0.980,-0.129,0.336,-1.221,1.221,66.667,666770.000,1.000
-10.784,-10.803,-10.143,-8.001,-10.220,-9.496,-5.819,-4.203,0.028,0.982,-0.129,0.244,-1.312,1.190,66.667,666771.000,1.000
-10.305,-10.366,-8.663,-7.829,-10.305,-8.042,-5.485,-4.906,0.030,0.981,-0.131,0.183,-1.404,1.190,66.667,666772.000,1.000
-9.210,-9.519,-6.973,-8.037,-10.665,-8.076,-7.022,-6.306,0.030,0.981,-0.128,0.092,-1.495,1.160,66.667,666773.000,1.000
-8.219,-8.688,-5.876,-8.619,-11.212,-9.376,-9.620,-7.810,0.030,0.981,-0.129,0.153,-1.526,1.190,66.667,666774.000,1.000
-7.820,-8.098,-5.718,-9.292,-11.537,-10.948,-11.736,-8.606,0.029,0.981,-0.129,0.092,-1.617,1.282,66.667,666775.000,1.000
-7.829,-7.624,-6.044,-9.503,-11.049,-11.616,-12.147,-8.170,0.031,0.980,-0.130,0.031,-1.587,1.312,66.667,666776.000,1.000
-7.251,-6.620,-5.619,-8.521,-9.091,-10.301,-10.316,-6.227,0.031,0.979,-0.128,-0.031,-1.617,1.221,66.667,666777.000,1.000
-5.078,-4.520,-3.413,-6.034,-5.498,-6.679,-6.584,-2.861,0.033,0.979,-0.131,-0.061,-1.495,1.221,66.667,666778.000,1.000
-1.426,-1.726,0.238,-2.778,-1.181,-1.925,-2.394,0.942,0.034,0.975,-0.131,-0.153,-1.587,1.251,66.667,666779.000,1.000
2.266,0.417,3.606,-0.288,2.168,1.688,0.278,3.462,0.033,0.972,-0.134,-0.092,-1.526,1.221,66.667,666780.000,1.000
4.194,0.568,4.815,0.118,3.156,2.291,0.282,3.473,0.034,0.972,-0.136,0.031,-1.495,1.221,66.667,666781.000,1.000
3.618,-1.444,3.362,-1.610,1.760,-0.005,-1.513,1.428,0.035,0.972,-0.136,0.183,-1.434,1.190,66.667,666782.000,1.000
1.583,-4.198,0.601,-4.035,-0.485,-2.923,-2.567,-0.663,0.033,0.974,-0.135,0.183,-1.404,1.160,66.667,666783.000,1.000
0.041,-5.780,-1.470,-5.378,-1.726,-4.049,-1.061,-1.034,0.033,0.973,-0.132,0.275,-1.343,1.099,66.667,666784.000,1.000
0.248,-5.363,-1.869,-4.955,-1.305,-3.021,2.195,0.226,0.034,0.975,-0.128,0.275,-1.251,1.068,66.667,666785.000,1.000
2.126,-3.569,-0.969,-3.299,0.232,-1.209,5.054,1.954,0.035,0.976,-0.131,0.275,-1.221,1.160,66.667,666786.000,1.000
4.781,-1.622,0.320,-1.264,2.087,0.020,6.422,3.570,0.036,0.976,-0.132,0.336,-1.221,1.099,66.667,666787.000,1.000
7.179,-0.556,1.219,0.468,3.541,0.031,6.275,4.861,0.034,0.976,-0.133,0.336,-1.160,1.068,66.667,666788.000,1.000
8.607,-0.792,1.361,1.451,3.961,-1.134,4.644,5.003,0.035,0.977,-0.132,0.397,-1.068,1.007,66.667,666789.000,1.000
8.981,-1.922,0.996,1.715,3.257,-2.616,2.065,3.222,0.036,0.976,-0.133,0.519,-1.099,0.946,66.667,666790.000,1.000
8.762,-2.999,0.815,1.802,2.131,-3.151,-0.070,-0.020,0.034,0.978,-0.131,0.488,-1.068,0.854,66.667,666791.000,1.000
8.544,-3.143,1.410,2.270,1.485,-2.131,-0.658,-3.349,0.034,0.981,-0.131,0.519,-1.007,0.885,66.667,666792.000,1.000
8.735,-1.981,2.896,3.286,1.788,0.030,0.264,-5.483,0.032,0.983,-0.130,0.488,-1.038,0.702,66.667,666793.000,1.000
9.322,0.118,4.848,4.590,2.941,2.434,1.979,-5.665,0.030,0.982,-0.129,0.336,-1.068,0.641,66.667,666794.000,1.000
9.864,2.209,6.551,5.675,4.465,4.280,3.623,-3.912,0.029,0.981,-0.128,0.244,-1.099,0.732,66.667,666795.000,1.000
9.907,3.505,7.538,6.123,5.879,5.250,4.408,-1.136,0.030,0.980,-0.129,0.336,-1.160,0.641,66.667,666796.000,1.000
9.408,4.001,7.938,5.914,7.020,5.615,4.204,1.412,0.029,0.980,-0.129,0.244,-1.251,0.671,66.667,666797.000,1.000
8.835,4.388,8.302,5.466,8.092,6.096,3.991,3.001,0.028,0.979,-0.129,0.122,-1.251,0.610,66.667,666798.000,1.000
8.897,5.495,9.172,5.401,9.462,7.550,5.217,3.824,0.025,0.977,-0.130,0.061,-1.312,0.549,66.667,666799.000,1.000
9.960,7.653,10.611,6.082,11.170,10.342,8.181,4.496,0.029,0.979,-0.127,0.061,-1.312,0.458,66.667,666800.000,1.000
11.647,10.340,12.053,7.272,12.598,13.652,11.247,5.145,0.025,0.978,-0.124,0.000,-1.312,0.519,66.667,666801.000,1.000
13.048,12.491,12.739,8.340,12.905,15.879,12.364,5.377,0.026,0.977,-0.126,-0.031,-1.526,0.580,66.667,666802.000,1.000
13.312,13.307,12.347,8.813,11.921,16.093,11.206,5.076,0.027,0.975,-0.130,-0.061,-1.678,0.549,66.667,666803.000,1.000
12.087,12.747,11.143,8.611,10.348,14.735,9.347,4.796,0.026,0.975,-0.130,-0.092,-1.740,0.671,66.667,666804.000,1.000
9.679,11.360,9.601,7.911,9.086,12.845,8.595,5.286,0.026,0.973,-0.133,0.031,-1.831,0.580,66.667,666805.000,1.000
6.895,9.804,8.075,6.983,8.594,11.192,9.525,6.848,0.027,0.973,-0.133,0.122,-1.862,0.549,66.667,666806.000,1.000
4.521,8.477,6.703,6.046,8.754,9.984,11.294,9.066,0.029,0.974,-0.131,0.153,-1.923,0.671,66.667,666807.000,1.000
2.963,7.500,5.534,5.253,9.187,8.898,12.508,11.194,0.031,0.974,-0.128,0.153,-1.953,0.763,66.667,666808.000,1.000
2.492,7.111,4.908,4.962,9.862,7.751,12.625,13.025,0.031,0.976,-0.126,0.122,-2.014,0.793,66.667,666809.000,1.000
3.302,7.687,5.327,5.601,11.028,6.971,12.249,14.765,0.031,0.977,-0.127,0.214,-1.923,0.885,66.667,666810.000,1.000
4.914,8.979,6.563,6.912,12.318,6.888,11.849,15.775,0.030,0.978,-0.126,0.214,-1.923,0.977,66.667,666811.000,1.000
6.173,10.059,7.536,7.929,12.805,7.404,11.418,14.762,0.031,0.977,-0.131,0.244,-1.953,1.038,66.667,666812.000,1.000
6.379,10.438,7.517,8.086,12.274,8.627,11.321,11.611,0.029,0.976,-0.129,0.214,-1.923,1.068,66.667,666813.000,1.000
5.844,10.517,6.789,7.687,11.474,10.728,12.015,7.800,0.027,0.975,-0.129,0.183,-2.045,1.068,66.667,666814.000,1.000
4.981,10.554,5.801,7.041,10.843,12.985,13.079,4.888,0.029,0.975,-0.131,0.244,-1.923,1.099,66.667,666815.000,1.000
3.561,9.938,4.410,5.832,9.833,13.782,13.377,3.387,0.031,0.975,-0.129,0.214,-1.862,1.129,66.667,666816.000,1.000
1.416,8.072,2.470,3.721,7.794,11.942,12.050,2.991,0.031,0.979,-0.129,0.214,-1.831,1.129,66.667,666817.000,1.000
-0.674,5.521,0.668,1.163,5.057,8.018,9.198,3.249,0.029,0.983,-0.128,0.153,-1.770,1.160,66.667,666818.000,1.000
-1.507,3.639,0.121,-0.859,2.728,4.108,5.905,3.828,0.031,0.983,-0.127,0.061,-1.709,1.221,66.667,666819.000,1.000
-0.491,3.419,1.425,-1.597,1.771,2.438,3.783,4.493,0.032,0.982,-0.126,-0.031,-1.678,1.160,66.667,666820.000,1.000
2.431,5.266,4.584,-0.620,2.671,4.084,4.120,5.285,0.031,0.982,-0.128,-0.244,-1.617,1.343,66.667,666821.000,1.000
7.084,9.043,9.197,2.207,5.289,8.215,6.723,6.447,0.031,0.979,-0.132,-0.336,-1.648,1.282,66.667,666822.000,1.000
12.468,13.505,13.981,6.113,8.412,12.158,9.405,7.693,0.031,0.978,-0.133,-0.336,-1.587,1.343,66.667,666823.000,1.000
16.535,16.358,16.794,9.283,10.107,13.061,9.447,8.019,0.031,0.977,-0.132,-0.305,-1.526,1.282,66.667,666824.000,1.000
17.412,15.807,15.989,9.985,9.193,10.000,5.952,6.721,0.033,0.977,-0.131,-0.305,-1.434,1.312,66.667,666825.000,1.000
14.863,12.033,11.810,7.857,6.299,4.618,0.624,4.335,0.033,0.977,-0.129,-0.275,-1.312,1.251,66.667,666826.000,1.000
10.402,7.026,6.276,4.048,3.352,-0.007,-3.445,2.366,0.033,0.978,-0.132,-0.275,-1.251,1.160,66.667,666827.000,1.000
6.123,3.012,1.738,0.349,2.086,-1.356,-3.811,2.176,0.032,0.977,-0.130,-0.275,-1.221,1.221,66.667,666828.000,1.000
3.420,1.017,-0.561,-1.865,2.881,0.965,-0.214,3.982,0.033,0.979,-0.130,-0.366,-1.251,1.251,66.667,666829.000,1.000
2.461,0.575,-0.919,-2.227,4.659,5.012,5.192,6.632,0.034,0.979,-0.132,-0.366,-1.068,1.221,66.667,666830.000,1.000
2.430,0.390,-0.624,-1.314,5.777,7.881,9.270,8.500,0.034,0.980,-0.130,-0.336,-1.007,1.221,66.667,666831.000,1.000
2.182,-0.644,-1.010,-0.095,5.179,7.820,10.199,8.744,0.034,0.979,-0.129,-0.488,-0.946,1.129,66.667,666832.000,1.000
1.090,-2.610,-2.585,0.779,3.060,5.391,8.390,7.705,0.034,0.981,-0.131,-0.458,-0.916,1.282,66.667,666833.000,1.000
-0.519,-4.462,-4.719,1.313,0.650,2.777,5.523,6.389,0.032,0.980,-0.131,-0.488,-0.854,1.312,66.667,666834.000,1.000
-1.792,-4.840,-6.213,1.884,-0.674,1.931,3.279,5.752,0.034,0.978,-0.130,-0.549,-0.854,1.251,66.667,666835.000,1.000
-2.112,-3.150,-6.228,2.745,-0.268,3.263,2.673,6.266,0.032,0.977,-0.130,-0.458,-0.793,1.221,66.667,666836.000,1.000
-1.690,-0.166,-4.944,3.643,1.363,5.681,3.776,7.655,0.030,0.977,-0.129,-0.336,-0.702,1.129,66.667,666837.000,1.000
-1.633,2.262,-3.600,3.701,2.752,7.455,5.625,8.645,0.031,0.977,-0.128,-0.427,-0.641,0.977,66.667,666838.000,1.000
-3.032,2.557,-3.530,2.105,2.452,7.225,6.668,7.675,0.031,0.979,-0.127,-0.336,-0.671,1.099,66.667,666839.000,1.000
-5.875,0.693,-4.962,-0.891,0.210,4.771,5.735,4.512,0.031,0.979,-0.128,-0.305,-0.610,1.099,66.667,666840.000,1.000
-9.183,-2.035,-6.982,-3.973,-2.935,1.089,2.870,0.782,0.028,0.978,-0.127,-0.305,-0.702,0.977,66.667,666841.000,1.000
-11.965,-4.214,-8.455,-5.789,-5.584,-2.182,-0.677,-1.443,0.028,0.976,-0.130,-0.366,-0.732,0.824,66.667,666842.000,1.000
-13.625,-5.074,-8.691,-5.779,-6.904,-3.666,-3.582,-1.492,0.027,0.974,-0.129,-0.336,-0.641,0.824,66.667,666843.000,1.000
-13.835,-4.584,-7.602,-4.294,-6.898,-3.091,-5.364,-0.326,0.027,0.974,-0.131,-0.305,-0.732,0.763,66.667,666844.000,1.000
-12.616,-3.322,-5.665,-2.240,-6.152,-1.446,-6.136,0.765,0.028,0.974,-0.133,-0.153,-0.793,0.793,66.667,666845.000,1.000
-10.379,-2.043,-3.605,-0.521,-5.289,-0.059,-6.144,1.181,0.028,0.973,-0.130,-0.092,-0.885,0.763,66.667,666846.000,1.000
-7.703,-1.111,-1.961,0.418,-4.568,0.483,-5.635,1.020,0.027,0.973,-0.129,-0.061,-0.977,0.885,66.667,666847.000,1.000
-5.212,-0.478,-0.970,0.591,-3.903,0.466,-4.730,0.746,0.027,0.974,-0.129,0.000,-0.977,0.885,66.667,666848.000,1.000
-3.540,-0.057,-0.653,0.266,-3.012,0.552,-3.049,1.069,0.028,0.975,-0.128,0.061,-0.977,0.824,66.667,666849.000,1.000
-3.095,0.190,-0.812,-0.169,-1.568,1.289,0.189,2.652,0.028,0.976,-0.129,0.153,-1.038,0.946,66.667,666850.000,1.000
-3.747,0.385,-1.036,-0.369,0.553,2.692,4.976,5.426,0.028,0.975,-0.128,0.153,-1.038,0.946,66.667,666851.000,1.000
-4.823,0.783,-0.841,-0.106,3.159,4.189,9.701,8.466,0.028,0.975,-0.129,0.244,-1.068,1.068,66.667,666852.000,1.000
-5.559,1.536,0.031,0.765,5.906,4.961,12.150,10.865,0.029,0.975,-0.129,0.366,-1.038,1.038,66.667,666853.000,1.000
-5.708,2.368,1.311,2.191,8.336,4.326,11.093,12.215,0.030,0.974,-0.129,0.458,-1.251,1.099,66.667,666854.000,1.000
-5.586,2.760,2.410,3.851,9.975,2.319,6.951,12.272,0.030,0.973,-0.129,0.580,-1.312,1.129,66.667,666855.000,1.000
-5.365,2.684,3.137,5.531,10.891,0.279,1.789,11.151,0.030,0.974,-0.134,0.702,-1.312,1.221,66.667,666856.000,1.000
-4.685,2.814,3.926,7.326,11.783,0.162,-1.529,9.725,0.029,0.973,-0.132,0.702,-1.251,1.312,66.667,666857.000,1.000
-3.121,3.762,5.199,9.258,13.118,2.632,-1.281,9.032,0.029,0.975,-0.129,0.824,-1.251,1.282,66.667,666858.000,1.000
-0.545,5.637,7.060,11.159,14.711,6.510,2.176,9.606,0.030,0.975,-0.130,0.854,-1.160,1.373,66.667,666859.000,1.000
3.044,8.418,9.643,13.050,16.356,10.344,7.390,11.609,0.031,0.976,-0.130,0.854,-1.160,1.434,66.667,666860.000,1.000
7.350,11.875,12.933,14.956,17.978,13.438,12.710,14.720,0.030,0.979,-0.130,0.885,-1.160,1.373,66.667,666861.000,1.000
11.266,14.942,16.063,16.257,18.955,15.164,16.343,17.662,0.029,0.983,-0.129,0.916,-1.190,1.465,66.667,666862.000,1.000
13.316,16.108,17.614,15.931,18.223,14.671,16.767,18.650,0.029,0.982,-0.129,0.916,-1.190,1.465,66.667,666863.000,1.000
12.853,14.718,16.865,13.563,15.363,11.815,13.587,16.584,0.029,0.981,-0.128,0.885,-1.251,1.404,66.667,666864.000,1.000
10.448,11.416,14.301,9.716,11.045,7.521,7.639,11.580,0.028,0.980,-0.128,0.854,-1.251,1.343,66.667,666865.000,1.000
7.378,7.632,11.195,5.608,6.663,3.234,0.603,4.952,0.029,0.979,-0.129,0.610,-1.312,1.312,66.667,666866.000,1.000
5.206,5.160,9.172,2.801,3.940,0.508,-5.100,-0.950,0.028,0.980,-0.129,0.702,-1.312,1.190,66.667,666867.000,1.000
5.244,5.447,9.528,2.567,4.154,0.458,-7.118,-3.798,0.031,0.980,-0.129,0.763,-1.343,1.038,66.667,666868.000,1.000
7.872,8.617,12.391,5.027,7.183,2.957,-4.734,-2.789,0.032,0.977,-0.131,0.641,-1.312,1.007,66.667,666869.000,1.000
12.470,13.455,16.753,9.143,11.613,6.745,0.700,1.030,0.033,0.975,-0.130,0.732,-1.282,1.099,66.667,666870.000,1.000
17.873,18.335,21.241,13.546,15.816,10.482,7.002,5.815,0.034,0.973,-0.129,0.671,-1.282,1.068,66.667,666871.000,1.000
22.760,21.944,24.660,17.107,18.694,13.448,12.550,10.002,0.034,0.971,-0.129,0.641,-1.129,1.068,66.667,666872.000,1.000
25.767,23.340,26.003,18.884,19.533,15.025,16.050,12.408,0.034,0.968,-0.130,0.702,-1.038,1.068,66.667,666873.000,1.000
25.541,21.767,24.328,18.056,17.686,14.122,15.852,12.041,0.034,0.967,-0.129,0.793,-1.068,1.099,66.667,666874.000,1.000
21.474,17.136,19.295,14.489,13.064,10.202,11.213,8.823,0.036,0.967,-0.128,0.977,-0.916,1.038,66.667,666875.000,1.000
14.635,10.682,11.932,9.271,6.796,4.495,3.832,4.077,0.033,0.967,-0.130,1.190,-0.671,0.916,66.667,666876.000,1.000
7.485,4.504,4.420,4.207,0.742,-0.861,-3.207,-0.395,0.033,0.970,-0.129,1.251,-0.732,0.854,66.667,666877.000,1.000
2.553,0.496,-0.919,0.921,-3.483,-4.397,-7.673,-3.292,0.034,0.975,-0.132,1.221,-0.641,0.763,66.667,666878.000,1.000
1.221,-0.359,-2.608,0.298,-5.055,-5.668,-8.957,-3.979,0.033,0.977,-0.137,1.099,-0.519,0.885,66.667,666879.000,1.000
3.032,1.563,-0.785,2.089,-4.278,-4.975,-7.778,-2.722,0.035,0.977,-0.137,1.160,-0.488,0.977,66.667,666880.000,1.000
5.907,4.585,2.764,4.929,-2.470,-3.194,-5.710,-0.749,0.035,0.979,-0.136,1.007,-0.458,0.946,66.667,666881.000,1.000
7.593,6.877,5.862,7.276,-0.939,-1.206,-4.163,0.739,0.033,0.979,-0.136,1.068,-0.397,1.038,66.667,666882.000,1.000
7.287,7.860,7.474,8.572,0.156,0.816,-3.270,1.733,0.030,0.979,-0.137,1.251,-0.336,1.068,66.667,666883.000,1.000
5.734,8.208,7.904,9.236,1.607,3.241,-2.061,3.209,0.028,0.983,-0.134,1.160,-0.336,1.038,66.667,666884.000,1.000
4.035,8.692,7.806,9.718,3.987,6.072,0.264,5.821,0.026,0.986,-0.130,1.038,-0.336,0.946,66.667,666885.000,1.000
2.838,9.466,7.530,10.001,7.025,8.426,3.384,9.107,0.024,0.987,-0.132,0.946,-0.580,0.732,66.667,666886.000,1.000
2.194,10.127,7.035,9.731,9.787,8.884,5.920,11.708,0.022,0.989,-0.128,0.610,-0.671,0.671,66.667,666887.000,1.000
1.751,10.123,6.122,8.594,11.304,6.609,6.447,12.204,0.025,0.990,-0.127,0.336,-0.824,0.580,66.667,666888.000,1.000
1.445,9.469,5.075,6.956,11.531,2.580,5.144,10.448,0.027,0.989,-0.127,0.122,-0.977,0.519,66.667,666889.000,1.000
1.926,9.065,4.883,6.008,11.543,-0.674,3.837,7.950,0.027,0.989,-0.131,-0.122,-1.221,0.458,66.667,666890.000,1.000
3.854,9.843,6.361,6.780,12.360,-1.140,3.684,6.360,0.028,0.990,-0.131,-0.214,-1.190,0.458,66.667,666891.000,1.000
7.014,11.753,9.229,9.186,13.918,1.142,4.047,6.174,0.028,0.987,-0.132,-0.305,-1.312,0.549,66.667,666892.000,1.000
10.489,13.910,12.391,12.298,15.493,4.792,4.117,7.172,0.030,0.989,-0.131,-0.519,-1.404,0.671,66.667,666893.000,1.000
13.499,15.509,14.905,15.220,16.655,8.669,4.291,9.088,0.031,0.991,-0.129,-0.549,-1.495,0.671,66.667,666894.000,1.000
15.681,16.182,16.325,17.385,17.296,12.093,5.286,11.369,0.031,0.991,-0.127,-0.702,-1.587,0.671,66.667,666895.000,1.000
16.690,15.551,16.270,18.248,16.997,14.074,6.727,12.960,0.031,0.992,-0.126,-0.824,-1.495,0.732,66.667,666896.000,1.000
16.103,13.103,14.319,17.315,15.003,13.584,7.282,12.853,0.031,0.991,-0.126,-1.068,-1.617,0.977,66.667,666897.000,1.000
13.929,8.787,10.597,14.679,11.021,10.609,5.857,10.833,0.027,0.992,-0.127,-1.282,-1.709,1.007,66.667,666898.000,1.000
10.888,3.470,6.109,11.200,5.745,6.309,2.460,7.731,0.026,0.990,-0.126,-1.465,-1.831,1.129,66.667,666899.000,1.000
7.879,-1.563,2.130,7.875,0.404,1.987,-1.988,4.787,0.027,0.986,-0.125,-1.587,-1.892,1.190,66.667,666900.000,1.000
5.253,-5.570,-0.719,5.125,-4.064,-1.857,-6.394,2.607,0.027,0.985,-0.125,-1.770,-1.923,1.190,66.667,666901.000,1.000
2.955,-8.395,-2.484,2.982,-7.123,-5.144,-9.626,1.036,0.025,0.985,-0.126,-1.740,-2.106,1.282,66.667,666902.000,1.000
1.267,-9.731,-3.135,1.749,-8.205,-7.373,-10.464,0.046,0.028,0.984,-0.124,-1.740,-2.136,1.343,66.667,666903.000,1.000
0.764,-9.150,-2.463,1.847,-6.968,-7.920,-8.349,0.019,0.027,0.982,-0.124,-1.801,-2.228,1.221,66.667,666904.000,1.000
1.527,-6.843,-0.679,3.106,-4.016,-6.870,-4.155,0.987,0.029,0.980,-0.125,-1.892,-2.136,1.282,66.667,666905.000,1.000
2.823,-3.845,1.350,4.629,-0.831,-5.083,0.214,2.305,0.030,0.977,-0.125,-1.984,-2.136,1.190,66.667,666906.000,1.000
3.489,-1.613,2.419,5.240,0.916,-3.788,2.855,2.906,0.030,0.975,-0.125,-1.892,-2.197,1.312,66.667,666907.000,1.000
2.703,-1.402,1.559,4.075,-0.006,-4.323,2.270,1.508,0.031,0.969,-0.126,-1.892,-2.106,1.343,66.667,666908.000,1.000
0.666,-3.492,-1.254,1.150,-3.728,-7.355,-2.105,-2.564,0.031,0.966,-0.128,-1.709,-2.197,1.373,66.667,666909.000,1.000
-1.453,-6.805,-4.870,-2.502,-8.879,-11.937,-8.815,-8.268,0.032,0.963,-0.126,-1.495,-2.106,1.312,66.667,666910.000,1.000
-2.382,-9.575,-7.666,-5.447,-13.238,-16.001,-14.743,-13.192,0.033,0.963,-0.128,-1.282,-2.106,1.160,66.667,666911.000,1.000
-1.801,-10.775,-8.800,-6.915,-15.332,-18.211,-17.473,-15.517,0.031,0.962,-0.128,-1.160,-2.045,1.007,66.667,666912.000,1.000
-0.836,-11.090,-8.999,-7.503,-15.584,-19.157,-17.304,-15.682,0.032,0.962,-0.129,-0.916,-2.014,1.068,66.667,666913.000,1.000
-1.255,-12.136,-9.896,-8.657,-15.678,-20.428,-16.508,-15.807,0.034,0.964,-0.129,-0.641,-1.801,1.007,66.667,666914.000,1.000
-3.910,-14.610,-12.403,-11.267,-16.775,-22.635,-16.824,-17.499,0.035,0.964,-0.128,-0.427,-1.678,0.977,66.667,666915.000,1.000
-7.880,-17.380,-15.720,-14.773,-18.417,-24.573,-17.950,-20.372,0.032,0.965,-0.130,-0.305,-1.587,0.946,66.667,666916.000,1.000
-11.164,-18.389,-17.926,-17.551,-18.977,-24.113,-17.991,-22.417,0.032,0.965,-0.130,-0.092,-1.495,0.977,66.667,666917.000,1.000
-12.386,-16.513,-17.703,-18.347,-17.229,-19.999,-15.216,-21.732,0.031,0.968,-0.131,0.092,-1.373,0.977,66.667,666918.000,1.000
-11.844,-12.618,-15.507,-17.347,-13.589,-13.242,-9.883,-18.243,0.031,0.966,-0.134,0.214,-1.312,0.916,66.667,666919.000,1.000
-10.814,-8.801,-12.993,-15.776,-9.850,-6.862,-4.543,-13.927,0.031,0.967,-0.131,0.427,-1.343,1.007,66.667,666920.000,1.000
-10.143,-6.673,-11.455,-14.639,-7.666,-3.783,-2.171,-11.173,0.031,0.967,-0.133,0.610,-1.221,1.038,66.667,666921.000,1.000
-9.744,-6.389,-10.961,-14.055,-7.364,-4.658,-3.623,-10.843,0.030,0.968,-0.131,0.854,-1.129,1.007,66.667,666922.000,1.000
-9.205,-7.141,-10.817,-13.666,-8.211,-7.864,-7.179,-12.084,0.028,0.970,-0.130,0.977,-1.038,0.946,66.667,666923.000,1.000
-8.298,-8.038,-10.360,-13.160,-9.301,-11.133,-10.269,-13.562,0.026,0.973,-0.127,1.129,-1.038,0.946,66.667,666924.000,1.000
-6.895,-8.430,-9.236,-12.260,-9.922,-12.745,-11.132,-14.359,0.029,0.974,-0.125,1.190,-0.977,0.946,66.667,666925.000,1.000
-4.980,-8.009,-7.461,-10.750,-9.565,-11.937,-9.423,-14.095,0.030,0.974,-0.130,1.160,-1.038,1.038,66.667,666926.000,1.000
-2.785,-6.810,-5.344,-8.674,-8.029,-9.011,-6.050,-12.773,0.029,0.979,-0.127,1.190,-0.977,0.854,66.667,666927.000,1.000
-0.658,-5.035,-3.165,-6.381,-5.564,-5.162,-2.699,-10.781,0.029,0.981,-0.128,1.160,-0.977,0.885,66.667,666928.000,1.000
1.077,-3.007,-1.015,-4.380,-2.839,-1.900,-0.933,-8.790,0.029,0.984,-0.128,1.129,-1.038,0.824,66.667,666929.000,1.000
2.234,-1.167,1.094,-3.088,-0.655,-0.279,-1.233,-7.360,0.028,0.984,-0.130,1.099,-1.007,0.885,66.667,666930.000,1.000
2.935,0.130,3.074,-2.605,0.387,-0.594,-3.239,-6.810,0.027,0.986,-0.129,0.946,-0.977,0.916,66.667,666931.000,1.000
3.546,0.807,4.709,-2.720,0.068,-2.612,-6.518,-7.310,0.026,0.986,-0.128,0.763,-0.916,0.885,66.667,666932.000,1.000
4.311,1.028,5.718,-3.104,-1.281,-5.680,-10.376,-8.605,0.025,0.984,-0.130,0.702,-1.007,0.824,66.667,666933.000,1.000
5.184,1.129,5.971,-3.459,-2.766,-8.495,-13.196,-9.700,0.026,0.981,-0.128,0.580,-1.068,0.977,66.667,666934.000,1.000
5.876,1.411,5.530,-3.703,-3.514,-9.531,-13.098,-9.553,0.025,0.981,-0.127,0.519,-1.099,0.946,66.667,666935.000,1.000
5.836,1.705,4.338,-4.200,-3.566,-8.348,-9.972,-8.533,0.028,0.981,-0.128,0.519,-1.099,0.977,66.667,666936.000,1.000
4.491,1.432,2.193,-5.504,-3.872,-6.001,-6.056,-8.391,0.030,0.979,-0.131,0.488,-1.129,0.946,66.667,666937.000,1.000
1.825,0.297,-0.763,-7.613,-5.177,-3.902,-3.897,-10.334,0.030,0.977,-0.129,0.549,-1.007,1.038,66.667,666938.000,1.000
-1.417,-1.362,-3.839,-9.700,-7.170,-2.705,-4.127,-13.660,0.033,0.979,-0.129,0.549,-0.916,1.068,66.667,666939.000,1.000
-4.386,-3.087,-6.365,-10.849,-8.946,-2.395,-5.469,-16.516,0.031,0.982,-0.130,0.580,-0.854,1.038,66.667,666940.000,1.000
-6.843,-4.866,-8.275,-10.874,-9.993,-2.832,-6.391,-17.472,0.032,0.982,-0.130,0.580,-0.854,1.190,66.667,666941.000,1.000
-8.752,-6.641,-9.660,-10.050,-10.239,-3.628,-6.011,-16.040,0.031,0.981,-0.132,0.458,-0.793,1.312,66.667,666942.000,1.000
-9.555,-7.740,-10.179,-8.458,-9.621,-4.106,-4.176,-12.581,0.033,0.977,-0.132,0.580,-0.671,1.434,66.667,666943.000,1.000
-8.642,-7.580,-9.574,-6.223,-8.391,-4.054,-1.823,-8.501,0.033,0.974,-0.134,0.580,-0.641,1.495,66.667,666944.000,1.000
-6.261,-6.468,-8.326,-3.966,-7.388,-4.026,-0.743,-5.810,0.035,0.972,-0.134,0.793,-0.580,1.587,66.667,666945.000,1.000
-3.453,-5.319,-7.300,-2.503,-7.472,-4.724,-2.273,-5.764,0.031,0.973,-0.133,0.885,-0.427,1.648,66.667,666946.000,1.000
-1.293,-4.901,-7.005,-2.220,-8.871,-6.374,-6.123,-8.038,0.030,0.975,-0.132,1.007,-0.336,1.648,66.667,666947.000,1.000
-0.246,-5.315,-7.201,-2.779,-10.963,-8.352,-10.454,-11.070,0.028,0.975,-0.130,0.916,-0.336,1.556,66.667,666948.000,1.000
0.112,-5.798,-6.917,-3.203,-12.368,-9.148,-12.674,-12.857,0.025,0.974,-0.128,0.824,-0.397,1.312,66.667,666949.000,1.000
0.821,-5.063,-4.920,-2.334,-11.524,-7.231,-10.563,-11.670,0.022,0.975,-0.127,0.854,-0.427,1.129,66.667,666950.000,1.000
2.707,-2.400,-0.687,0.329,-7.903,-2.654,-4.082,-7.145,0.022,0.974,-0.130,0.946,-0.519,0.977,66.667,666951.000,1.000
5.396,1.253,4.674,3.869,-3.022,2.217,3.558,-1.290,0.021,0.972,-0.130,1.007,-0.610,0.793,66.667,666952.000,1.000
7.201,3.571,8.677,6.205,0.191,4.152,7.676,2.284,0.023,0.972,-0.132,1.007,-0.793,0.641,66.667,666953.000,1.000
6.502,2.771,9.329,5.740,-0.302,1.668,5.567,1.095,0.024,0.972,-0.134,1.068,-0.854,0.519,66.667,666954.000,1.000
3.318,-0.811,6.809,2.827,-4.003,-3.990,-1.829,-4.224,0.027,0.973,-0.134,1.129,-0.916,0.427,66.667,666955.000,1.000
-0.814,-5.316,2.985,-0.699,-8.619,-10.281,-11.056,-10.648,0.030,0.975,-0.134,1.160,-0.793,0.519,66.667,666956.000,1.000
-4.169,-8.865,-0.213,-3.105,-11.799,-14.821,-18.003,-14.844,0.030,0.975,-0.132,1.160,-0.763,0.519,66.667,666957.000,1.000
-5.853,-10.390,-1.775,-3.703,-12.167,-15.885,-19.611,-14.764,0.030,0.979,-0.134,1.160,-0.641,0.549,66.667,666958.000,1.000
-6.198,-10.123,-2.007,-3.039,-9.926,-13.305,-15.609,-10.604,0.031,0.980,-0.135,1.190,-0.732,0.702,66.667,666959.000,1.000
-6.524,-9.581,-2.397,-2.641,-7.053,-9.156,-9.033,-4.928,0.028,0.982,-0.133,1.068,-0.702,0.702,66.667,666960.000,1.000
-7.961,-10.247,-4.353,-3.946,-5.955,-6.200,-4.044,-1.030,0.029,0.982,-0.135,1.007,-0.671,0.854,66.667,666961.000,1.000
-10.289,-11.995,-7.684,-6.897,-7.338,-5.237,-2.443,-0.286,0.030,0.982,-0.135,0.977,-0.732,1.007,66.667,666962.000,1.000
-12.226,-13.344,-10.757,-9.899,-9.748,-4.746,-2.740,-1.302,0.030,0.981,-0.131,0.946,-0.671,1.068,66.667,666963.000,1.000
-12.817,-13.228,-12.227,-11.322,-11.335,-3.132,-2.696,-1.932,0.031,0.979,-0.132,0.793,-0.641,1.190,66.667,666964.000,1.000
-12.208,-12.038,-12.166,-10.736,-11.427,-0.424,-1.579,-1.382,0.029,0.979,-0.133,0.671,-0.732,1.190,66.667,666965.000,1.000
-11.099,-10.884,-11.483,-8.693,-10.319,2.317,0.418,0.000,0.025,0.981,-0.132,0.549,-0.641,1.282,66.667,666966.000,1.000
-9.843,-10.351,-10.775,-5.971,-8.450,4.185,3.172,1.829,0.025,0.981,-0.130,0.519,-0.702,1.373,66.667,666967.000,1.000
-8.287,-10.252,-10.061,-3.304,-6.344,4.532,5.946,3.678,0.027,0.982,-0.131,0.458,-0.732,1.312,66.667,666968.000,1.000
-6.354,-10.313,-9.342,-1.479,-4.859,2.708,7.046,4.627,0.030,0.982,-0.130,0.488,-0.854,1.343,66.667,666969.000,1.000
-4.464,-10.695,-8.941,-1.206,-4.923,-1.540,5.072,3.634,0.030,0.982,-0.130,0.305,-0.885,1.343,66.667,666970.000,1.000
-3.295,-11.811,-9.261,-2.707,-6.924,-7.581,-0.003,0.382,0.027,0.983,-0.128,0.244,-0.977,1.373,66.667,666971.000,1.000
-3.328,-13.845,-10.421,-5.535,-10.382,-14.042,-6.886,-4.411,0.028,0.980,-0.130,0.275,-0.946,1.434,66.667,666972.000,1.000
-4.327,-16.160,-11.912,-8.651,-13.942,-19.060,-13.468,-9.245,0.030,0.980,-0.129,0.153,-0.946,1.343,66.667,666973.000,1.000
-5.096,-17.223,-12.569,-10.710,-15.889,-20.741,-17.580,-12.466,0.031,0.980,-0.129,0.183,-1.038,1.404,66.667,666974.000,1.000
-4.379,-15.775,-11.507,-10.919,-15.419,-18.407,-18.186,-13.336,0.030,0.975,-0.131,0.153,-0.977,1.373,66.667,666975.000,1.000
-2.030,-12.060,-9.087,-9.697,-13.357,-13.317,-15.998,-12.575,0.031,0.977,-0.131,0.122,-0.977,1.373,66.667,666976.000,1.000
1.077,-7.492,-6.510,-8.137,-11.250,-7.603,-12.585,-11.496,0.030,0.976,-0.130,0.153,-1.038,1.282,66.667,666977.000,1.000
3.943,-3.543,-4.828,-7.079,-10.121,-2.935,-9.156,-10.795,0.031,0.976,-0.131,0.214,-0.854,1.404,66.667,666978.000,1.000
5.864,-1.180,-4.569,-6.883,-10.182,-0.140,-6.275,-10.254,0.031,0.973,-0.129,0.336,-1.007,1.160,66.667,666979.000,1.000
6.620,-0.487,-5.537,-7.463,-10.922,0.954,-4.092,-9.144,0.029,0.974,-0.130,0.336,-0.977,1.129,66.667,666980.000,1.000
6.695,-0.421,-6.599,-8.148,-11.107,1.513,-2.309,-6.625,0.029,0.974,-0.131,0.427,-0.977,1.129,66.667,666981.000,1.000
6.943,0.602,-6.225,-7.921,-9.262,3.032,-0.053,-2.149,0.029,0.973,-0.136,0.549,-0.916,1.007,66.667,666982.000,1.000
7.922,3.611,-3.489,-6.046,-4.559,6.466,3.478,3.983,0.031,0.973,-0.134,0.610,-0.946,0.977,66.667,666983.000,1.000
9.171,7.941,0.931,-2.871,2.111,11.186,7.719,10.192,0.029,0.971,-0.132,0.763,-0.977,0.885,66.667,666984.000,1.000
9.051,10.935,4.481,-0.154,7.823,14.559,10.565,14.085,0.028,0.972,-0.132,0.824,-1.068,0.946,66.667,666985.000,1.000
6.161,9.854,4.470,0.167,9.487,13.918,10.253,13.960,0.028,0.973,-0.131,0.793,-1.038,0.916,66.667,666986.000,1.000
0.802,4.270,0.285,-2.347,6.203,9.041,6.889,9.832,0.027,0.974,-0.132,0.916,-1.068,0.824,66.667,666987.000,1.000
-5.567,-3.959,-6.589,-6.542,-0.587,1.946,1.803,3.169,0.026,0.975,-0.129,0.885,-1.099,0.702,66.667,666988.000,1.000
-11.757,-12.496,-14.105,-10.792,-8.581,-5.082,-3.615,-3.877,0.027,0.975,-0.128,0.885,-1.099,0.763,66.667,666989.000,1.000
-17.475,-19.960,-20.870,-14.088,-15.967,-10.860,-8.491,-9.454,0.028,0.975,-0.129,0.916,-1.129,0.763,66.667,666990.000,1.000
-22.928,-26.117,-26.339,-16.333,-21.906,-15.327,-12.631,-12.800,0.026,0.977,-0.130,0.946,-1.221,0.671,66.667,666991.000,1.000
-28.011,-31.107,-30.322,-17.790,-26.189,-18.776,-16.078,-14.122,0.026,0.977,-0.131,0.977,-1.312,0.671,66.667,666992.000,1.000
-32.117,-34.908,-32.738,-18.645,-28.889,-21.533,-18.801,-14.179,0.025,0.979,-0.131,0.946,-1.404,0.732,66.667,666993.000,1.000
-34.668,-37.364,-33.725,-19.023,-30.218,-23.925,-20.747,-13.895,0.025,0.979,-0.130,1.007,-1.526,0.732,66.667,666994.000,1.000
-35.251,-37.925,-33.261,-18.715,-29.939,-25.412,-21.306,-13.501,0.026,0.979,-0.132,0.885,-1.495,0.763,66.667,666995.000,1.000
-33.612,-35.823,-31.014,-17.114,-27.302,-24.457,-19.192,-12.267,0.026,0.977,-0.133,0.793,-1.617,0.732,66.667,666996.000,1.000
-30.687,-31.815,-27.704,-14.536,-22.811,-21.027,-14.437,-10.042,0.027,0.978,-0.129,0.702,-1.678,0.824,66.667,666997.000,1.000
-28.807,-28.726,-25.609,-12.805,-19.052,-17.976,-9.705,-8.194,0.027,0.978,-0.131,0.580,-1.740,0.793,66.667,666998.000,1.000
-29.129,-28.341,-25.918,-12.998,-17.877,-17.630,-7.543,-7.681,0.028,0.979,-0.134,0.641,-1.678,0.793,66.667,666999.000,1.000
-29.889,-28.974,-26.730,-13.685,-17.928,-18.553,-7.327,-7.468,0.025,0.980,-0.134,0.519,-1.648,0.854,66.667,667000.000,1.000
-28.380,-27.558,-25.130,-12.652,-16.370,-17.515,-6.488,-6.017,0.024,0.984,-0.131,0.458,-1.801,0.977,66.667,667001.000,1.000
-23.737,-23.058,-20.269,-9.368,-12.043,-13.287,-3.649,-3.173,0.025,0.983,-0.132,0.305,-1.801,1.038,66.667,667002.000,1.000
-17.515,-17.335,-14.000,-5.409,-6.424,-7.950,-0.090,-0.305,0.026,0.982,-0.129,0.153,-1.770,1.129,66.667,667003.000,1.000
-12.298,-13.322,-9.194,-3.100,-2.189,-5.175,1.426,0.802,0.026,0.981,-0.127,0.092,-1.923,1.282,66.667,667004.000,1.000
-9.647,-12.395,-7.376,-3.636,-0.837,-6.952,-0.667,-0.589,0.026,0.979,-0.128,-0.061,-1.862,1.251,66.667,667005.000,1.000
-9.122,-13.420,-7.754,-6.168,-1.523,-11.782,-5.309,-3.476,0.027,0.977,-0.128,-0.183,-1.953,1.373,66.667,667006.000,1.000
-8.761,-13.692,-7.932,-8.299,-1.659,-15.578,-9.342,-5.513,0.029,0.975,-0.131,-0.214,-1.923,1.221,66.667,667007.000,1.000
-6.195,-10.458,-5.277,-7.355,1.626,-14.080,-9.124,-4.076,0.029,0.976,-0.133,-0.183,-1.984,1.373,66.667,667008.000,1.000
-0.388,-2.781,1.323,-2.175,9.519,-5.784,-2.862,1.986,0.030,0.977,-0.133,-0.244,-1.862,1.251,66.667,667009.000,1.000
7.117,7.288,10.251,5.779,20.248,6.630,7.912,11.228,0.030,0.978,-0.131,-0.275,-1.923,1.373,66.667,667010.000,1.000
13.089,15.772,18.004,13.324,30.065,17.974,19.088,20.340,0.031,0.977,-0.131,-0.183,-1.892,1.404,66.667,667011.000,1.000
14.875,19.352,21.479,17.570,35.606,23.804,26.187,25.863,0.032,0.978,-0.133,-0.244,-1.740,1.312,66.667,667012.000,1.000
12.100,17.493,19.927,17.512,35.846,22.996,26.974,25.944,0.032,0.979,-0.135,-0.275,-1.678,1.556,66.667,667013.000,1.000
6.698,12.556,15.209,14.325,32.457,18.188,22.945,21.537,0.031,0.978,-0.134,-0.305,-1.526,1.465,66.667,667014.000,1.000
1.316,7.809,10.178,10.240,28.258,13.430,17.891,15.722,0.032,0.979,-0.133,-0.214,-1.495,1.556,66.667,667015.000,1.000
-2.050,5.518,7.044,7.292,25.490,11.355,14.986,11.737,0.032,0.978,-0.132,-0.397,-1.404,1.526,66.667,667016.000,1.000
-2.518,6.326,6.751,6.585,25.060,12.247,15.088,11.297,0.032,0.976,-0.135,-0.275,-1.282,1.465,66.667,667017.000,1.000
-0.847,8.936,8.477,7.564,26.098,14.363,16.619,13.543,0.033,0.976,-0.135,-0.366,-1.221,1.434,66.667,667018.000,1.000
1.169,11.123,10.341,8.623,26.881,15.717,17.591,16.073,0.033,0.977,-0.134,-0.397,-1.190,1.465,66.667,667019.000,1.000
2.622,12.018,11.436,9.058,26.895,16.272,18.064,17.679,0.033,0.977,-0.135,-0.427,-1.038,1.495,66.667,667020.000,1.000
4.127,12.692,12.434,9.652,27.187,17.566,19.582,19.271,0.033,0.976,-0.135,-0.427,-1.038,1.404,66.667,667021.000,1.000
6.767,14.623,14.378,11.483,28.822,20.518,22.880,22.312,0.032,0.977,-0.134,-0.458,-0.916,1.373,66.667,667022.000,1.000
10.702,17.878,17.245,14.465,31.388,24.092,26.672,26.754,0.033,0.977,-0.134,-0.397,-0.916,1.251,66.667,667023.000,1.000
14.609,20.676,19.538,16.973,32.853,25.881,28.311,30.370,0.033,0.976,-0.135,-0.458,-0.793,1.343,66.667,667024.000,1.000
16.494,20.719,19.303,16.939,30.935,23.855,25.712,30.200,0.035,0.979,-0.136,-0.336,-0.610,1.343,66.667,667025.000,1.000
14.837,16.668,15.352,13.184,24.565,17.572,18.770,24.646,0.033,0.978,-0.132,-0.275,-0.519,1.282,66.667,667026.000,1.000
9.564,9.104,8.158,6.293,14.812,8.817,9.797,14.869,0.031,0.980,-0.130,-0.336,-0.488,1.404,66.667,667027.000,1.000
3.013,1.181,0.556,-0.827,5.322,1.805,3.225,5.149,0.031,0.976,-0.132,-0.397,-0.366,1.465,66.667,667028.000,1.000
-1.174,-2.955,-3.637,-4.411,0.442,0.628,2.882,0.512,0.030,0.976,-0.134,-0.366,-0.366,1.404,66.667,667029.000,1.000
-1.797,-2.150,-3.421,-3.504,1.084,4.832,7.748,1.984,0.029,0.975,-0.135,-0.275,-0.366,1.221,66.667,667030.000,1.000
-1.179,0.869,-1.472,-0.802,4.035,9.777,12.610,5.644,0.028,0.975,-0.135,-0.214,-0.214,1.160,66.667,667031.000,1.000
-1.402,3.546,-0.170,1.144,6.323,12.321,13.913,7.554,0.028,0.975,-0.134,-0.153,-0.153,1.068,66.667,667032.000,1.000
-2.114,5.749,0.645,2.200,7.669,13.227,12.227,7.076,0.030,0.976,-0.131,-0.122,-0.244,1.038,66.667,667033.000,1.000
-1.907,8.415,2.249,3.410,9.054,14.757,10.069,5.770,0.030,0.978,-0.131,-0.122,-0.183,1.068,66.667,667034.000,1.000
0.795,12.759,6.061,6.085,11.717,18.788,10.089,5.930,0.027,0.978,-0.133,-0.153,-0.183,1.038,66.667,667035.000,1.000
6.454,19.040,12.354,10.609,15.933,25.196,13.140,8.743,0.027,0.976,-0.131,-0.061,-0.275,0.916,66.667,667036.000,1.000
13.051,25.327,18.997,15.297,19.909,31.096,17.363,12.910,0.026,0.975,-0.134,-0.031,-0.336,0.946,66.667,667037.000,1.000
17.954,29.471,23.396,18.112,21.705,33.636,20.608,16.345,0.028,0.975,-0.133,0.031,-0.366,0.977,66.667,667038.000,1.000
20.017,30.893,24.520,18.356,20.843,32.157,21.888,17.582,0.029,0.978,-0.133,0.031,-0.336,0.854,66.667,667039.000,1.000
19.240,29.751,22.492,16.136,17.475,27.239,20.296,15.311,0.026,0.979,-0.132,0.061,-0.427,0.946,66.667,667040.000,1.000
16.787,26.899,18.645,12.504,12.557,20.584,15.749,9.524,0.026,0.977,-0.130,0.031,-0.397,1.068,66.667,667041.000,1.000
15.158,24.493,15.735,9.819,8.527,15.497,10.580,2.860,0.027,0.980,-0.135,-0.092,-0.427,1.038,66.667,667042.000,1.000
16.041,24.145,15.668,9.705,7.235,14.212,7.441,-1.552,0.026,0.979,-0.133,-0.153,-0.397,1.160,66.667,667043.000,1.000
17.967,24.528,16.975,10.799,7.414,14.741,6.045,-3.248,0.027,0.980,-0.132,-0.122,-0.519,1.068,66.667,667044.000,1.000
17.908,22.978,16.463,10.280,6.336,13.224,4.528,-3.691,0.026,0.978,-0.130,-0.092,-0.519,1.221,66.667,667045.000,1.000
15.152,19.364,13.280,7.449,3.638,9.158,3.110,-3.294,0.025,0.980,-0.128,-0.183,-0.580,1.373,66.667,667046.000,1.000
11.460,15.821,9.137,3.790,1.039,5.252,3.189,-1.783,0.026,0.979,-0.131,-0.275,-0.671,1.373,66.667,667047.000,1.000
8.184,13.480,5.371,0.337,-0.678,3.275,4.202,-0.305,0.024,0.980,-0.134,-0.305,-0.702,1.404,66.667,667048.000,1.000
6.043,12.438,2.719,-2.379,-1.451,3.507,4.972,-0.006,0.023,0.979,-0.135,-0.397,-0.824,1.404,66.667,667049.000,1.000
6.624,13.663,2.825,-2.794,-0.006,6.715,6.567,0.386,0.024,0.979,-0.134,-0.488,-0.824,1.434,66.667,667050.000,1.000
11.187,18.008,7.056,0.652,5.058,13.416,10.984,3.191,0.026,0.979,-0.129,-0.519,-0.854,1.465,66.667,667051.000,1.000
18.166,23.825,13.955,7.011,12.527,21.516,17.731,8.573,0.028,0.980,-0.131,-0.519,-0.885,1.495,66.667,667052.000,1.000
23.558,27.381,19.527,12.802,18.527,26.722,23.277,13.830,0.031,0.981,-0.132,-0.671,-1.007,1.678,66.667,667053.000,1.000
24.090,25.931,20.376,14.753,19.612,25.982,24.067,15.707,0.030,0.982,-0.129,-0.671,-1.099,1.831,66.667,667054.000,1.000
19.449,19.741,16.053,12.020,15.267,19.772,19.314,12.884,0.030,0.982,-0.133,-0.793,-1.099,1.862,66.667,667055.000,1.000
12.020,11.605,8.862,6.212,7.755,11.237,11.134,6.674,0.029,0.981,-0.132,-0.824,-1.068,1.984,66.667,667056.000,1.000
5.122,5.019,2.128,-0.003,0.321,4.003,3.023,-0.156,0.028,0.979,-0.131,-0.916,-1.190,1.892,66.667,667057.000,1.000
0.964,2.065,-1.851,-4.562,-4.744,0.262,-2.213,-5.377,0.028,0.975,-0.129,-0.916,-1.129,1.892,66.667,667058.000,1.000
0.057,2.758,-2.485,-6.501,-6.611,0.410,-3.410,-7.900,0.029,0.970,-0.130,-0.854,-1.190,1.862,66.667,667059.000,1.000
1.809,5.792,-0.417,-5.728,-5.523,3.615,-0.938,-7.413,0.028,0.973,-0.131,-0.854,-1.068,1.740,66.667,667060.000,1.000
4.647,9.028,2.598,-3.402,-2.972,7.690,3.052,-4.882,0.030,0.974,-0.131,-0.793,-1.160,1.526,66.667,667061.000,1.000
6.390,10.168,4.210,-1.774,-1.427,9.482,5.342,-2.653,0.031,0.972,-0.131,-0.641,-1.160,1.617,66.667,667062.000,1.000
5.782,8.265,3.135,-2.424,-2.599,7.065,4.017,-2.753,0.031,0.972,-0.131,-0.580,-1.068,1.617,66.667,667063.000,1.000
4.132,5.181,0.859,-4.273,-5.392,2.151,0.603,-4.584,0.035,0.971,-0.134,-0.519,-1.099,1.556,66.667,667064.000,1.000
4.562,4.626,0.843,-4.142,-6.354,-0.739,-0.859,-5.059,0.034,0.969,-0.132,-0.488,-1.068,1.648,66.667,667065.000,1.000
8.475,8.383,4.837,-0.247,-3.365,1.186,1.941,-2.112,0.037,0.969,-0.131,-0.336,-0.885,1.740,66.667,667066.000,1.000
13.899,14.528,11.059,5.952,2.237,6.598,7.464,3.186,0.038,0.968,-0.133,-0.214,-0.732,1.617,66.667,667067.000,1.000
17.732,19.664,16.347,11.619,7.563,12.318,12.713,8.379,0.036,0.967,-0.131,-0.153,-0.671,1.648,66.667,667068.000,1.000
18.036,21.293,18.500,14.615,10.405,15.702,15.515,11.452,0.034,0.969,-0.134,-0.061,-0.641,1.587,66.667,667069.000,1.000
14.627,18.703,16.966,14.122,9.900,15.328,14.773,11.229,0.035,0.971,-0.130,-0.031,-0.427,1.556,66.667,667070.000,1.000
8.918,13.199,12.760,10.767,6.661,11.428,10.767,7.918,0.034,0.974,-0.130,0.031,-0.427,1.556,66.667,667071.000,1.000
3.322,7.494,7.972,6.446,2.595,6.036,5.642,3.507,0.037,0.977,-0.131,0.122,-0.366,1.526,66.667,667072.000,1.000
0.282,4.414,4.965,3.571,0.102,2.110,2.459,0.751,0.037,0.979,-0.134,0.092,-0.305,1.526,66.667,667073.000,1.000
0.814,5.143,4.950,3.472,0.390,1.392,2.749,0.983,0.037,0.979,-0.134,0.000,-0.275,1.617,66.667,667074.000,1.000
3.709,8.386,7.011,5.391,2.475,3.068,5.294,3.104,0.032,0.980,-0.131,-0.122,-0.275,1.556,66.667,667075.000,1.000
6.822,11.783,9.239,7.638,4.486,5.117,7.612,5.028,0.030,0.982,-0.128,-0.092,-0.244,1.526,66.667,667076.000,1.000
8.698,13.698,10.405,9.123,5.370,6.258,8.076,5.517,0.030,0.984,-0.129,-0.275,-0.214,1.404,66.667,667077.000,1.000
9.065,13.829,10.421,9.693,5.269,6.536,6.834,4.752,0.026,0.986,-0.127,-0.427,-0.244,1.343,66.667,667078.000,1.000
8.679,13.130,10.066,9.857,5.133,7.034,5.515,4.027,0.024,0.986,-0.128,-0.580,-0.366,1.099,66.667,667079.000,1.000
8.389,12.805,10.096,10.083,5.699,8.740,5.746,4.637,0.022,0.987,-0.127,-0.854,-0.549,1.068,66.667,667080.000,1.000
8.065,12.943,10.305,10.092,6.547,11.275,7.691,6.562,0.021,0.987,-0.129,-1.007,-0.763,0.977,66.667,667081.000,1.000
7.181,12.915,10.110,9.498,6.845,13.430,10.526,8.746,0.022,0.988,-0.127,-1.251,-0.854,0.854,66.667,667082.000,1.000
6.147,12.797,9.784,8.885,6.761,14.707,13.607,10.595,0.023,0.987,-0.129,-1.434,-1.038,0.702,66.667,667083.000,1.000
5.817,13.077,9.950,9.148,6.962,15.235,16.107,12.115,0.024,0.984,-0.128,-1.526,-1.221,0.641,66.667,667084.000,1.000
5.824,13.147,10.037,9.880,6.927,14.469,16.336,12.654,0.026,0.986,-0.129,-1.648,-1.312,0.763,66.667,667085.000,1.000
4.482,11.266,8.340,9.348,4.917,11.126,12.719,10.802,0.027,0.984,-0.128,-1.678,-1.343,0.702,66.667,667086.000,1.000
0.843,6.599,4.072,6.473,0.067,4.899,5.670,6.142,0.028,0.983,-0.127,-1.740,-1.373,0.793,66.667,667087.000,1.000
-3.662,0.708,-1.197,2.350,-6.072,-2.362,-2.061,0.336,0.030,0.982,-0.126,-1.770,-1.434,1.038,66.667,667088.000,1.000
-6.883,-4.176,-5.278,-1.186,-11.102,-8.249,-7.671,-4.573,0.030,0.981,-0.126,-1.740,-1.556,1.221,66.667,667089.000,1.000
-8.393,-7.480,-7.674,-3.609,-14.053,-11.859,-10.463,-7.995,0.027,0.979,-0.128,-1.770,-1.587,1.251,66.667,667090.000,1.000
-8.782,-9.475,-8.750,-5.007,-14.868,-13.290,-11.123,-9.862,0.027,0.981,-0.126,-1.801,-1.648,1.343,66.667,667091.000,1.000
-8.401,-10.110,-8.554,-5.177,-13.577,-12.870,-10.407,-9.837,0.025,0.979,-0.124,-1.648,-1.770,1.404,66.667,667092.000,1.000
-7.960,-9.780,-7.644,-4.499,-11.075,-11.520,-9.141,-8.396,0.025,0.979,-0.123,-1.740,-1.831,1.434,66.667,667093.000,1.000
-8.138,-9.142,-6.842,-3.715,-8.666,-10.028,-7.712,-6.580,0.027,0.978,-0.124,-1.740,-1.831,1.465,66.667,667094.000,1.000
-7.883,-7.615,-5.496,-2.340,-6.265,-7.777,-5.270,-4.299,0.028,0.979,-0.124,-1.526,-1.984,1.526,66.667,667095.000,1.000
-4.708,-3.505,-1.547,1.256,-2.288,-3.208,-0.367,-0.235,0.027,0.980,-0.125,-1.434,-2.014,1.526,66.667,667096.000,1.000
2.389,3.624,5.818,7.515,4.034,3.987,7.052,5.956,0.028,0.980,-0.126,-1.465,-1.953,1.465,66.667,667097.000,1.000
10.637,11.018,13.963,13.906,10.554,11.137,14.083,11.770,0.029,0.981,-0.125,-1.465,-1.984,1.556,66.667,667098.000,1.000
15.376,14.574,18.549,16.707,13.739,14.295,16.684,13.730,0.029,0.978,-0.126,-1.434,-1.953,1.678,66.667,667099.000,1.000
14.363,12.777,17.610,14.631,12.387,12.121,13.641,11.143,0.029,0.976,-0.123,-1.495,-1.923,1.770,66.667,667100.000,1.000
9.376,7.874,12.983,9.820,8.744,7.106,7.633,6.618,0.029,0.975,-0.122,-1.373,-1.862,1.678,66.667,667101.000,1.000
4.507,3.956,8.640,6.026,6.648,3.572,3.113,3.797,0.031,0.971,-0.124,-1.160,-1.740,1.678,66.667,667102.000,1.000
3.301,4.268,8.065,6.190,8.999,4.755,3.722,5.313,0.031,0.971,-0.127,-1.038,-1.678,1.678,66.667,667103.000,1.000
6.241,8.921,11.835,10.431,15.630,10.477,10.046,11.279,0.032,0.969,-0.127,-0.824,-1.740,1.617,66.667,667104.000,1.000
10.355,14.462,16.985,15.685,22.869,16.861,18.445,18.617,0.032,0.968,-0.127,-0.671,-1.678,1.678,66.667,667105.000,1.000
11.472,16.082,19.016,17.574,25.602,18.671,22.709,22.408,0.032,0.967,-0.125,-0.427,-1.617,1.587,66.667,667106.000,1.000
7.805,11.609,15.659,13.788,21.175,13.496,18.853,19.408,0.032,0.968,-0.123,-0.244,-1.617,1.465,66.667,667107.000,1.000
1.937,3.924,9.234,6.386,12.039,4.349,8.815,11.030,0.034,0.967,-0.124,-0.092,-1.495,1.495,66.667,667108.000,1.000
-1.532,-1.602,4.484,-0.015,3.622,-3.033,-1.581,2.005,0.035,0.968,-0.126,0.031,-1.312,1.373,66.667,667109.000,1.000
-0.305,-2.020,4.138,-2.357,-0.500,-5.449,-7.913,-3.966,0.036,0.967,-0.127,0.214,-1.221,1.373,66.667,667110.000,1.000
4.265,1.516,7.285,-0.893,-0.629,-3.949,-9.546,-6.351,0.035,0.966,-0.129,0.519,-1.251,1.282,66.667,667111.000,1.000
8.906,5.575,10.902,1.978,0.528,-1.740,-8.382,-6.644,0.035,0.967,-0.127,0.793,-1.160,1.221,66.667,667112.000,1.000
10.309,6.625,11.775,3.318,-0.076,-2.020,-7.260,-6.855,0.033,0.968,-0.127,1.038,-1.160,1.160,66.667,667113.000,1.000
7.059,3.226,8.545,1.543,-3.726,-6.025,-8.055,-8.117,0.036,0.969,-0.127,1.068,-1.160,1.160,66.667,667114.000,1.000
1.422,-2.205,3.414,-1.814,-8.302,-11.368,-9.730,-9.421,0.035,0.970,-0.131,1.190,-1.007,1.129,66.667,667115.000,1.000
-2.157,-5.157,0.561,-3.278,-9.871,-13.830,-9.642,-8.592,0.034,0.972,-0.127,1.312,-0.885,1.160,66.667,667116.000,1.000
-1.377,-3.406,2.016,-1.089,-6.702,-11.646,-7.030,-4.987,0.034,0.974,-0.127,1.251,-0.702,1.007,66.667,667117.000,1.000
1.828,1.020,5.815,2.984,-1.005,-7.070,-4.015,-0.605,0.035,0.978,-0.130,1.282,-0.641,1.099,66.667,667118.000,1.000
3.240,3.807,7.949,5.244,2.951,-4.157,-3.464,1.293,0.032,0.979,-0.129,1.373,-0.580,1.129,66.667,667119.000,1.000
0.136,2.044,5.851,3.282,2.289,-5.445,-6.350,-1.110,0.032,0.978,-0.131,1.373,-0.610,1.190,66.667,667120.000,1.000
-6.556,-3.497,0.324,-2.073,-2.347,-10.153,-11.012,-6.443,0.030,0.978,-0.127,1.282,-0.641,1.099,66.667,667121.000,1.000
-13.657,-9.657,-5.805,-7.917,-7.949,-15.461,-14.953,-11.406,0.031,0.978,-0.130,1.221,-0.580,1.099,66.667,667122.000,1.000
-17.699,-13.091,-9.551,-11.121,-11.166,-18.478,-16.251,-12.929,0.030,0.980,-0.127,1.160,-0.610,1.190,66.667,667123.000,1.000
-15.564,-11.038,-8.246,-9.070,-9.146,-16.743,-13.300,-9.155,0.028,0.984,-0.126,1.007,-0.641,1.099,66.667,667124.000,1.000
-6.560,-3.041,-1.213,-1.311,-1.270,-9.477,-5.888,-0.637,0.028,0.984,-0.129,0.977,-0.702,1.099,66.667,667125.000,1.000
5.470,7.286,8.320,8.866,9.177,0.692,3.122,9.008,0.027,0.988,-0.131,0.824,-0.671,0.977,66.667,667126.000,1.000
14.257,14.296,14.934,16.208,16.818,8.878,9.337,15.168,0.027,0.992,-0.127,0.519,-0.702,1.099,66.667,667127.000,1.000
15.575,14.379,14.907,17.137,17.930,11.171,9.998,15.295,0.027,0.991,-0.128,0.305,-0.763,1.068,66.667,667128.000,1.000
9.259,7.691,8.087,11.457,12.211,6.647,5.032,9.814,0.030,0.990,-0.127,0.092,-0.854,1.068,66.667,667129.000,1.000
-1.814,-2.882,-2.911,1.590,2.111,-2.734,-3.737,1.064,0.029,0.988,-0.125,-0.183,-0.824,1.221,66.667,667130.000,1.000
-13.630,-13.503,-14.363,-8.938,-8.573,-13.252,-13.151,-7.735,0.031,0.986,-0.127,-0.336,-0.763,1.282,66.667,667131.000,1.000
-22.422,-20.730,-22.732,-16.715,-15.991,-20.759,-19.241,-13.151,0.031,0.985,-0.129,-0.366,-0.763,1.465,66.667,667132.000,1.000
-25.621,-22.467,-25.657,-19.421,-17.569,-22.196,-18.986,-12.753,0.032,0.984,-0.131,-0.488,-0.732,1.495,66.667,667133.000,1.000
-22.857,-18.868,-22.981,-16.861,-13.329,-17.143,-12.415,-6.754,0.033,0.987,-0.129,-0.519,-0.732,1.526,66.667,667134.000,1.000
-16.312,-12.529,-17.053,-11.266,-6.121,-8.312,-2.838,1.619,0.035,0.986,-0.127,-0.732,-0.519,1.617,66.667,667135.000,1.000
-9.533,-7.122,-11.393,-6.022,-0.033,-0.129,5.018,7.878,0.035,0.987,-0.129,-0.824,-0.519,1.770,66.667,667136.000,1.000
-5.540,-5.405,-8.711,-3.739,1.874,3.644,7.393,8.800,0.035,0.985,-0.130,-0.946,-0.366,1.862,66.667,667137.000,1.000
-5.403,-7.954,-9.638,-4.973,-0.966,1.611,3.235,4.140,0.037,0.982,-0.129,-1.038,-0.458,1.923,66.667,667138.000,1.000
-7.938,-13.041,-12.689,-8.188,-6.525,-4.826,-5.258,-3.302,0.036,0.981,-0.129,-1.038,-0.305,1.892,66.667,667139.000,1.000
-10.865,-17.791,-15.468,-11.038,-11.575,-12.286,-13.804,-9.573,0.033,0.980,-0.128,-1.190,-0.183,1.801,66.667,667140.000,1.000
-12.510,-20.041,-16.342,-11.994,-13.756,-17.362,-18.587,-12.156,0.030,0.979,-0.126,-1.343,-0.031,1.831,66.667,667141.000,1.000
-12.449,-19.425,-15.183,-10.988,-12.776,-18.552,-18.333,-11.173,0.026,0.979,-0.127,-1.434,-0.031,1.740,66.667,667142.000,1.000
-10.957,-16.917,-12.803,-8.829,-9.957,-16.599,-14.389,-8.476,0.026,0.978,-0.125,-1.373,-0.122,1.648,66.667,667143.000,1.000
-8.412,-13.665,-10.035,-6.316,-6.830,-13.182,-9.106,-5.794,0.025,0.975,-0.128,-1.373,-0.244,1.465,66.667,667144.000,1.000
-5.287,-10.399,-7.390,-3.878,-4.232,-9.664,-4.360,-3.676,0.026,0.976,-0.128,-1.343,-0.336,1.282,66.667,667145.000,1.000
-2.195,-7.543,-5.142,-1.718,-2.357,-6.889,-1.265,-1.925,0.029,0.974,-0.130,-1.404,-0.183,1.099,66.667,667146.000,1.000
0.271,-5.455,-3.488,-0.104,-1.265,-5.405,-0.426,-0.777,0.031,0.974,-0.130,-1.373,-0.153,1.007,66.667,667147.000,1.000
1.581,-4.519,-2.748,0.489,-1.238,-5.517,-2.058,-1.209,0.035,0.973,-0.130,-1.251,-0.214,0.977,66.667,667148.000,1.000
1.436,-4.793,-3.191,-0.248,-2.462,-6.961,-5.615,-3.721,0.034,0.975,-0.127,-1.160,-0.092,0.885,66.667,667149.000,1.000
0.158,-5.502,-4.492,-1.887,-4.383,-8.643,-9.475,-7.258,0.035,0.976,-0.126,-1.099,-0.153,0.916,66.667,667150.000,1.000
-1.481,-5.524,-5.844,-3.565,-5.903,-9.335,-11.787,-9.968,0.034,0.978,-0.125,-1.160,0.000,0.916,66.667,667151.000,1.000
-3.149,-4.713,-6.889,-4.958,-6.484,-8.956,-11.929,-10.873,0.035,0.979,-0.128,-1.129,-0.031,1.068,66.667,667152.000,1.000
-5.080,-4.016,-7.909,-6.376,-6.454,-8.507,-10.728,-10.306,0.034,0.978,-0.129,-1.160,0.122,1.190,66.667,667153.000,1.000
-7.177,-4.148,-9.014,-7.922,-6.198,-8.637,-9.228,-9.002,0.035,0.979,-0.128,-1.190,0.214,1.404,66.667,667154.000,1.000
-8.860,-4.986,-9.926,-9.257,-5.824,-9.095,-7.964,-7.569,0.032,0.977,-0.129,-1.129,0.366,1.526,66.667,667155.000,1.000
-9.666,-6.009,-10.375,-9.993,-5.358,-9.277,-6.975,-6.474,0.030,0.979,-0.129,-1.038,0.214,1.648,66.667,667156.000,1.000
-9.605,-6.727,-10.256,-9.887,-4.753,-8.630,-5.820,-5.937,0.028,0.978,-0.130,-1.038,0.214,1.740,66.667,667157.000,1.000
-9.126,-6.984,-9.680,-8.943,-4.006,-7.011,-4.262,-6.051,0.027,0.976,-0.128,-0.977,0.122,1.831,66.667,667158.000,1.000
-8.634,-6.908,-8.783,-7.312,-3.181,-4.818,-2.792,-6.840,0.027,0.976,-0.126,-1.007,0.214,1.801,66.667,667159.000,1.000
-8.047,-6.588,-7.473,-5.106,-2.199,-2.588,-1.868,-7.973,0.025,0.976,-0.125,-1.068,0.092,1.862,66.667,667160.000,1.000
-7.015,-6.023,-5.618,-2.481,-0.854,-0.672,-1.155,-8.605,0.026,0.976,-0.125,-0.977,0.092,1.862,66.667,667161.000,1.000
-5.315,-5.157,-3.332,0.285,0.923,0.772,0.049,-7.748,0.027,0.979,-0.124,-0.977,0.031,1.801,66.667,667162.000,1.000
-3.236,-4.184,-1.226,2.638,2.675,1.443,1.647,-5.214,0.029,0.979,-0.123,-0.916,-0.061,1.831,66.667,667163.000,1.000
-2.027,-4.096,-0.593,3.486,3.147,0.512,2.244,-2.329,0.029,0.980,-0.124,-0.854,-0.214,1.831,66.667,667164.000,1.000
-3.363,-6.293,-2.779,1.660,0.909,-3.024,0.049,-1.209,0.029,0.977,-0.125,-0.793,-0.183,1.862,66.667,667165.000,1.000
-7.603,-11.019,-7.765,-2.806,-4.199,-9.064,-5.460,-2.987,0.032,0.975,-0.125,-0.671,-0.275,1.892,66.667,667166.000,1.000
-12.742,-16.333,-13.409,-7.997,-10.251,-15.393,-12.335,-6.626,0.032,0.975,-0.124,-0.580,-0.336,1.892,66.667,667167.000,1.000
-15.584,-19.191,-16.586,-11.125,-14.257,-18.694,-17.135,-9.558,0.031,0.973,-0.124,-0.488,-0.366,1.923,66.667,667168.000,1.000
-14.341,-18.000,-15.676,-10.734,-14.583,-17.474,-17.973,-9.923,0.031,0.973,-0.121,-0.153,-0.458,1.953,66.667,667169.000,1.000
-9.974,-13.930,-11.898,-7.877,-12.225,-13.481,-15.987,-8.045,0.033,0.973,-0.120,0.092,-0.549,1.923,66.667,667170.000,1.000
-4.873,-9.417,-7.870,-4.782,-9.333,-9.544,-13.244,-5.282,0.033,0.972,-0.121,0.244,-0.458,1.801,66.667,667171.000,1.000
-0.955,-6.062,-5.436,-2.885,-7.210,-6.941,-10.644,-2.357,0.032,0.972,-0.120,0.427,-0.641,1.740,66.667,667172.000,1.000
0.819,-4.320,-5.105,-2.490,-6.157,-5.473,-8.581,0.303,0.033,0.975,-0.121,0.580,-0.671,1.678,66.667,667173.000,1.000
0.159,-4.272,-6.662,-3.512,-6.319,-4.939,-7.940,1.653,0.033,0.975,-0.120,0.854,-0.641,1.617,66.667,667174.000,1.000
-2.538,-5.890,-9.533,-5.742,-7.827,-5.622,-9.290,0.713,0.033,0.974,-0.120,0.946,-0.641,1.709,66.667,667175.000,1.000
-6.105,-8.620,-12.750,-8.551,-10.262,-7.632,-11.964,-2.278,0.032,0.974,-0.121,1.038,-0.732,1.740,66.667,667176.000,1.000
-9.002,-11.261,-15.162,-10.959,-12.664,-10.426,-14.860,-6.167,0.031,0.972,-0.120,1.190,-0.763,1.770,66.667,667177.000,1.000
-10.127,-12.654,-16.051,-12.257,-14.208,-13.069,-17.541,-9.879,0.031,0.971,-0.121,1.373,-0.732,1.678,66.667,667178.000,1.000
-9.394,-12.510,-15.545,-12.443,-14.679,-14.768,-19.846,-12.632,0.031,0.973,-0.122,1.495,-0.885,1.678,66.667,667179.000,1.000
-7.524,-11.441,-14.318,-11.997,-14.356,-15.264,-21.301,-13.955,0.030,0.973,-0.121,1.770,-0.946,1.526,66.667,667180.000,1.000
-5.243,-10.185,-12.835,-11.273,-13.491,-14.732,-21.402,-13.754,0.029,0.973,-0.118,1.953,-1.038,1.465,66.667,667181.000,1.000
-2.832,-8.956,-11.005,-10.200,-11.953,-13.392,-19.909,-12.050,0.031,0.975,-0.119,2.136,-1.068,1.282,66.667,667182.000,1.000
-0.542,-7.687,-8.725,-8.698,-9.604,-11.547,-17.121,-9.103,0.029,0.979,-0.118,2.258,-1.068,1.282,66.667,667183.000,1.000
0.899,-6.636,-6.552,-7.218,-6.979,-9.756,-14.069,-5.884,0.030,0.979,-0.116,2.289,-1.221,1.160,66.667,667184.000,1.000
0.670,-6.346,-5.477,-6.508,-5.198,-8.477,-11.932,-3.692,0.034,0.979,-0.116,2.167,-1.343,1.129,66.667,667185.000,1.000
-1.243,-7.084,-6.055,-6.863,-5.149,-7.762,-11.253,-3.186,0.032,0.982,-0.121,2.136,-1.434,1.129,66.667,667186.000,1.000
-3.829,-8.491,-7.883,-7.795,-6.840,-7.455,-11.695,-4.035,0.032,0.984,-0.122,2.075,-1.526,1.099,66.667,667187.000,1.000
-5.779,-9.783,-9.893,-8.465,-9.378,-7.272,-12.251,-5.291,0.034,0.984,-0.120,2.045,-1.495,1.099,66.667,667188.000,1.000
-6.426,-10.331,-11.110,-8.362,-11.512,-6.796,-11.756,-5.883,0.032,0.983,-0.120,1.923,-1.404,0.977,66.667,667189.000,1.000
-6.001,-10.046,-11.170,-7.577,-12.337,-5.716,-9.697,-5.140,0.031,0.986,-0.120,1.831,-1.587,0.885,66.667,667190.000,1.000
-5.026,-9.136,-10.189,-6.490,-11.570,-4.043,-6.603,-3.138,0.029,0.985,-0.120,1.709,-1.587,0.885,66.667,667191.000,1.000
-3.670,-7.684,-8.384,-5.372,-9.460,-2.110,-3.510,-0.515,0.030,0.984,-0.122,1.465,-1.556,0.854,66.667,667192.000,1.000
-1.853,-5.614,-5.964,-4.307,-6.555,-0.354,-1.170,1.975,0.031,0.983,-0.123,1.282,-1.495,0.854,66.667,667193.000,1.000
0.338,-2.862,-3.144,-3.240,-3.355,1.130,0.453,3.837,0.029,0.981,-0.125,1.129,-1.587,0.732,66.667,667194.000,1.000
2.664,0.594,-0.005,-1.903,0.024,2.969,2.110,5.026,0.029,0.980,-0.126,1.007,-1.617,0.732,66.667,667195.000,1.000
5.088,4.730,3.626,0.135,3.845,6.355,4.682,5.963,0.030,0.975,-0.125,0.854,-1.648,0.732,66.667,667196.000,1.000
7.810,9.353,7.952,3.130,8.329,12.058,8.726,7.451,0.031,0.972,-0.126,0.977,-1.740,0.702,66.667,667197.000,1.000
10.912,13.910,12.718,6.795,13.130,19.117,14.063,10.209,0.031,0.970,-0.128,1.068,-1.740,0.763,66.667,667198.000,1.000
14.033,17.484,17.003,10.272,17.153,24.722,19.194,13.975,0.029,0.972,-0.125,1.160,-1.831,0.641,66.667,667199.000,1.000
16.421,19.152,19.636,12.541,19.010,25.934,21.355,16.992,0.029,0.976,-0.123,1.251,-1.770,0.732,66.667,667200.000,1.000
17.355,18.522,19.950,13.044,17.888,21.748,18.071,16.841,0.029,0.970,-0.123,1.251,-1.740,0.610,66.667,667201.000,1.000
16.592,16.004,18.230,12.073,14.234,13.707,9.375,12.395,0.030,0.964,-0.126,1.129,-1.862,0.763,66.667,667202.000,1.000
14.609,12.659,15.620,10.637,9.733,5.082,-1.519,5.168,0.034,0.963,-0.129,1.526,-1.709,0.916,66.667,667203.000,1.000
12.475,9.786,13.561,9.890,6.446,-0.693,-10.071,-1.460,0.035,0.969,-0.131,1.862,-1.740,0.916,66.667,667204.000,1.000
11.229,8.300,12.975,10.444,5.553,-1.772,-13.238,-4.536,0.035,0.973,-0.128,2.106,-1.740,1.007,66.667,667205.000,1.000
11.182,8.249,13.737,11.997,6.715,1.274,-10.991,-3.304,0.035,0.980,-0.124,2.136,-1.617,1.099,66.667,667206.000,1.000
11.753,8.893,14.870,13.581,8.534,6.208,-5.695,0.712,0.036,0.987,-0.126,2.228,-1.648,1.190,66.667,667207.000,1.000
12.014,9.274,15.267,14.227,9.597,10.661,-0.296,4.995,0.034,0.990,-0.126,2.014,-1.434,1.221,66.667,667208.000,1.000
11.479,8.944,14.461,13.606,9.367,13.360,3.481,7.757,0.035,0.990,-0.125,1.740,-1.282,1.373,66.667,667209.000,1.000
10.408,8.239,12.876,12.130,8.354,14.361,5.753,8.835,0.035,0.989,-0.125,1.495,-1.282,1.312,66.667,667210.000,1.000
9.367,7.745,11.313,10.454,7.433,14.279,7.519,9.125,0.035,0.984,-0.129,1.221,-1.251,1.373,66.667,667211.000,1.000
8.724,7.691,10.299,8.972,7.060,13.603,9.388,9.391,0.034,0.982,-0.127,1.099,-1.221,1.373,66.667,667212.000,1.000
8.681,8.024,10.045,7.860,7.197,12.759,11.194,9.624,0.033,0.979,-0.130,1.068,-1.160,1.373,66.667,667213.000,1.000
9.502,8.760,10.700,7.361,7.714,12.243,12.502,9.363,0.032,0.977,-0.129,1.068,-1.190,1.282,66.667,667214.000,1.000
11.341,9.988,12.308,7.771,8.632,12.332,13.331,8.530,0.033,0.973,-0.138,0.885,-1.099,1.251,66.667,667215.000,1.000
13.816,11.520,14.462,9.082,10.021,12.950,14.511,7.832,0.034,0.965,-0.146,0.732,-0.885,1.221,66.667,667216.000,1.000
15.932,12.729,16.237,10.731,11.662,13.858,16.931,8.061,0.030,0.949,-0.143,1.099,-0.854,1.312,66.667,667217.000,1.000
16.732,12.906,16.669,11.808,12.852,14.651,19.736,8.807,0.025,0.950,-0.129,2.350,-0.977,1.373,66.667,667218.000,1.000
16.153,11.898,15.525,11.662,12.792,14.594,20.158,8.373,0.027,0.971,-0.112,3.326,-1.251,1.465,66.667,667219.000,1.000
15.118,10.280,13.519,10.330,11.278,12.904,15.935,5.391,0.030,0.990,-0.104,3.052,-1.343,1.160,66.667,667220.000,1.000
14.673,8.830,11.653,8.368,8.783,9.246,7.185,0.116,0.036,0.997,-0.114,2.045,-1.282,0.885,66.667,667221.000,1.000
15.122,7.902,10.399,6.351,5.931,4.019,-3.827,-5.821,0.039,0.998,-0.125,1.282,-0.946,0.458,66.667,667222.000,1.000
15.966,7.341,9.586,4.643,3.226,-1.619,-13.728,-10.268,0.041,0.997,-0.132,0.702,-0.702,0.061,66.667,667223.000,1.000
16.425,6.786,8.787,3.398,1.047,-6.189,-19.489,-11.651,0.044,0.990,-0.142,0.488,-0.397,-0.244,66.667,667224.000,1.000
15.860,5.839,7.553,2.465,-0.608,-8.889,-20.206,-10.173,0.042,0.980,-0.142,0.458,-0.305,-0.214,66.667,667225.000,1.000
13.919,4.046,5.467,1.357,-2.262,-10.169,-17.617,-7.772,0.041,0.972,-0.143,0.549,-0.275,0.153,66.667,667226.000,1.000
10.630,1.096,2.331,-0.411,-4.467,-11.070,-14.479,-6.589,0.038,0.967,-0.142,0.610,-0.092,0.458,66.667,667227.000,1.000
6.411,-2.892,-1.669,-2.923,-7.231,-12.119,-12.590,-7.585,0.037,0.966,-0.141,0.854,-0.092,0.671,66.667,667228.000,1.000
1.942,-7.326,-6.011,-5.805,-10.003,-13.066,-12.085,-10.162,0.035,0.974,-0.136,1.007,0.061,0.732,66.667,667229.000,1.000
-2.014,-11.323,-9.991,-8.397,-12.101,-13.604,-12.073,-12.666,0.035,0.978,-0.134,1.068,0.092,0.702,66.667,667230.000,1.000
-4.831,-14.060,-12.931,-10.100,-13.192,-14.099,-11.918,-13.632,0.034,0.984,-0.131,1.099,0.275,0.732,66.667,667231.000,1.000
-6.364,-15.217,-14.515,-10.783,-13.516,-15.370,-11.910,-12.970,0.031,0.989,-0.130,0.946,0.305,0.854,66.667,667232.000,1.000
-7.015,-15.147,-14.903,-10.825,-13.590,-17.725,-12.534,-11.824,0.031,0.988,-0.129,0.671,0.153,0.916,66.667,667233.000,1.000
-7.384,-14.563,-14.449,-10.685,-13.669,-20.456,-13.384,-11.287,0.027,0.987,-0.131,0.397,0.153,0.977,66.667,667234.000,1.000
-7.894,-14.054,-13.445,-10.549,-13.646,-22.394,-13.568,-11.615,0.027,0.983,-0.132,0.275,0.031,1.038,66.667,667235.000,1.000
-8.675,-13.853,-12.165,-10.407,-13.466,-22.817,-13.161,-12.673,0.026,0.978,-0.134,0.275,-0.153,1.068,66.667,667236.000,1.000
-9.729,-13.939,-11.002,-10.320,-13.413,-21.841,-13.426,-14.505,0.026,0.975,-0.135,0.061,-0.153,1.129,66.667,667237.000,1.000
-11.001,-14.140,-10.278,-10.363,-13.735,-20.109,-15.355,-16.966,0.025,0.975,-0.134,0.183,-0.305,1.129,66.667,667238.000,1.000
-12.151,-14.030,-9.799,-10.241,-14.044,-18.169,-18.265,-19.052,0.023,0.975,-0.131,0.122,-0.458,1.160,66.667,667239.000,1.000
-12.615,-13.086,-8.891,-9.362,-13.507,-16.146,-20.179,-19.363,0.024,0.978,-0.131,0.214,-0.519,1.160,66.667,667240.000,1.000
-12.205,-11.332,-7.226,-7.568,-11.796,-13.986,-19.659,-17.508,0.025,0.978,-0.134,0.183,-0.610,1.160,66.667,667241.000,1.000
-11.495,-9.686,-5.480,-5.614,-9.731,-12.019,-17.047,-14.692,0.026,0.981,-0.135,0.183,-0.793,1.160,66.667,667242.000,1.000
-11.433,-9.456,-4.916,-4.719,-8.811,-11.098,-14.034,-12.726,0.028,0.983,-0.136,0.061,-0.885,1.129,66.667,667243.000,1.000
-12.605,-11.354,-6.334,-5.641,-10.057,-11.862,-12.326,-12.679,0.026,0.984,-0.136,-0.122,-0.977,1.190,66.667,667244.000,1.000
-14.882,-14.961,-9.525,-8.219,-13.356,-14.034,-12.725,-14.514,0.027,0.981,-0.136,-0.153,-0.977,1.221,66.667,667245.000,1.000
-17.536,-18.955,-13.467,-11.550,-17.627,-16.602,-14.878,-17.450,0.029,0.979,-0.130,-0.305,-1.099,1.221,66.667,667246.000,1.000
-19.662,-21.810,-16.842,-14.421,-21.394,-18.405,-17.379,-20.265,0.030,0.978,-0.134,-0.305,-1.129,1.251,66.667,667247.000,1.000
-20.769,-22.634,-18.744,-15.877,-23.538,-18.782,-18.569,-21.743,0.029,0.976,-0.134,-0.275,-1.160,1.312,66.667,667248.000,1.000
-21.051,-21.629,-19.141,-15.683,-23.819,-17.889,-17.656,-21.293,0.030,0.975,-0.133,-0.244,-1.068,1.404,66.667,667249.000,1.000
-20.964,-19.657,-18.577,-14.257,-22.623,-16.182,-14.904,-19.090,0.031,0.975,-0.132,-0.214,-1.160,1.343,66.667,667250.000,1.000
-20.653,-17.485,-17.526,-12.232,-20.371,-13.852,-11.029,-15.711,0.032,0.977,-0.136,-0.183,-1.160,1.251,66.667,667251.000,1.000
-20.002,-15.580,-16.254,-10.229,-17.513,-11.313,-6.917,-11.965,0.032,0.977,-0.135,-0.214,-1.129,1.343,66.667,667252.000,1.000
-19.034,-14.319,-15.075,-8.847,-14.862,-9.719,-3.664,-8.964,0.033,0.976,-0.133,-0.275,-1.129,1.282,66.667,667253.000,1.000
-18.016,-13.990,-14.366,-8.520,-13.380,-10.147,-2.180,-7.756,0.032,0.978,-0.133,-0.275,-1.129,1.343,66.667,667254.000,1.000
-17.308,-14.615,-14.348,-9.345,-13.633,-12.600,-2.939,-8.846,0.032,0.977,-0.134,-0.244,-1.099,1.404,66.667,667255.000,1.000
-17.153,-15.916,-14.940,-11.049,-15.488,-16.141,-5.963,-12.002,0.030,0.976,-0.136,-0.305,-1.068,1.495,66.667,667256.000,1.000
-17.346,-17.249,-15.596,-12.920,-17.925,-19.309,-10.069,-15.901,0.031,0.976,-0.136,-0.366,-1.129,1.495,66.667,667257.000,1.000
-17.082,-17.588,-15.347,-13.877,-19.235,-20.450,-13.005,-18.457,0.031,0.977,-0.134,-0.397,-1.129,1.404,66.667,667258.000,1.000
-15.493,-16.068,-13.436,-13.099,-18.085,-18.620,-13.439,-18.435,0.030,0.979,-0.132,-0.366,-1.190,1.312,66.667,667259.000,1.000
-12.457,-12.763,-10.039,-10.669,-14.515,-14.441,-11.993,-16.422,0.031,0.980,-0.129,-0.488,-1.190,1.312,66.667,667260.000,1.000
-8.763,-8.814,-6.248,-7.481,-9.768,-9.729,-10.052,-13.835,0.033,0.982,-0.129,-0.549,-1.099,1.343,66.667,667261.000,1.000
-5.536,-5.647,-3.332,-4.610,-5.321,-6.244,-8.472,-11.553,0.035,0.979,-0.129,-0.702,-1.129,1.373,66.667,667262.000,1.000
-3.490,-3.992,-1.956,-2.761,-2.050,-4.751,-7.397,-9.587,0.035,0.977,-0.131,-0.885,-0.916,1.221,66.667,667263.000,1.000
-2.623,-3.592,-1.941,-2.080,-0.026,-4.772,-6.440,-7.474,0.037,0.975,-0.133,-0.916,-0.854,1.221,66.667,667264.000,1.000
-2.501,-3.679,-2.643,-2.310,1.126,-4.997,-4.953,-4.908,0.034,0.973,-0.134,-0.793,-0.793,1.251,66.667,667265.000,1.000
-2.703,-3.643,-3.500,-3.066,1.717,-4.328,-2.704,-2.292,0.035,0.974,-0.134,-0.763,-0.732,1.221,66.667,667266.000,1.000
-2.916,-3.311,-4.212,-3.986,1.847,-2.755,-0.232,-0.462,0.036,0.975,-0.134,-0.702,-0.580,1.312,66.667,667267.000,1.000
-2.801,-2.791,-4.562,-4.679,1.658,-1.089,1.680,0.298,0.036,0.978,-0.130,-0.702,-0.519,1.160,66.667,667268.000,1.000
-2.064,-2.259,-4.378,-4.809,1.461,-0.011,2.841,0.645,0.035,0.981,-0.133,-0.671,-0.397,1.190,66.667,667269.000,1.000
-0.804,-1.942,-3.772,-4.407,1.497,0.450,3.877,1.514,0.034,0.980,-0.130,-0.763,-0.458,1.221,66.667,667270.000,1.000
0.361,-2.121,-3.246,-4.025,1.658,0.640,5.480,3.122,0.035,0.982,-0.129,-0.763,-0.397,1.251,66.667,667271.000,1.000
0.710,-2.889,-3.308,-4.397,1.524,0.772,7.403,4.545,0.035,0.980,-0.131,-0.854,-0.305,1.221,66.667,667272.000,1.000
-0.021,-3.871,-3.952,-5.809,0.784,0.868,8.391,4.439,0.034,0.975,-0.131,-0.977,-0.336,1.221,66.667,667273.000,1.000
-1.479,-4.364,-4.625,-7.788,-0.392,1.109,7.453,2.325,0.036,0.972,-0.133,-1.099,-0.214,1.160,66.667,667274.000,1.000
-2.931,-3.823,-4.647,-9.347,-1.364,2.018,5.177,-0.767,0.036,0.971,-0.132,-1.099,-0.305,1.251,66.667,667275.000,1.000
-3.659,-2.221,-3.657,-9.572,-1.417,4.065,3.480,-2.891,0.033,0.969,-0.131,-0.854,-0.122,1.343,66.667,667276.000,1.000
-3.466,-0.148,-1.909,-8.246,-0.447,6.887,3.742,-2.687,0.034,0.968,-0.133,-0.824,-0.031,1.221,66.667,667277.000,1.000
-2.854,1.429,-0.192,-6.006,0.808,9.120,5.526,-0.373,0.034,0.969,-0.132,-0.824,-0.031,1.190,66.667,667278.000,1.000
-2.575,1.792,0.737,-3.808,1.488,9.551,7.547,2.815,0.035,0.971,-0.132,-0.824,0.061,1.129,66.667,667279.000,1.000
-2.967,1.007,0.697,-2.296,1.372,8.292,8.989,5.669,0.033,0.972,-0.132,-0.824,0.092,1.068,66.667,667280.000,1.000
-3.754,-0.194,0.081,-1.624,0.807,6.633,9.397,7.379,0.034,0.975,-0.135,-0.763,0.061,1.038,66.667,667281.000,1.000
-4.454,-1.064,-0.589,-1.619,0.245,6.012,8.570,7.754,0.034,0.978,-0.132,-0.732,0.061,1.068,66.667,667282.000,1.000
-4.876,-1.459,-1.124,-2.036,-0.100,6.918,6.913,7.254,0.033,0.979,-0.129,-0.793,0.092,1.007,66.667,667283.000,1.000
-5.224,-1.887,-1.826,-2.782,-0.483,8.228,5.005,6.268,0.033,0.980,-0.130,-0.702,0.214,1.099,66.667,667284.000,1.000
-5.775,-2.946,-3.188,-3.877,-1.419,7.901,2.980,4.734,0.032,0.980,-0.129,-0.702,0.092,1.251,66.667,667285.000,1.000
-6.533,-4.638,-5.279,-5.126,-2.961,4.871,0.973,2.936,0.028,0.980,-0.125,-0.885,0.000,1.251,66.667,667286.000,1.000
-7.270,-6.309,-7.580,-6.058,-4.456,0.160,-0.304,1.812,0.027,0.981,-0.123,-0.946,-0.061,1.160,66.667,667287.000,1.000
-7.863,-7.300,-9.534,-6.369,-5.287,-4.084,-0.189,1.823,0.024,0.982,-0.127,-1.038,-0.122,1.068,66.667,667288.000,1.000
-8.409,-7.536,-11.008,-6.229,-5.571,-6.349,1.033,2.239,0.022,0.981,-0.125,-1.129,-0.183,1.038,66.667,667289.000,1.000
-9.006,-7.419,-12.105,-5.985,-5.872,-6.531,2.381,2.081,0.021,0.982,-0.126,-1.251,-0.427,0.885,66.667,667290.000,1.000
-9.584,-7.362,-12.788,-5.786,-6.484,-5.438,3.112,1.252,0.022,0.984,-0.128,-1.312,-0.732,0.885,66.667,667291.000,1.000
-9.974,-7.489,-12.919,-5.594,-7.230,-3.941,3.188,0.426,0.024,0.985,-0.124,-1.373,-1.007,0.824,66.667,667292.000,1.000
-10.022,-7.626,-12.503,-5.380,-7.690,-2.477,3.097,0.283,0.024,0.985,-0.123,-1.526,-1.129,0.763,66.667,667293.000,1.000
-9.677,-7.495,-11.766,-5.173,-7.453,-1.143,3.451,1.058,0.027,0.985,-0.124,-1.587,-1.282,0.671,66.667,667294.000,1.000
-9.096,-6.974,-11.037,-5.034,-6.364,-0.082,4.483,2.408,0.029,0.985,-0.124,-1.526,-1.434,0.763,66.667,667295.000,1.000
-8.551,-6.144,-10.515,-4.980,-4.581,0.531,5.724,3.626,0.030,0.986,-0.126,-1.678,-1.434,0.793,66.667,667296.000,1.000
-8.168,-5.096,-10.076,-4.856,-2.364,0.898,6.549,4.239,0.029,0.984,-0.126,-1.709,-1.556,0.824,66.667,667297.000,1.000
-7.856,-3.806,-9.333,-4.320,0.114,1.596,6.901,4.420,0.032,0.982,-0.128,-1.678,-1.648,0.946,66.667,667298.000,1.000
-7.461,-2.222,-7.934,-3.067,2.699,2.939,7.121,4.788,0.031,0.981,-0.127,-1.648,-1.617,1.099,66.667,667299.000,1.000
-6.909,-0.396,-5.862,-1.109,5.094,4.552,7.333,5.761,0.030,0.981,-0.125,-1.587,-1.740,1.160,66.667,667300.000,1.000
-6.117,1.594,-3.363,1.291,7.060,5.916,7.612,7.285,0.027,0.980,-0.125,-1.587,-1.862,1.251,66.667,667301.000,1.000
-4.901,3.792,-0.640,3.926,8.713,7.107,8.436,9.199,0.028,0.980,-0.123,-1.617,-1.862,1.373,66.667,667302.000,1.000
-3.270,6.076,2.008,6.538,10.222,8.485,10.131,11.277,0.031,0.979,-0.121,-1.465,-1.862,1.404,66.667,667303.000,1.000
-1.748,7.778,3.853,8.511,11.275,9.909,12.210,13.005,0.032,0.981,-0.119,-1.495,-1.923,1.465,66.667,667304.000,1.000
-1.086,8.011,4.115,9.162,11.304,10.687,13.799,13.907,0.033,0.979,-0.122,-1.465,-1.862,1.465,66.667,667305.000,1.000
-1.558,6.525,2.784,8.399,10.201,10.268,14.437,13.953,0.033,0.981,-0.122,-1.526,-1.801,1.465,66.667,667306.000,1.000
-2.629,4.083,0.816,6.877,8.548,8.786,14.290,13.391,0.032,0.981,-0.123,-1.404,-1.709,1.465,66.667,667307.000,1.000
-3.280,1.979,-0.510,5.550,7.209,6.998,13.802,12.400,0.033,0.981,-0.120,-1.495,-1.648,1.587,66.667,667308.000,1.000
-2.741,1.172,-0.428,5.041,6.707,5.768,13.112,10.837,0.034,0.981,-0.119,-1.465,-1.740,1.526,66.667,667309.000,1.000
-1.029,1.768,0.914,5.261,6.872,5.390,11.745,8.320,0.034,0.978,-0.119,-1.404,-1.556,1.556,66.667,667310.000,1.000
1.209,3.199,2.730,5.600,7.096,5.450,9.251,4.888,0.036,0.975,-0.119,-1.343,-1.495,1.434,66.667,667311.000,1.000
3.332,4.801,4.220,5.468,6.927,5.432,6.200,1.424,0.037,0.973,-0.121,-1.221,-1.465,1.434,66.667,667312.000,1.000
5.110,6.253,5.079,4.697,6.437,5.306,3.993,-0.825,0.038,0.973,-0.119,-1.129,-1.373,1.526,66.667,667313.000,1.000
6.633,7.646,5.581,3.604,6.136,5.554,3.845,-0.980,0.039,0.971,-0.123,-0.946,-1.190,1.434,66.667,667314.000,1.000
7.933,9.174,6.161,2.704,6.479,6.667,6.146,1.062,0.039,0.968,-0.123,-0.641,-1.007,1.373,66.667,667315.000,1.000
8.844,10.821,6.939,2.336,7.445,8.442,10.177,4.478,0.039,0.967,-0.123,-0.488,-0.854,1.343,66.667,667316.000,1.000
9.256,12.437,7.780,2.609,8.689,9.836,14.222,7.844,0.038,0.967,-0.124,-0.183,-0.732,1.312,66.667,667317.000,1.000
9.337,14.029,8.723,3.616,10.128,9.928,16.655,10.129,0.037,0.966,-0.126,0.000,-0.519,1.099,66.667,667318.000,1.000
9.401,15.774,10.016,5.388,12.023,8.924,16.962,11.241,0.038,0.967,-0.126,0.214,-0.458,1.190,66.667,667319.000,1.000
9.620,17.644,11.652,7.568,14.327,7.781,15.382,11.390,0.039,0.966,-0.123,0.427,-0.214,1.068,66.667,667320.000,1.000
9.934,19.244,13.197,9.448,16.457,7.203,12.462,10.670,0.037,0.966,-0.124,0.671,-0.153,1.099,66.667,667321.000,1.000
10.285,20.230,14.268,10.546,17.963,7.440,9.445,9.591,0.037,0.967,-0.124,0.977,-0.122,1.068,66.667,667322.000,1.000
10.760,20.687,14.908,10.931,18.972,8.549,8.020,9.046,0.036,0.967,-0.125,1.160,0.092,0.977,66.667,667323.000,1.000
11.359,20.910,15.323,10.861,19.692,10.304,8.967,9.272,0.037,0.970,-0.124,1.434,0.153,0.916,66.667,667324.000,1.000
11.827,20.983,15.550,10.420,19.912,12.045,11.386,9.531,0.034,0.975,-0.124,1.526,0.183,0.671,66.667,667325.000,1.000
11.895,20.719,15.515,9.676,19.253,13.059,13.572,9.129,0.032,0.976,-0.125,1.648,0.336,0.732,66.667,667326.000,1.000
11.446,19.824,15.056,8.761,17.484,13.063,14.292,7.924,0.033,0.978,-0.127,1.709,0.336,0.763,66.667,667327.000,1.000
10.425,17.989,13.813,7.657,14.452,12.128,12.999,5.857,0.032,0.979,-0.125,1.740,0.397,0.824,66.667,667328.000,1.000
8.915,15.141,11.513,6.297,10.301,10.528,9.881,3.094,0.030,0.981,-0.125,1.740,0.305,0.793,66.667,667329.000,1.000
7.342,11.777,8.503,4.966,5.895,8.930,6.327,0.655,0.030,0.982,-0.124,1.617,0.275,0.763,66.667,667330.000,1.000
6.238,8.739,5.617,4.142,2.401,8.108,4.213,-0.214,0.030,0.984,-0.123,1.526,0.336,0.793,66.667,667331.000,1.000
5.653,6.434,3.356,3.832,0.194,8.041,4.013,0.438,0.028,0.987,-0.125,1.434,0.275,0.702,66.667,667332.000,1.000
5.074,4.549,1.525,3.465,-1.367,7.771,4.282,1.136,0.028,0.986,-0.124,1.312,0.305,0.763,66.667,667333.000,1.000
4.006,2.646,-0.252,2.583,-2.899,6.525,3.558,0.740,0.027,0.988,-0.124,1.221,0.214,0.763,66.667,667334.000,1.000
2.438,0.811,-1.953,1.394,-4.112,4.794,2.231,-0.193,0.026,0.990,-0.125,1.068,0.061,0.763,66.667,667335.000,1.000
0.742,-0.445,-3.212,0.523,-4.176,4.070,1.997,-0.136,0.026,0.989,-0.124,0.977,-0.031,0.824,66.667,667336.000,1.000
-0.732,-0.820,-3.760,0.323,-2.793,5.414,3.974,1.730,0.025,0.989,-0.121,0.702,-0.122,0.793,66.667,667337.000,1.000
-1.913,-0.596,-3.689,0.551,-0.681,8.292,7.671,4.699,0.026,0.987,-0.121,0.488,-0.275,0.854,66.667,667338.000,1.000
-2.970,-0.453,-3.373,0.578,0.839,10.712,11.189,6.928,0.029,0.982,-0.123,0.305,-0.336,0.946,66.667,667339.000,1.000
-4.058,-0.992,-3.214,-0.135,0.708,10.552,12.149,6.609,0.028,0.980,-0.123,0.214,-0.336,1.068,66.667,667340.000,1.000
-5.059,-2.382,-3.344,-1.607,-1.135,6.998,9.137,3.234,0.029,0.979,-0.127,0.183,-0.397,1.221,66.667,667341.000,1.000
-5.671,-4.385,-3.580,-3.337,-3.763,0.968,2.865,-2.001,0.031,0.982,-0.124,0.214,-0.488,1.312,66.667,667342.000,1.000
-5.705,-6.481,-3.608,-4.619,-5.903,-5.436,-4.087,-6.836,0.030,0.981,-0.126,0.092,-0.641,1.404,66.667,667343.000,1.000
-5.177,-7.954,-3.141,-4.926,-6.569,-9.853,-8.630,-9.228,0.030,0.981,-0.124,0.031,-0.671,1.495,66.667,667344.000,1.000
-4.340,-8.253,-2.158,-4.249,-5.490,-10.803,-8.708,-8.537,0.031,0.978,-0.127,0.092,-0.580,1.495,66.667,667345.000,1.000
-3.744,-7.495,-1.104,-3.189,-3.261,-8.523,-4.484,-5.789,0.032,0.976,-0.126,0.092,-0.610,1.617,66.667,667346.000,1.000
-3.985,-6.421,-0.677,-2.583,-1.056,-4.699,1.469,-2.866,0.035,0.978,-0.129,0.183,-0.610,1.862,66.667,667347.000,1.000
-5.124,-5.744,-1.206,-2.836,0.092,-1.246,5.701,-1.266,0.035,0.975,-0.128,0.244,-0.580,1.862,66.667,667348.000,1.000
-6.505,-5.606,-2.328,-3.616,-0.073,0.845,6.405,-1.158,0.033,0.974,-0.125,0.397,-0.519,1.831,66.667,667349.000,1.000
-7.273,-5.609,-3.281,-4.224,-0.950,1.892,4.626,-1.462,0.031,0.976,-0.125,0.549,-0.427,1.862,66.667,667350.000,1.000
-7.051,-5.304,-3.518,-4.225,-1.668,2.775,2.770,-1.004,0.029,0.975,-0.128,0.519,-0.458,1.770,66.667,667351.000,1.000
-6.231,-4.686,-3.103,-3.784,-1.791,3.749,2.269,0.439,0.029,0.974,-0.126,0.458,-0.458,1.617,66.667,667352.000,1.000
-5.516,-4.006,-2.423,-3.359,-1.282,4.465,3.180,2.519,0.029,0.974,-0.125,0.488,-0.549,1.404,66.667,667353.000,1.000
-5.112,-3.135,-1.519,-3.065,-0.026,4.967,5.154,5.107,0.031,0.973,-0.125,0.610,-0.641,1.190,66.667,667354.000,1.000
-4.556,-1.520,0.017,-2.514,2.084,5.785,7.547,7.907,0.034,0.976,-0.128,0.641,-0.702,1.099,66.667,667355.000,1.000
-3.235,1.204,2.498,-1.204,4.810,7.310,9.339,10.085,0.032,0.974,-0.127,0.763,-0.763,1.038,66.667,667356.000,1.000
-0.888,4.813,5.731,1.064,7.703,9.669,10.169,11.105,0.033,0.975,-0.124,0.793,-0.793,1.038,66.667,667357.000,1.000
2.267,8.606,9.107,4.069,10.403,12.821,10.932,11.445,0.035,0.977,-0.125,0.793,-0.763,1.038,66.667,667358.000,1.000
5.573,11.712,11.887,7.221,12.610,16.383,12.621,12.033,0.034,0.979,-0.125,0.854,-0.671,1.068,66.667,667359.000,1.000
8.178,13.492,13.511,9.783,14.023,19.739,15.074,13.345,0.035,0.980,-0.126,0.793,-0.702,1.007,66.667,667360.000,1.000
9.612,14.030,14.025,11.327,14.683,22.552,17.465,15.289,0.036,0.981,-0.127,0.732,-0.610,0.885,66.667,667361.000,1.000
10.111,14.171,14.105,11.959,15.046,24.674,19.174,17.414,0.034,0.980,-0.128,0.549,-0.488,0.977,66.667,667362.000,1.000
10.177,14.661,14.298,11.912,15.296,25.331,19.307,18.747,0.035,0.979,-0.127,0.580,-0.366,1.038,66.667,667363.000,1.000
9.999,15.352,14.415,11.196,14.921,23.251,16.691,18.105,0.033,0.977,-0.128,0.549,-0.397,1.129,66.667,667364.000,1.000
9.573,15.485,13.952,9.901,13.358,18.011,11.388,15.235,0.033,0.976,-0.129,0.488,-0.488,1.251,66.667,667365.000,1.000
9.129,14.565,12.838,8.537,10.745,10.813,5.421,11.277,0.033,0.976,-0.132,0.549,-0.519,1.251,66.667,667366.000,1.000
9.016,12.704,11.470,7.706,7.801,3.906,1.452,7.795,0.033,0.978,-0.129,0.519,-0.458,1.251,66.667,667367.000,1.000
9.230,10.257,10.177,7.507,5.169,-0.718,0.659,5.518,0.032,0.977,-0.126,0.671,-0.458,1.282,66.667,667368.000,1.000
9.328,7.359,8.891,7.423,3.007,-2.469,1.951,4.118,0.032,0.977,-0.125,0.610,-0.427,1.373,66.667,667369.000,1.000
8.907,4.022,7.401,6.840,1.181,-2.256,3.359,3.074,0.032,0.979,-0.128,0.702,-0.458,1.373,66.667,667370.000,1.000
7.987,0.556,5.756,5.591,-0.345,-1.451,3.848,2.292,0.032,0.980,-0.133,0.671,-0.488,1.373,66.667,667371.000,1.000
6.739,-2.501,4.103,3.850,-1.607,-0.924,3.434,1.587,0.031,0.982,-0.129,0.458,-0.488,1.404,66.667,667372.000,1.000
5.093,-4.911,2.298,1.748,-2.909,-1.061,2.178,0.277,0.031,0.980,-0.129,0.519,-0.671,1.343,66.667,667373.000,1.000
2.947,-6.772,0.126,-0.466,-4.470,-1.940,0.308,-1.828,0.030,0.979,-0.126,0.488,-0.671,1.312,66.667,667374.000,1.000
0.465,-8.149,-2.295,-2.255,-5.984,-3.190,-1.082,-3.680,0.032,0.980,-0.128,0.427,-0.671,1.282,66.667,667375.000,1.000
-2.136,-9.082,-4.683,-3.234,-6.991,-4.267,-0.951,-4.038,0.032,0.978,-0.124,0.427,-0.702,1.190,66.667,667376.000,1.000
-4.671,-9.679,-6.798,-3.526,-7.431,-4.988,0.284,-2.804,0.033,0.977,-0.128,0.427,-0.793,1.160,66.667,667377.000,1.000
-6.740,-9.919,-8.309,-3.467,-7.499,-5.498,1.286,-0.907,0.034,0.976,-0.131,0.366,-0.793,1.129,66.667,667378.000,1.000
-7.788,-9.596,-8.842,-3.309,-7.283,-5.813,1.413,0.521,0.035,0.978,-0.129,0.366,-0.732,1.251,66.667,667379.000,1.000
-7.481,-8.507,-8.240,-3.203,-6.768,-5.592,0.982,0.578,0.033,0.979,-0.131,0.397,-0.763,1.221,66.667,667380.000,1.000
-5.877,-6.673,-6.634,-3.181,-5.989,-4.428,0.402,-1.042,0.032,0.979,-0.129,0.244,-0.763,1.282,66.667,667381.000,1.000
-3.360,-4.411,-4.301,-3.050,-4.993,-2.333,-0.012,-3.482,0.032,0.976,-0.128,0.305,-0.763,1.160,66.667,667382.000,1.000
-0.469,-2.145,-1.541,-2.448,-3.670,0.166,0.346,-4.831,0.032,0.976,-0.130,0.275,-0.763,1.129,66.667,667383.000,1.000
2.201,-0.165,1.262,-1.192,-1.873,2.347,2.052,-3.402,0.031,0.975,-0.128,0.305,-0.793,1.068,66.667,667384.000,1.000
3.963,1.351,3.509,0.404,0.192,3.546,4.583,0.843,0.033,0.975,-0.132,0.336,-0.854,1.038,66.667,667385.000,1.000
4.148,2.218,4.527,1.650,1.916,3.360,6.251,6.129,0.031,0.976,-0.131,0.397,-0.885,1.038,66.667,667386.000,1.000
2.562,2.402,4.078,2.026,2.836,2.169,5.848,10.228,0.031,0.976,-0.130,0.488,-0.885,0.977,66.667,667387.000,1.000
-0.059,2.296,2.795,1.712,3.217,1.364,4.017,12.113,0.031,0.977,-0.132,0.427,-0.854,0.885,66.667,667388.000,1.000
-2.275,2.592,1.923,1.527,3.933,2.486,2.684,12.441,0.030,0.975,-0.129,0.549,-0.916,0.946,66.667,667389.000,1.000
-2.867,3.650,2.400,2.182,5.606,5.695,3.198,12.498,0.032,0.976,-0.131,0.488,-0.885,0.854,66.667,667390.000,1.000
-1.635,5.078,4.118,3.640,7.932,9.271,5.142,12.920,0.030,0.978,-0.130,0.549,-0.977,0.824,66.667,667391.000,1.000
0.629,6.113,6.130,5.313,10.008,11.122,7.097,13.570,0.030,0.979,-0.128,0.519,-1.099,0.793,66.667,667392.000,1.000
2.894,6.469,7.615,6.791,11.305,10.726,8.173,14.249,0.030,0.979,-0.130,0.366,-1.099,0.732,66.667,667393.000,1.000
4.579,6.652,8.518,8.139,12.089,9.341,8.529,15.050,0.030,0.978,-0.130,0.336,-1.221,0.671,66.667,667394.000,1.000
5.599,7.355,9.229,9.498,12.856,8.544,8.719,15.971,0.029,0.977,-0.131,0.397,-1.312,0.763,66.667,667395.000,1.000
6.094,8.720,9.919,10.690,13.625,8.908,9.017,16.641,0.029,0.981,-0.129,0.305,-1.251,0.793,66.667,667396.000,1.000
6.264,10.266,10.343,11.293,13.862,9.994,9.469,16.655,0.028,0.979,-0.127,0.214,-1.282,0.763,66.667,667397.000,1.000
6.342,11.344,10.149,11.018,13.036,11.177,10.167,15.951,0.030,0.979,-0.129,0.153,-1.343,0.793,66.667,667398.000,1.000
6.637,11.649,9.301,10.033,11.180,12.284,11.165,14.824,0.030,0.980,-0.128,0.122,-1.373,0.763,66.667,667399.000,1.000
7.445,11.364,8.159,8.928,8.877,13.520,12.103,13.638,0.032,0.979,-0.127,0.000,-1.465,0.763,66.667,667400.000,1.000
8.787,10.895,7.196,8.307,6.749,14.924,12.181,12.469,0.030,0.980,-0.129,-0.031,-1.404,0.732,66.667,667401.000,1.000
10.246,10.477,6.642,8.329,5.038,16.030,10.768,11.032,0.031,0.981,-0.129,-0.183,-1.373,0.824,66.667,667402.000,1.000
11.124,10.022,6.357,8.538,3.570,16.107,7.882,8.923,0.031,0.980,-0.131,-0.305,-1.404,0.824,66.667,667403.000,1.000
10.884,9.296,6.004,8.143,1.990,14.580,4.044,5.925,0.031,0.979,-0.129,-0.366,-1.434,0.946,66.667,667404.000,1.000
9.656,8.304,5.468,6.641,0.220,11.403,0.211,2.324,0.029,0.980,-0.127,-0.427,-1.434,1.129,66.667,667405.000,1.000
8.329,7.528,5.126,4.382,-1.100,7.373,-2.025,-0.868,0.030,0.978,-0.127,-0.610,-1.556,1.099,66.667,667406.000,1.000
7.952,7.634,5.553,2.406,-0.932,3.853,-1.370,-2.391,0.031,0.978,-0.129,-0.580,-1.587,1.129,66.667,667407.000,1.000
9.022,8.878,6.973,1.672,1.222,1.849,1.545,-1.706,0.032,0.978,-0.130,-0.671,-1.587,1.068,66.667,667408.000,1.000
11.279,10.879,9.082,2.469,4.863,1.472,4.502,0.625,0.030,0.976,-0.128,-0.793,-1.526,1.099,66.667,667409.000,1.000
13.917,12.850,11.227,4.336,8.807,2.058,5.532,3.272,0.031,0.976,-0.128,-0.732,-1.495,1.129,66.667,667410.000,1.000
16.026,14.020,12.713,6.390,11.841,2.637,4.079,4.937,0.033,0.979,-0.130,-0.641,-1.465,0.946,66.667,667411.000,1.000
17.140,14.074,13.204,7.928,13.357,2.627,1.261,5.298,0.034,0.979,-0.128,-0.671,-1.434,1.007,66.667,667412.000,1.000
17.442,13.226,12.861,8.778,13.456,2.129,-0.939,5.005,0.033,0.976,-0.126,-0.671,-1.404,1.068,66.667,667413.000,1.000
17.389,11.915,12.044,9.103,12.553,1.572,-1.144,4.784,0.034,0.978,-0.128,-0.641,-1.343,1.068,66.667,667414.000,1.000
17.327,10.567,11.031,9.097,11.045,1.321,0.690,4.907,0.034,0.978,-0.125,-0.641,-1.251,1.068,66.667,667415.000,1.000
17.499,9.582,10.039,8.920,9.218,1.599,3.511,5.233,0.033,0.977,-0.125,-0.671,-1.251,1.099,66.667,667416.000,1.000
18.158,9.322,9.291,8.799,7.311,2.594,6.002,5.573,0.032,0.979,-0.128,-0.732,-1.190,1.190,66.667,667417.000,1.000
19.426,9.863,8.870,8.979,5.540,4.324,7.363,5.947,0.035,0.979,-0.127,-0.732,-1.129,1.251,66.667,667418.000,1.000
21.020,10.624,8.471,9.405,3.858,6.227,7.205,6.135,0.034,0.979,-0.125,-0.793,-1.068,1.221,66.667,667419.000,1.000
22.387,10.626,7.618,9.663,1.909,7.230,5.119,5.351,0.036,0.977,-0.127,-0.732,-0.977,1.190,66.667,667420.000,1.000
23.303,9.409,6.310,9.466,-0.411,6.603,1.103,3.093,0.035,0.977,-0.129,-0.702,-0.885,1.282,66.667,667421.000,1.000
24.184,7.560,5.242,9.069,-2.484,4.632,-3.623,0.032,0.033,0.977,-0.129,-0.671,-0.732,1.251,66.667,667422.000,1.000
25.778,6.330,5.361,9.171,-3.233,2.504,-6.911,-2.353,0.034,0.978,-0.127,-0.671,-0.732,1.251,66.667,667423.000,1.000
28.651,6.837,7.288,10.480,-1.853,1.515,-7.144,-2.853,0.032,0.978,-0.126,-0.671,-0.793,1.251,66.667,667424.000,1.000
32.780,9.405,10.899,13.203,1.502,2.120,-4.573,-1.340,0.032,0.977,-0.126,-0.610,-0.793,1.099,66.667,667425.000,1.000
37.428,13.391,15.261,16.798,5.677,3.683,-1.205,1.301,0.031,0.976,-0.129,-0.610,-0.702,1.190,66.667,667426.000,1.000
41.394,17.504,19.084,20.215,9.207,5.096,0.802,3.925,0.032,0.977,-0.128,-0.427,-0.610,1.251,66.667,667427.000,1.000
43.526,20.320,21.333,22.409,11.022,5.406,0.546,5.670,0.032,0.978,-0.126,-0.427,-0.580,1.221,66.667,667428.000,1.000
43.237,20.801,21.549,22.801,10.702,4.088,-1.536,6.058,0.033,0.977,-0.126,-0.397,-0.519,1.160,66.667,667429.000,1.000
40.859,18.816,19.985,21.570,8.595,1.427,-4.234,5.184,0.034,0.977,-0.125,-0.336,-0.549,1.221,66.667,667430.000,1.000
37.720,15.482,17.700,19.666,5.913,-1.199,-6.049,3.879,0.034,0.976,-0.128,-0.275,-0.488,1.251,66.667,667431.000,1.000
35.501,12.699,16.155,18.254,4.158,-2.013,-6.031,2.896,0.034,0.979,-0.125,-0.305,-0.458,1.282,66.667,667432.000,1.000
34.996,11.801,16.153,17.898,4.054,-0.415,-4.694,2.034,0.032,0.977,-0.127,-0.214,-0.488,1.221,66.667,667433.000,1.000
35.409,12.547,17.184,18.243,5.117,2.329,-3.590,0.710,0.032,0.978,-0.128,-0.244,-0.366,1.221,66.667,667434.000,1.000
34.971,13.464,17.859,18.379,6.207,4.153,-3.935,-1.105,0.031,0.978,-0.126,-0.092,-0.366,1.312,66.667,667435.000,1.000
32.213,13.007,16.912,17.467,6.392,3.772,-5.748,-2.893,0.032,0.976,-0.126,-0.061,-0.427,1.343,66.667,667436.000,1.000
26.695,10.425,13.823,15.145,5.386,1.304,-7.959,-4.055,0.032,0.977,-0.124,0.092,-0.305,1.190,66.667,667437.000,1.000
19.129,6.033,8.980,11.667,3.477,-2.113,-9.326,-4.321,0.033,0.979,-0.127,0.122,-0.366,1.251,66.667,667438.000,1.000
11.124,1.114,3.614,7.840,1.329,-4.929,-9.253,-3.848,0.033,0.979,-0.128,0.153,-0.397,1.251,66.667,667439.000,1.000
4.400,-2.741,-0.771,4.571,-0.366,-5.928,-7.880,-3.057,0.033,0.979,-0.128,0.275,-0.366,1.221,66.667,667440.000,1.000
-0.170,-4.683,-3.349,2.228,-1.393,-5.059,-5.981,-2.500,0.032,0.979,-0.127,0.305,-0.397,1.404,66.667,667441.000,1.000
-2.878,-5.115,-4.445,0.407,-2.265,-3.603,-4.968,-2.902,0.031,0.978,-0.125,0.275,-0.427,1.312,66.667,667442.000,1.000
-4.748,-5.178,-5.105,-1.676,-3.807,-3.204,-6.311,-4.973,0.033,0.978,-0.126,0.336,-0.488,1.282,66.667,667443.000,1.000
-6.739,-5.692,-6.120,-4.413,-6.241,-4.484,-10.073,-8.658,0.034,0.978,-0.125,0.305,-0.519,1.190,66.667,667444.000,1.000
-9.197,-6.598,-7.445,-7.414,-8.780,-6.573,-14.332,-12.660,0.034,0.979,-0.123,0.336,-0.427,1.343,66.667,667445.000,1.000
-11.972,-7.409,-8.586,-9.921,-10.293,-7.991,-16.741,-15.252,0.033,0.979,-0.124,0.427,-0.427,1.404,66.667,667446.000,1.000
-14.906,-7.896,-9.311,-11.514,-10.246,-7.788,-16.293,-15.632,0.033,0.979,-0.126,0.397,-0.488,1.434,66.667,667447.000,1.000
-18.001,-8.141,-9.702,-12.266,-8.888,-5.979,-13.428,-14.154,0.031,0.979,-0.128,0.427,-0.458,1.434,66.667,667448.000,1.000
-21.182,-8.216,-9.779,-12.446,-6.881,-3.438,-9.285,-11.684,0.032,0.979,-0.126,0.397,-0.488,1.373,66.667,667449.000,1.000
-24.253,-8.214,-9.518,-12.405,-5.087,-1.556,-5.383,-9.448,0.032,0.979,-0.126,0.519,-0.519,1.312,66.667,667450.000,1.000
-27.085,-8.415,-9.084,-12.541,-4.346,-1.540,-3.255,-8.810,0.032,0.980,-0.126,0.488,-0.610,1.404,66.667,667451.000,1.000
-29.527,-9.039,-8.646,-12.978,-4.970,-3.667,-3.663,-10.174,0.032,0.979,-0.128,0.519,-0.610,1.312,66.667,667452.000,1.000
-31.130,-9.801,-7.981,-13.307,-6.389,-7.054,-6.124,-12.448,0.034,0.977,-0.129,0.458,-0.580,1.312,66.667,667453.000,1.000
-31.239,-9.963,-6.572,-12.845,-7.452,-10.114,-9.197,-13.927,0.034,0.974,-0.128,0.488,-0.580,1.312,66.667,667454.000,1.000
-29.569,-8.959,-4.143,-11.167,-7.207,-11.516,-11.387,-13.495,0.033,0.976,-0.128,0.488,-0.610,1.343,66.667,667455.000,1.000
-26.595,-6.878,-0.934,-8.365,-5.385,-10.946,-11.913,-11.008,0.032,0.977,-0.128,0.549,-0.641,1.282,66.667,667456.000,1.000
-23.346,-4.320,2.460,-4.985,-2.420,-9.051,-10.880,-7.203,0.033,0.977,-0.127,0.549,-0.610,1.343,66.667,667457.000,1.000
-20.917,-2.042,5.288,-1.922,0.715,-6.839,-9.254,-3.680,0.036,0.978,-0.126,0.641,-0.641,1.282,66.667,667458.000,1.000
-20.092,-0.733,6.810,-0.186,2.847,-5.150,-8.331,-2.356,0.035,0.977,-0.128,0.641,-0.671,1.251,66.667,667459.000,1.000
-21.083,-0.780,6.614,-0.385,3.216,-4.366,-8.805,-4.226,0.036,0.975,-0.129,0.610,-0.580,1.221,66.667,667460.000,1.000
-23.363,-1.992,4.968,-2.255,1.997,-4.332,-10.355,-8.491,0.035,0.978,-0.128,0.732,-0.671,1.221,66.667,667461.000,1.000
-25.899,-3.693,2.690,-4.781,0.126,-4.666,-11.957,-13.032,0.035,0.978,-0.126,0.671,-0.580,1.221,66.667,667462.000,1.000
-27.884,-5.354,0.433,-7.030,-1.566,-5.282,-12.743,-16.047,0.035,0.977,-0.127,0.671,-0.732,1.251,66.667,667463.000,1.000
-29.191,-6.971,-1.762,-8.747,-2.899,-6.395,-12.694,-17.175,0.034,0.978,-0.127,0.702,-0.641,1.221,66.667,667464.000,1.000
-30.017,-8.678,-4.064,-10.023,-3.941,-7.991,-12.205,-16.841,0.036,0.977,-0.128,0.580,-0.519,1.221,66.667,667465.000,1.000
-30.372,-10.291,-6.302,-10.764,-4.516,-9.587,-11.399,-15.340,0.034,0.978,-0.130,0.549,-0.549,1.221,66.667,667466.000,1.000
-30.183,-11.486,-8.099,-10.863,-4.436,-10.737,-10.401,-13.138,0.035,0.978,-0.130,0.580,-0.549,1.129,66.667,667467.000,1.000
-29.658,-12.227,-9.349,-10.632,-3.860,-11.526,-9.774,-11.130,0.033,0.978,-0.128,0.580,-0.580,1.038,66.667,667468.000,1.000
-29.327,-12.864,-10.373,-10.694,-3.210,-12.294,-9.995,-9.968,0.034,0.978,-0.129,0.671,-0.427,1.068,66.667,667469.000,1.000
-29.756,-13.879,-11.721,-11.508,-2.970,-13.155,-10.941,-9.625,0.033,0.978,-0.129,0.549,-0.549,1.068,66.667,667470.000,1.000
-31.112,-15.531,-13.753,-12.965,-3.446,-13.996,-12.046,-9.609,0.034,0.980,-0.127,0.580,-0.519,1.221,66.667,667471.000,1.000
-32.905,-17.618,-16.196,-14.363,-4.433,-14.590,-12.392,-9.192,0.034,0.980,-0.129,0.580,-0.488,1.251,66.667,667472.000,1.000
-34.235,-19.530,-18.197,-14.832,-5.175,-14.573,-10.882,-7.733,0.034,0.979,-0.126,0.549,-0.671,1.129,66.667,667473.000,1.000
-34.399,-20.614,-18.944,-13.963,-4.913,-13.627,-7.140,-5.178,0.034,0.980,-0.125,0.519,-0.641,1.099,66.667,667474.000,1.000
-33.293,-20.529,-18.213,-12.027,-3.496,-11.774,-2.359,-2.174,0.033,0.980,-0.126,0.458,-0.641,1.129,66.667,667475.000,1.000
-31.264,-19.295,-16.290,-9.599,-1.318,-9.334,1.447,0.614,0.031,0.981,-0.126,0.427,-0.641,1.160,66.667,667476.000,1.000
-28.788,-17.186,-13.663,-7.147,1.104,-6.747,3.171,3.095,0.031,0.980,-0.127,0.397,-0.671,1.160,66.667,667477.000,1.000
-26.340,-14.658,-10.911,-5.000,3.274,-4.422,3.015,5.340,0.031,0.978,-0.128,0.275,-0.671,1.129,66.667,667478.000,1.000
-24.286,-12.150,-8.532,-3.347,4.838,-2.459,1.777,7.093,0.032,0.977,-0.130,0.214,-0.702,1.160,66.667,667479.000,1.000
-22.805,-9.973,-6.769,-2.208,5.728,-0.687,0.352,7.956,0.033,0.977,-0.127,0.214,-0.824,1.068,66.667,667480.000,1.000
-21.984,-8.478,-5.742,-1.601,5.975,0.799,-0.641,7.726,0.031,0.977,-0.127,0.244,-0.885,1.007,66.667,667481.000,1.000
-21.838,-8.004,-5.580,-1.612,5.532,1.573,-1.053,6.731,0.030,0.979,-0.127,0.153,-0.885,1.007,66.667,667482.000,1.000
-22.044,-8.398,-6.128,-2.121,4.558,1.608,-0.917,6.019,0.030,0.980,-0.126,0.061,-0.885,0.977,66.667,667483.000,1.000
-21.755,-8.755,-6.633,-2.606,3.702,1.708,-0.047,6.743,0.028,0.979,-0.124,0.061,-0.885,1.038,66.667,667484.000,1.000
-20.033,-8.020,-6.168,-2.515,3.666,2.779,1.765,8.998,0.030,0.980,-0.126,0.031,-0.946,1.068,66.667,667485.000,1.000
-16.709,-6.001,-4.551,-1.873,4.443,4.692,4.021,11.381,0.031,0.978,-0.131,0.000,-1.068,1.099,66.667,667486.000,1.000
-12.640,-3.560,-2.596,-1.315,5.270,6.275,5.588,11.979,0.031,0.978,-0.127,0.061,-1.129,1.160,66.667,667487.000,1.000
-8.997,-1.789,-1.385,-1.477,5.359,6.336,5.570,9.860,0.031,0.978,-0.126,0.122,-1.160,1.068,66.667,667488.000,1.000
-6.407,-1.202,-1.487,-2.504,4.367,4.303,3.598,5.536,0.033,0.979,-0.127,0.031,-1.129,1.068,66.667,667489.000,1.000
-4.798,-1.621,-2.788,-4.091,2.359,0.295,-0.258,0.307,0.033,0.977,-0.130,0.061,-1.099,1.068,66.667,667490.000,1.000
-3.818,-2.481,-4.710,-5.763,-0.199,-4.646,-5.167,-4.536,0.033,0.976,-0.128,0.000,-1.129,1.099,66.667,667491.000,1.000
-3.179,-3.114,-6.465,-7.036,-2.430,-8.614,-9.473,-8.069,0.032,0.975,-0.127,0.153,-1.099,1.099,66.667,667492.000,1.000
-2.746,-3.108,-7.407,-7.542,-3.448,-9.995,-11.509,-9.739,0.030,0.975,-0.127,0.092,-1.068,1.160,66.667,667493.000,1.000
-2.717,-2.756,-7.559,-7.362,-3.089,-8.754,-10.539,-9.429,0.032,0.974,-0.126,0.183,-1.129,1.099,66.667,667494.000,1.000
-3.655,-2.964,-7.707,-7.164,-2.135,-6.340,-7.200,-7.666,0.033,0.974,-0.126,0.214,-1.068,1.190,66.667,667495.000,1.000
-5.878,-4.330,-8.578,-7.598,-1.542,-4.253,-3.153,-5.441,0.032,0.975,-0.128,0.305,-1.099,1.221,66.667,667496.000,1.000
-8.805,-6.337,-9.945,-8.514,-1.517,-2.970,0.031,-3.502,0.033,0.977,-0.128,0.366,-1.038,1.221,66.667,667497.000,1.000
-11.201,-7.744,-10.817,-9.044,-1.578,-2.317,1.645,-2.001,0.033,0.978,-0.130,0.397,-1.038,1.221,66.667,667498.000,1.000
-12.047,-7.682,-10.396,-8.416,-1.326,-2.283,1.634,-0.941,0.032,0.978,-0.126,0.336,-1.099,1.251,66.667,667499.000,1.000
-11.037,-6.172,-8.630,-6.499,-0.774,-2.903,0.341,-0.482,0.031,0.977,-0.127,0.305,-1.038,1.373,66.667,667500.000,1.000
-8.561,-3.900,-6.123,-3.753,-0.107,-3.762,-1.371,-0.651,0.030,0.978,-0.127,0.244,-1.038,1.343,66.667,667501.000,1.000
-5.485,-1.828,-3.791,-0.996,0.419,-4.188,-2.429,-1.221,0.030,0.980,-0.131,0.275,-1.099,1.282,66.667,667502.000,1.000
-2.721,-0.769,-2.356,1.007,0.519,-3.846,-2.328,-1.879,0.031,0.980,-0.130,0.336,-1.190,1.160,66.667,667503.000,1.000
-0.776,-0.934,-1.945,2.033,0.109,-2.949,-1.280,-2.192,0.034,0.982,-0.127,0.305,-1.129,1.373,66.667,667504.000,1.000
0.228,-1.986,-2.273,2.388,-0.608,-2.070,0.398,-1.621,0.035,0.980,-0.127,0.305,-1.099,1.221,66.667,667505.000,1.000
0.304,-3.497,-3.103,2.403,-1.414,-1.774,2.656,0.075,0.036,0.979,-0.129,0.244,-0.946,1.221,66.667,667506.000,1.000
-0.420,-5.198,-4.384,2.059,-2.437,-2.510,5.069,2.258,0.037,0.976,-0.129,0.244,-0.916,1.160,66.667,667507.000,1.000
-1.541,-6.899,-6.057,1.094,-4.158,-4.678,6.115,3.360,0.036,0.975,-0.131,0.214,-0.916,1.282,66.667,667508.000,1.000
-2.409,-8.326,-7.814,-0.542,-6.837,-8.236,4.258,2.072,0.036,0.971,-0.131,0.336,-0.793,1.312,66.667,667509.000,1.000
-2.404,-9.103,-9.105,-2.427,-9.982,-12.229,-0.157,-1.244,0.039,0.969,-0.130,0.336,-0.610,1.221,66.667,667510.000,1.000
-1.341,-9.007,-9.547,-4.030,-12.701,-15.233,-5.106,-4.970,0.039,0.968,-0.130,0.610,-0.519,1.190,66.667,667511.000,1.000
0.271,-8.300,-9.430,-5.291,-14.568,-16.428,-8.827,-7.971,0.040,0.971,-0.130,0.671,-0.366,1.221,66.667,667512.000,1.000
1.511,-7.599,-9.592,-6.593,-15.762,-15.899,-10.621,-10.025,0.041,0.974,-0.129,0.793,-0.244,1.251,66.667,667513.000,1.000
1.730,-7.325,-10.648,-8.131,-16.413,-13.873,-10.122,-10.867,0.039,0.977,-0.131,0.763,-0.122,1.282,66.667,667514.000,1.000
0.959,-7.422,-12.465,-9.647,-16.385,-10.418,-7.442,-10.137,0.038,0.980,-0.130,0.793,-0.061,1.312,66.667,667515.000,1.000
-0.175,-7.592,-14.320,-10.728,-15.751,-6.294,-4.202,-8.333,0.037,0.984,-0.130,0.702,0.092,1.404,66.667,667516.000,1.000
-0.754,-7.519,-15.335,-11.062,-14.890,-3.193,-2.688,-6.541,0.037,0.984,-0.134,0.458,0.061,1.434,66.667,667517.000,1.000
-0.003,-6.905,-14.898,-10.470,-13.984,-2.351,-3.569,-5.151,0.035,0.982,-0.133,0.397,0.122,1.343,66.667,667518.000,1.000
2.240,-5.607,-13.020,-9.039,-12.901,-3.540,-5.474,-3.828,0.033,0.983,-0.131,0.427,0.122,1.404,66.667,667519.000,1.000
5.519,-3.738,-10.233,-7.122,-11.564,-5.661,-6.695,-2.498,0.031,0.984,-0.127,0.244,0.092,1.343,66.667,667520.000,1.000
9.227,-1.509,-7.075,-5.046,-10.078,-7.588,-6.585,-1.544,0.028,0.984,-0.127,0.153,0.061,1.160,66.667,667521.000,1.000
12.848,0.830,-3.890,-2.961,-8.631,-8.484,-5.592,-1.349,0.025,0.986,-0.129,0.031,0.000,0.946,66.667,667522.000,1.000
15.852,2.846,-1.016,-0.942,-7.398,-8.078,-4.597,-1.964,0.023,0.987,-0.127,-0.061,-0.214,0.793,66.667,667523.000,1.000
17.835,4.107,1.265,0.957,-6.432,-6.807,-4.318,-3.008,0.024,0.988,-0.124,-0.244,-0.366,0.641,66.667,667524.000,1.000
18.868,4.606,2.979,2.716,-5.603,-5.389,-5.029,-3.901,0.025,0.986,-0.123,-0.427,-0.641,0.610,66.667,667525.000,1.000
19.397,4.753,4.382,4.271,-4.661,-4.125,-6.328,-4.209,0.026,0.984,-0.124,-0.610,-0.732,0.641,66.667,667526.000,1.000
19.756,4.944,5.602,5.486,-3.463,-2.711,-7.157,-3.792,0.027,0.985,-0.125,-0.641,-0.916,0.610,66.667,667527.000,1.000
20.028,5.294,6.525,6.243,-2.162,-0.821,-6.605,-2.861,0.029,0.983,-0.129,-0.732,-1.007,0.519,66.667,667528.000,1.000
20.316,5.766,7.035,6.533,-1.190,1.176,-4.763,-1.916,0.031,0.983,-0.127,-0.732,-0.946,0.488,66.667,667529.000,1.000
20.844,6.344,7.250,6.453,-0.924,2.385,-2.444,-1.365,0.032,0.981,-0.128,-0.732,-1.129,0.610,66.667,667530.000,1.000
21.648,6.918,7.347,6.096,-1.450,2.177,-0.335,-1.257,0.031,0.981,-0.128,-0.824,-1.099,0.671,66.667,667531.000,1.000
22.197,6.969,7.087,5.356,-2.779,0.427,1.104,-1.653,0.032,0.981,-0.127,-0.916,-1.099,0.732,66.667,667532.000,1.000
21.700,5.817,5.923,4.073,-4.912,-2.515,1.472,-2.807,0.032,0.980,-0.127,-1.007,-1.221,0.854,66.667,667533.000,1.000
19.939,3.484,3.795,2.498,-7.346,-5.454,0.981,-4.523,0.031,0.979,-0.125,-0.885,-1.343,0.916,66.667,667534.000,1.000
17.501,0.849,1.321,1.178,-9.177,-6.945,0.273,-6.104,0.030,0.978,-0.124,-0.946,-1.312,1.099,66.667,667535.000,1.000
15.242,-1.193,-0.875,0.331,-10.031,-6.939,-0.838,-7.201,0.029,0.976,-0.125,-1.038,-1.373,1.068,66.667,667536.000,1.000
13.799,-2.246,-2.515,-0.242,-10.272,-6.828,-3.188,-7.907,0.031,0.976,-0.126,-0.977,-1.343,1.160,66.667,667537.000,1.000
13.333,-2.311,-3.514,-0.801,-10.358,-7.693,-6.884,-8.440,0.029,0.977,-0.128,-0.854,-1.373,1.221,66.667,667538.000,1.000
13.279,-1.813,-4.079,-1.628,-10.589,-9.370,-11.099,-9.392,0.030,0.978,-0.124,-0.732,-1.434,1.221,66.667,667539.000,1.000
12.404,-1.760,-4.966,-3.133,-11.316,-11.178,-14.826,-11.465,0.031,0.977,-0.123,-0.671,-1.465,1.343,66.667,667540.000,1.000
9.570,-3.264,-7.062,-5.503,-12.768,-12.643,-17.198,-14.437,0.032,0.978,-0.122,-0.793,-1.404,1.312,66.667,667541.000,1.000
4.920,-6.377,-10.225,-8.057,-14.423,-13.162,-17.396,-16.878,0.030,0.979,-0.124,-0.793,-1.373,1.343,66.667,667542.000,1.000
0.182,-9.689,-12.866,-9.313,-14.999,-11.775,-14.973,-17.126,0.032,0.978,-0.123,-0.793,-1.526,1.282,66.667,667543.000,1.000
-2.498,-11.402,-13.080,-7.999,-13.429,-8.072,-10.394,-14.394,0.032,0.977,-0.124,-0.793,-1.434,1.312,66.667,667544.000,1.000
-1.962,-10.530,-10.026,-3.955,-9.638,-2.958,-4.813,-9.032,0.031,0.973,-0.126,-0.732,-1.465,1.251,66.667,667545.000,1.000
1.399,-7.227,-4.337,1.834,-4.409,1.912,0.648,-2.224,0.030,0.974,-0.129,-0.702,-1.495,1.282,66.667,667546.000,1.000
5.910,-2.651,2.194,7.672,0.967,5.108,5.122,4.300,0.032,0.972,-0.126,-0.488,-1.495,1.312,66.667,667547.000,1.000
9.564,1.448,7.423,11.829,5.004,5.757,7.706,8.754,0.033,0.972,-0.126,-0.458,-1.434,1.251,66.667,667548.000,1.000
11.278,3.711,10.047,13.432,6.746,3.796,7.834,10.242,0.035,0.971,-0.126,-0.397,-1.465,1.129,66.667,667549.000,1.000
11.522,4.207,10.476,13.068,6.630,0.678,6.408,9.501,0.036,0.970,-0.124,-0.305,-1.343,1.099,66.667,667550.000,1.000
11.637,4.228,10.316,12.230,6.173,-0.983,5.708,8.241,0.037,0.971,-0.125,-0.153,-1.343,1.129,66.667,667551.000,1.000
12.469,4.774,10.719,11.901,6.383,0.379,7.282,7.477,0.037,0.971,-0.127,-0.153,-1.160,1.099,66.667,667552.000,1.000
13.814,5.667,11.509,11.920,6.922,3.703,10.262,6.944,0.038,0.969,-0.127,-0.061,-1.160,1.099,66.667,667553.000,1.000
15.007,6.241,11.891,11.696,6.936,6.528,12.304,6.091,0.036,0.969,-0.128,0.061,-0.977,1.068,66.667,667554.000,1.000
15.629,6.307,11.403,10.956,6.070,7.246,11.586,4.766,0.033,0.969,-0.128,0.183,-0.946,1.099,66.667,667555.000,1.000
15.748,6.350,10.203,9.852,4.644,6.029,7.865,3.061,0.034,0.969,-0.125,0.275,-0.824,1.099,66.667,667556.000,1.000
15.705,7.140,8.840,8.711,3.300,4.263,2.558,1.313,0.035,0.969,-0.128,0.488,-0.854,1.129,66.667,667557.000,1.000
15.625,8.916,7.696,7.637,2.379,3.159,-2.294,0.045,0.035,0.969,-0.128,0.549,-0.824,1.129,66.667,667558.000,1.000
15.143,10.854,6.530,6.316,1.551,2.854,-5.408,-0.425,0.035,0.972,-0.128,0.702,-0.732,1.190,66.667,667559.000,1.000
13.687,11.578,4.702,4.357,0.170,2.821,-6.572,-0.253,0.035,0.975,-0.126,0.854,-0.702,1.099,66.667,667560.000,1.000
11.036,10.269,1.872,1.809,-1.991,2.751,-6.095,0.118,0.035,0.979,-0.128,0.885,-0.549,1.099,66.667,667561.000,1.000
7.744,7.395,-1.434,-0.623,-4.287,2.892,-4.181,0.602,0.033,0.981,-0.129,0.763,-0.458,1.099,66.667,667562.000,1.000
4.940,4.388,-4.012,-1.970,-5.493,3.621,-1.029,1.661,0.033,0.981,-0.126,0.641,-0.488,1.129,66.667,667563.000,1.000
3.338,2.399,-5.003,-1.854,-4.853,4.791,2.653,3.526,0.032,0.980,-0.127,0.427,-0.427,1.068,66.667,667564.000,1.000
2.519,1.422,-4.664,-0.948,-2.783,5.726,5.805,5.563,0.032,0.981,-0.126,0.336,-0.458,1.129,66.667,667565.000,1.000
1.435,0.661,-4.050,-0.501,-0.610,5.732,7.253,6.387,0.032,0.983,-0.123,0.214,-0.488,1.068,66.667,667566.000,1.000
-0.484,-0.475,-4.026,-1.391,0.325,4.488,5.885,4.706,0.032,0.985,-0.124,0.092,-0.549,0.977,66.667,667567.000,1.000
-2.804,-1.758,-4.547,-3.431,-0.360,2.312,1.715,0.657,0.031,0.986,-0.121,0.000,-0.519,0.946,66.667,667568.000,1.000
-4.498,-2.405,-4.789,-5.507,-1.854,0.167,-3.306,-3.862,0.030,0.985,-0.123,-0.153,-0.610,0.916,66.667,667569.000,1.000
-4.679,-1.785,-3.847,-6.375,-2.928,-0.952,-6.516,-6.550,0.031,0.984,-0.124,-0.305,-0.549,0.885,66.667,667570.000,1.000
-3.004,0.095,-1.282,-5.352,-2.816,-0.795,-6.566,-6.200,0.032,0.981,-0.122,-0.427,-0.610,0.793,66.667,667571.000,1.000
0.091,2.552,2.583,-2.663,-1.556,0.165,-3.893,-3.150,0.032,0.980,-0.125,-0.641,-0.671,0.946,66.667,667572.000,1.000
3.333,4.527,6.584,0.552,0.173,1.349,0.042,0.990,0.034,0.978,-0.125,-0.610,-0.549,1.068,66.667,667573.000,1.000
5.127,5.092,9.172,2.722,1.415,2.261,3.353,3.980,0.035,0.979,-0.126,-0.610,-0.549,1.099,66.667,667574.000,1.000
4.668,4.060,9.487,2.885,1.628,2.546,4.555,4.281,0.031,0.980,-0.128,-0.580,-0.580,1.160,66.667,667575.000,1.000
2.818,2.407,8.242,1.585,1.367,2.573,3.851,2.427,0.032,0.981,-0.128,-0.549,-0.610,1.282,66.667,667576.000,1.000
1.578,1.654,7.130,0.380,1.784,3.364,3.005,0.549,0.030,0.980,-0.125,-0.549,-0.610,1.190,66.667,667577.000,1.000
2.492,2.553,7.249,0.372,3.291,5.412,3.380,0.185,0.032,0.978,-0.124,-0.641,-0.641,1.251,66.667,667578.000,1.000
5.755,4.727,8.493,1.567,5.257,8.177,4.889,1.156,0.037,0.977,-0.126,-0.580,-0.671,1.251,66.667,667579.000,1.000
10.614,7.460,10.256,3.410,6.933,10.779,6.710,2.485,0.038,0.977,-0.127,-0.336,-0.641,1.221,66.667,667580.000,1.000
16.070,10.308,12.146,5.413,8.122,12.613,8.051,3.560,0.037,0.976,-0.127,-0.244,-0.519,1.434,66.667,667581.000,1.000
21.126,12.956,13.935,7.202,8.948,13.412,8.435,4.245,0.034,0.977,-0.125,-0.244,-0.519,1.495,66.667,667582.000,1.000
24.853,14.919,15.244,8.407,9.397,13.105,7.837,4.481,0.032,0.976,-0.124,-0.214,-0.458,1.404,66.667,667583.000,1.000
26.752,15.878,15.753,8.897,9.444,11.968,6.884,4.371,0.031,0.977,-0.126,-0.153,-0.427,1.312,66.667,667584.000,1.000
26.919,15.989,15.445,8.894,9.287,10.710,6.550,4.325,0.027,0.974,-0.127,-0.153,-0.366,1.251,66.667,667585.000,1.000
25.516,15.323,14.203,8.435,8.903,9.744,7.028,4.441,0.027,0.974,-0.128,0.000,-0.549,1.129,66.667,667586.000,1.000
22.603,13.620,11.760,7.207,7.926,8.790,7.449,4.190,0.026,0.972,-0.128,0.000,-0.580,1.038,66.667,667587.000,1.000
18.893,11.249,8.638,5.432,6.567,7.931,7.384,3.426,0.031,0.971,-0.130,0.122,-0.610,0.885,66.667,667588.000,1.000
15.998,9.633,6.444,4.298,6.015,8.214,7.818,3.189,0.031,0.971,-0.129,0.275,-0.580,0.885,66.667,667589.000,1.000
15.199,9.901,6.509,4.892,7.211,10.326,9.816,4.744,0.032,0.973,-0.129,0.519,-0.671,0.916,66.667,667590.000,1.000
16.141,11.491,8.510,6.980,9.633,13.327,12.871,7.915,0.032,0.976,-0.128,0.549,-0.641,0.793,66.667,667591.000,1.000
17.096,12.635,10.824,9.161,11.695,15.338,15.321,10.939,0.033,0.975,-0.129,0.732,-0.671,0.732,66.667,667592.000,1.000
16.492,12.048,12.036,10.060,12.184,15.249,15.850,11.964,0.034,0.975,-0.130,0.702,-0.641,0.702,66.667,667593.000,1.000
14.044,9.810,11.831,9.174,11.003,13.324,14.014,10.140,0.034,0.975,-0.131,0.732,-0.702,0.641,66.667,667594.000,1.000
10.540,6.750,10.568,6.769,8.672,10.167,9.798,5.553,0.032,0.975,-0.129,0.854,-0.580,0.702,66.667,667595.000,1.000
6.968,3.609,8.622,3.467,5.768,5.959,3.655,-0.787,0.033,0.979,-0.125,1.038,-0.671,0.671,66.667,667596.000,1.000
4.212,1.182,6.576,0.213,3.204,1.285,-2.669,-6.663,0.035,0.978,-0.125,1.190,-0.641,0.793,66.667,667597.000,1.000
3.105,0.592,5.509,-1.769,2.387,-2.176,-6.255,-9.341,0.034,0.981,-0.127,1.343,-0.580,1.068,66.667,667598.000,1.000
3.768,2.334,6.102,-1.862,4.108,-2.750,-5.022,-7.568,0.031,0.987,-0.123,1.434,-0.641,1.221,66.667,667599.000,1.000
4.924,5.197,7.523,-0.889,7.397,-0.395,0.284,-2.863,0.030,0.989,-0.121,1.129,-0.671,1.160,66.667,667600.000,1.000
4.672,6.927,7.907,-0.548,10.093,3.257,6.326,1.571,0.031,0.985,-0.124,0.854,-0.732,1.251,66.667,667601.000,1.000
2.123,6.101,6.047,-1.918,10.584,6.356,9.543,3.232,0.033,0.972,-0.127,0.610,-0.702,1.099,66.667,667602.000,1.000
-1.802,3.252,2.446,-4.585,8.966,8.187,8.633,1.878,0.031,0.972,-0.131,0.854,-0.519,0.916,66.667,667603.000,1.000
-5.150,0.249,-1.219,-7.170,6.632,9.201,5.051,-0.778,0.031,0.972,-0.132,1.221,-0.549,0.824,66.667,667604.000,1.000
-6.451,-1.260,-3.479,-8.554,4.999,10.095,1.436,-2.655,0.031,0.975,-0.125,1.526,-0.580,0.854,66.667,667605.000,1.000
-5.790,-1.009,-4.113,-8.672,4.536,10.968,-0.270,-2.689,0.032,0.980,-0.125,1.587,-0.610,0.885,66.667,667606.000,1.000
-4.990,-0.403,-4.486,-8.630,4.383,10.945,0.063,-1.387,0.032,0.982,-0.120,1.495,-0.641,0.854,66.667,667607.000,1.000
-6.696,-1.826,-6.864,-10.152,2.719,8.515,0.793,-0.527,0.033,0.986,-0.121,1.343,-0.610,0.885,66.667,667608.000,1.000
-12.433,-6.879,-12.640,-14.273,-1.820,2.837,0.025,-1.792,0.033,0.987,-0.123,1.160,-0.580,1.038,66.667,667609.000,1.000
-20.968,-14.638,-20.697,-20.072,-8.558,-4.906,-2.563,-5.078,0.034,0.985,-0.122,1.099,-0.549,1.038,66.667,667610.000,1.000
-28.622,-21.710,-27.606,-24.813,-14.691,-11.818,-5.446,-8.146,0.032,0.983,-0.121,1.038,-0.610,1.099,66.667,667611.000,1.000
-31.756,-24.527,-29.936,-25.831,-17.260,-15.269,-6.673,-8.453,0.032,0.979,-0.127,1.160,-0.610,1.068,66.667,667612.000,1.000
-29.446,-22.130,-26.890,-22.646,-15.552,-14.912,-5.693,-5.483,0.031,0.978,-0.126,1.221,-0.641,1.160,66.667,667613.000,1.000
-24.179,-17.104,-21.047,-17.468,-11.802,-13.068,-4.025,-1.291,0.033,0.977,-0.130,1.251,-0.641,1.190,66.667,667614.000,1.000
-20.027,-13.701,-16.540,-13.720,-9.625,-12.977,-4.185,0.810,0.033,0.978,-0.129,1.282,-0.610,1.221,66.667,667615.000,1.000
-19.632,-14.549,-16.002,-13.612,-11.289,-16.183,-7.722,-1.624,0.032,0.977,-0.126,1.343,-0.610,1.251,66.667,667616.000,1.000
-22.490,-18.753,-18.809,-16.635,-16.006,-21.309,-13.750,-8.199,0.033,0.977,-0.128,1.465,-0.610,1.160,66.667,667617.000,1.000
-25.868,-22.913,-21.952,-20.247,-20.712,-25.221,-19.362,-15.695,0.031,0.975,-0.125,1.404,-0.610,1.251,66.667,667618.000,1.000
-27.227,-23.949,-22.596,-22.036,-22.643,-25.587,-21.944,-20.643,0.031,0.974,-0.127,1.587,-0.641,1.282,66.667,667619.000,1.000
-26.000,-21.266,-20.094,-21.350,-21.319,-22.616,-21.075,-21.783,0.029,0.974,-0.128,1.648,-0.580,1.373,66.667,667620.000,1.000
-23.272,-16.436,-15.684,-18.988,-17.978,-18.124,-17.727,-19.774,0.030,0.975,-0.129,1.801,-0.671,1.221,66.667,667621.000,1.000
-20.256,-11.416,-10.888,-15.964,-13.860,-13.528,-12.565,-15.652,0.028,0.981,-0.125,2.136,-0.793,1.007,66.667,667622.000,1.000
-17.821,-7.863,-7.074,-13.264,-10.008,-9.708,-6.449,-10.803,0.032,0.987,-0.121,2.197,-0.916,0.916,66.667,667623.000,1.000
-16.932,-7.243,-5.728,-12.109,-7.830,-7.777,-1.512,-7.407,0.035,0.990,-0.120,1.892,-0.885,0.916,66.667,667624.000,1.000
-18.156,-9.963,-7.558,-13.191,-8.262,-8.413,0.147,-7.077,0.035,0.989,-0.120,1.556,-0.854,0.885,66.667,667625.000,1.000
-20.623,-14.436,-11.337,-15.667,-10.586,-10.863,-1.598,-9.273,0.035,0.986,-0.122,1.160,-0.916,0.885,66.667,667626.000,1.000
-22.395,-17.986,-14.557,-17.661,-12.992,-13.617,-5.293,-11.930,0.033,0.982,-0.126,0.885,-0.946,0.946,66.667,667627.000,1.000
-22.075,-18.835,-15.357,-17.780,-14.077,-15.704,-9.483,-13.345,0.032,0.978,-0.128,0.824,-0.946,0.885,66.667,667628.000,1.000
-19.726,-16.940,-13.545,-15.866,-13.405,-16.715,-12.974,-13.009,0.031,0.976,-0.130,0.885,-0.885,0.885,66.667,667629.000,1.000
-16.449,-13.409,-10.237,-12.682,-11.289,-16.295,-14.565,-11.264,0.030,0.975,-0.130,0.916,-0.885,0.824,66.667,667630.000,1.000
-13.667,-9.867,-7.183,-9.413,-8.686,-14.441,-13.667,-8.787,0.030,0.975,-0.128,1.007,-0.916,0.671,66.667,667631.000,1.000
-12.509,-7.844,-5.987,-7.236,-6.801,-11.719,-10.679,-6.173,0.034,0.979,-0.128,1.068,-0.854,0.671,66.667,667632.000,1.000
-13.185,-7.970,-7.205,-6.824,-6.310,-8.933,-6.932,-3.888,0.033,0.981,-0.126,0.977,-0.977,0.641,66.667,667633.000,1.000
-15.009,-9.890,-10.239,-8.106,-7.237,-7.091,-4.561,-2.617,0.032,0.982,-0.127,0.946,-0.916,0.732,66.667,667634.000,1.000
-17.015,-12.791,-13.954,-10.389,-9.249,-7.112,-5.205,-2.997,0.031,0.983,-0.125,0.824,-0.854,0.793,66.667,667635.000,1.000
-18.350,-15.549,-17.077,-12.601,-11.625,-8.848,-8.353,-4.735,0.031,0.982,-0.128,0.641,-0.763,0.885,66.667,667636.000,1.000
-18.497,-17.001,-18.570,-13.751,-13.490,-11.127,-11.849,-6.660,0.032,0.980,-0.128,0.488,-0.763,0.916,66.667,667637.000,1.000
-17.431,-16.602,-18.079,-13.391,-14.378,-13.002,-13.863,-7.618,0.029,0.979,-0.127,0.458,-0.732,0.916,66.667,667638.000,1.000
