EEG 1,EEG 2,EEG 3,EEG 4,EEG 5,EEG 6,EEG 7,EEG 8,Accelerometer X,Accelerometer Y,Accelerometer Z,Gyroscope X,Gyroscope Y,Gyroscope Z,Battery Level,Counter,Validation Indicator
6.802,11.552,13.308,10.139,13.701,6.827,6.884,10.073,0.031,0.978,-0.112,-0.854,-0.214,1.038,66.667,613449.000,1.000
6.202,12.515,13.487,11.018,14.947,9.572,10.874,13.730,0.033,0.980,-0.110,-0.763,-0.183,1.007,66.667,613450.000,1.000
3.507,10.677,10.890,9.420,12.991,10.227,12.088,14.694,0.031,0.984,-0.109,-0.824,-0.214,0.946,66.667,613451.000,1.000
-0.607,6.371,6.223,5.698,8.214,7.902,9.114,12.589,0.032,0.987,-0.106,-0.824,-0.061,1.007,66.667,613452.000,1.000
-4.980,0.958,0.987,1.199,2.117,3.210,2.379,8.160,0.033,0.986,-0.105,-0.885,0.000,1.190,66.667,613453.000,1.000
-8.111,-3.437,-2.847,-2.096,-2.898,-1.521,-5.237,3.313,0.032,0.983,-0.109,-0.916,0.000,1.221,66.667,613454.000,1.000
-8.658,-4.785,-3.512,-2.451,-4.486,-3.460,-9.887,0.487,0.031,0.983,-0.109,-0.946,-0.031,1.312,66.667,613455.000,1.000
-6.392,-2.511,-0.584,0.437,-1.912,-1.368,-9.454,1.093,0.032,0.985,-0.106,-0.977,-0.092,1.434,66.667,613456.000,1.000
-2.596,1.968,4.487,5.076,3.284,3.376,-4.927,4.441,0.033,0.984,-0.108,-0.854,-0.092,1.526,66.667,613457.000,1.000
0.845,6.317,9.308,9.255,8.401,7.954,0.712,8.452,0.031,0.982,-0.109,-0.824,-0.244,1.587,66.667,613458.000,1.000
2.658,8.825,12.030,11.412,11.270,10.130,4.670,11.194,0.031,0.984,-0.110,-0.732,-0.244,1.678,66.667,613459.000,1.000
2.516,8.935,11.984,11.063,11.042,9.168,5.636,11.620,0.029,0.985,-0.112,-0.671,-0.305,1.770,66.667,613460.000,1.000
0.804,7.016,9.592,8.612,8.178,5.713,3.974,9.633,0.029,0.985,-0.107,-0.641,-0.244,1.770,66.667,613461.000,1.000
-1.506,4.171,6.160,5.206,4.183,1.448,1.280,6.174,0.030,0.984,-0.108,-0.549,-0.275,1.709,66.667,613462.000,1.000
-3.153,1.828,3.333,2.324,0.922,-1.635,-0.652,2.910,0.030,0.983,-0.112,-0.610,-0.427,1.709,66.667,613463.000,1.000
-3.389,0.815,2.100,0.914,-0.540,-2.481,-1.009,1.113,0.031,0.983,-0.109,-0.702,-0.458,1.709,66.667,613464.000,1.000
-2.554,0.724,2.153,0.750,-0.642,-1.698,-0.476,0.665,0.030,0.981,-0.109,-0.641,-0.671,1.617,66.667,613465.000,1.000
-1.668,0.462,2.360,0.790,-0.644,-0.756,-0.221,0.475,0.031,0.980,-0.107,-0.610,-0.702,1.678,66.667,613466.000,1.000
-1.430,-0.500,1.915,0.210,-1.231,-0.529,-0.397,-0.176,0.030,0.978,-0.108,-0.549,-0.732,1.648,66.667,613467.000,1.000
-1.712,-1.641,0.926,-1.015,-2.092,-0.932,-0.482,-1.178,0.031,0.978,-0.108,-0.519,-0.702,1.617,66.667,613468.000,1.000
-1.927,-2.161,-0.026,-2.448,-2.750,-1.714,-0.646,-2.273,0.033,0.978,-0.110,-0.366,-0.763,1.526,66.667,613469.000,1.000
-1.621,-1.817,-0.514,-3.680,-3.162,-2.899,-1.600,-3.481,0.032,0.978,-0.109,-0.244,-0.824,1.465,66.667,613470.000,1.000
-0.546,-0.842,-0.296,-4.290,-3.395,-4.406,-3.465,-4.752,0.033,0.978,-0.111,-0.153,-0.946,1.495,66.667,613471.000,1.000
1.571,0.587,0.907,-3.751,-3.267,-5.778,-5.557,-5.665,0.032,0.976,-0.109,0.031,-0.977,1.343,66.667,613472.000,1.000
4.968,2.450,3.244,-1.812,-2.560,-6.385,-6.874,-5.681,0.031,0.976,-0.110,0.183,-0.885,1.221,66.667,613473.000,1.000
9.383,4.575,6.263,1.022,-1.461,-5.801,-6.659,-4.717,0.034,0.977,-0.111,0.244,-0.946,1.251,66.667,613474.000,1.000
13.803,6.511,8.836,3.615,-0.546,-4.166,-5.080,-3.388,0.032,0.977,-0.112,0.336,-1.007,0.977,66.667,613475.000,1.000
16.908,7.925,9.878,4.972,-0.120,-1.856,-2.978,-2.402,0.032,0.977,-0.110,0.366,-0.977,0.854,66.667,613476.000,1.000
17.793,8.893,9.080,4.849,0.170,1.074,-0.763,-1.851,0.031,0.978,-0.110,0.366,-0.916,0.671,66.667,613477.000,1.000
16.246,9.555,6.901,3.645,0.836,4.532,1.713,-1.342,0.031,0.979,-0.110,0.488,-1.038,0.641,66.667,613478.000,1.000
12.707,9.781,4.130,1.993,1.932,7.822,4.292,-0.646,0.031,0.979,-0.110,0.519,-1.129,0.519,66.667,613479.000,1.000
8.154,9.303,1.513,0.420,2.985,9.848,6.029,-0.172,0.030,0.980,-0.111,0.519,-1.160,0.397,66.667,613480.000,1.000
3.720,7.886,-0.613,-0.917,3.213,9.723,5.793,-0.825,0.029,0.979,-0.110,0.580,-1.099,0.366,66.667,613481.000,1.000
0.188,5.393,-2.464,-2.245,1.931,7.260,3.457,-3.112,0.029,0.982,-0.112,0.549,-1.190,0.244,66.667,613482.000,1.000
-2.195,1.969,-4.467,-3.848,-0.944,3.150,0.245,-6.500,0.028,0.982,-0.111,0.549,-1.160,0.122,66.667,613483.000,1.000
-3.538,-1.745,-6.780,-5.728,-4.737,-1.255,-2.357,-9.819,0.028,0.983,-0.110,0.488,-1.221,0.122,66.667,613484.000,1.000
-4.014,-4.738,-9.113,-7.550,-8.346,-4.490,-3.815,-12.029,0.027,0.984,-0.110,0.488,-1.282,0.122,66.667,613485.000,1.000
-3.715,-6.142,-10.949,-8.778,-10.742,-5.617,-4.437,-12.518,0.026,0.984,-0.113,0.336,-1.312,0.000,66.667,613486.000,1.000
-2.721,-5.679,-11.860,-8.946,-11.338,-4.536,-4.450,-11.171,0.024,0.984,-0.111,0.366,-1.434,-0.031,66.667,613487.000,1.000
-1.287,-3.760,-11.693,-7.971,-10.195,-1.839,-3.735,-8.531,0.025,0.987,-0.111,0.366,-1.495,-0.092,66.667,613488.000,1.000
0.202,-1.262,-10.593,-6.303,-8.007,1.547,-2.224,-5.771,0.024,0.986,-0.112,0.214,-1.617,0.000,66.667,613489.000,1.000
1.464,0.856,-8.940,-4.707,-5.747,4.680,-0.197,-4.168,0.025,0.986,-0.112,0.122,-1.770,-0.061,66.667,613490.000,1.000
2.344,1.834,-7.291,-3.881,-4.232,6.671,1.627,-4.445,0.024,0.984,-0.112,0.122,-1.892,-0.061,66.667,613491.000,1.000
2.637,1.278,-6.229,-4.170,-3.883,6.729,2.275,-6.524,0.022,0.984,-0.114,0.092,-1.953,-0.153,66.667,613492.000,1.000
2.136,-0.682,-6.026,-5.429,-4.574,4.641,1.173,-9.642,0.022,0.983,-0.113,0.031,-2.045,-0.305,66.667,613493.000,1.000
0.876,-3.359,-6.416,-7.082,-5.636,1.210,-1.202,-12.619,0.021,0.982,-0.112,0.031,-2.167,-0.183,66.667,613494.000,1.000
-0.715,-5.727,-6.723,-8.363,-6.126,-2.159,-3.456,-14.197,0.022,0.980,-0.109,-0.061,-2.350,-0.275,66.667,613495.000,1.000
-1.909,-6.789,-6.236,-8.592,-5.247,-4.263,-4.014,-13.363,0.021,0.979,-0.108,-0.061,-2.411,-0.244,66.667,613496.000,1.000
-2.060,-6.046,-4.633,-7.452,-2.805,-4.482,-1.999,-9.835,0.020,0.981,-0.111,-0.092,-2.502,-0.336,66.667,613497.000,1.000
-1.091,-3.897,-2.221,-5.229,0.523,-2.937,1.946,-4.538,0.019,0.981,-0.113,-0.122,-2.625,-0.366,66.667,613498.000,1.000
0.378,-1.505,0.197,-2.740,3.407,-0.593,5.653,0.688,0.020,0.980,-0.111,-0.153,-2.716,-0.305,66.667,613499.000,1.000
1.423,-0.136,1.723,-0.878,4.490,1.174,6.697,4.132,0.020,0.982,-0.110,-0.122,-2.808,-0.214,66.667,613500.000,1.000
1.324,-0.555,1.712,-0.235,2.962,1.343,3.887,4.919,0.019,0.983,-0.111,-0.244,-2.899,-0.214,66.667,613501.000,1.000
-0.146,-2.851,-0.074,-1.008,-1.218,-0.461,-2.358,2.946,0.020,0.982,-0.111,-0.336,-3.021,-0.122,66.667,613502.000,1.000
-2.609,-6.436,-3.291,-2.941,-7.142,-3.936,-10.321,-1.172,0.019,0.982,-0.112,-0.366,-3.052,0.092,66.667,613503.000,1.000
-5.179,-10.121,-6.906,-5.247,-12.969,-7.978,-17.277,-5.939,0.022,0.980,-0.111,-0.427,-3.143,0.061,66.667,613504.000,1.000
-6.938,-12.624,-9.602,-6.937,-16.723,-11.144,-20.741,-9.540,0.021,0.979,-0.110,-0.549,-3.113,0.153,66.667,613505.000,1.000
-7.524,-13.364,-10.563,-7.483,-17.473,-12.677,-20.169,-10.892,0.021,0.981,-0.111,-0.488,-3.174,0.214,66.667,613506.000,1.000
-7.216,-12.648,-9.826,-7.026,-15.670,-12.878,-17.018,-10.053,0.022,0.981,-0.115,-0.519,-3.204,0.214,66.667,613507.000,1.000
-6.529,-11.177,-7.992,-6.013,-12.455,-12.610,-13.260,-7.899,0.021,0.981,-0.112,-0.488,-3.174,0.458,66.667,613508.000,1.000
-5.959,-9.663,-5.906,-4.917,-8.951,-12.640,-10.157,-5.654,0.023,0.980,-0.109,-0.458,-3.174,0.336,66.667,613509.000,1.000
-5.879,-8.645,-4.392,-4.152,-5.909,-13.067,-7.890,-4.228,0.023,0.982,-0.113,-0.549,-3.143,0.458,66.667,613510.000,1.000
-6.293,-8.238,-3.776,-3.884,-3.587,-13.255,-5.930,-3.763,0.025,0.980,-0.112,-0.549,-3.052,0.519,66.667,613511.000,1.000
-6.813,-8.200,-3.808,-4.046,-2.079,-12.916,-4.331,-4.057,0.022,0.979,-0.111,-0.580,-3.052,0.580,66.667,613512.000,1.000
-7.040,-8.404,-4.184,-4.584,-1.729,-13.065,-4.506,-5.140,0.024,0.981,-0.112,-0.610,-2.991,0.732,66.667,613513.000,1.000
-6.855,-8.906,-4.831,-5.415,-2.830,-15.038,-7.774,-6.973,0.023,0.978,-0.109,-0.671,-2.838,0.824,66.667,613514.000,1.000
-6.258,-9.468,-5.513,-6.105,-4.874,-18.614,-13.368,-8.842,0.023,0.978,-0.111,-0.671,-2.625,0.854,66.667,613515.000,1.000
-5.108,-9.280,-5.497,-5.815,-6.394,-21.550,-18.316,-9.368,0.022,0.981,-0.112,-0.641,-2.533,0.916,66.667,613516.000,1.000
-3.228,-7.428,-3.946,-3.825,-5.776,-20.990,-19.140,-7.282,0.023,0.980,-0.110,-0.671,-2.502,1.038,66.667,613517.000,1.000
-0.801,-3.772,-0.762,-0.229,-2.495,-15.674,-14.283,-2.478,0.025,0.981,-0.106,-0.641,-2.380,1.038,66.667,613518.000,1.000
1.385,0.575,2.979,3.853,2.180,-7.420,-5.805,3.473,0.025,0.983,-0.106,-0.732,-2.197,1.038,66.667,613519.000,1.000
2.210,3.731,5.495,6.792,5.807,-0.199,1.542,8.071,0.026,0.984,-0.107,-0.854,-2.075,1.007,66.667,613520.000,1.000
0.959,4.292,5.460,7.480,6.481,2.823,3.651,9.577,0.024,0.983,-0.111,-0.763,-1.923,1.068,66.667,613521.000,1.000
-1.982,2.354,2.978,6.048,4.108,1.435,-0.278,8.083,0.026,0.982,-0.109,-0.824,-1.801,1.068,66.667,613522.000,1.000
-5.222,-0.624,-0.570,3.615,0.210,-2.004,-7.644,5.110,0.025,0.981,-0.108,-0.854,-1.709,1.038,66.667,613523.000,1.000
-7.203,-2.838,-3.545,1.432,-3.187,-4.381,-14.112,2.501,0.027,0.980,-0.108,-0.793,-1.556,1.068,66.667,613524.000,1.000
-7.040,-3.137,-4.916,0.292,-4.648,-3.638,-16.207,1.506,0.027,0.980,-0.105,-0.763,-1.434,1.099,66.667,613525.000,1.000
-4.901,-1.518,-4.576,0.276,-3.988,0.093,-13.532,2.181,0.028,0.978,-0.108,-0.641,-1.221,1.099,66.667,613526.000,1.000
-1.723,1.174,-3.042,0.918,-2.056,4.988,-8.509,3.619,0.027,0.980,-0.107,-0.641,-0.977,1.282,66.667,613527.000,1.000
1.562,4.145,-0.793,1.874,0.326,9.413,-3.726,5.135,0.029,0.978,-0.106,-0.549,-0.885,1.221,66.667,613528.000,1.000
4.366,6.933,1.822,3.119,2.747,12.883,-0.165,6.777,0.026,0.979,-0.108,-0.488,-0.732,1.221,66.667,613529.000,1.000
6.193,8.987,4.104,4.379,4.599,15.341,2.147,8.383,0.026,0.979,-0.109,-0.305,-0.702,1.312,66.667,613530.000,1.000
6.658,9.764,5.213,5.033,5.054,16.630,3.162,9.013,0.027,0.977,-0.108,-0.214,-0.580,1.282,66.667,613531.000,1.000
5.829,9.314,4.902,4.698,3.828,16.738,2.823,7.751,0.025,0.977,-0.107,-0.153,-0.549,1.221,66.667,613532.000,1.000
4.351,8.376,3.719,3.594,1.579,16.052,1.521,4.808,0.023,0.978,-0.106,-0.061,-0.458,1.160,66.667,613533.000,1.000
3.260,7.968,2.681,2.492,-0.400,15.321,0.373,1.659,0.023,0.979,-0.108,-0.031,-0.427,1.221,66.667,613534.000,1.000
3.422,8.730,2.685,2.271,-0.973,15.139,0.544,-0.052,0.021,0.978,-0.105,0.031,-0.458,1.251,66.667,613535.000,1.000
4.844,10.341,3.820,3.231,0.015,15.293,1.981,0.144,0.023,0.979,-0.105,0.183,-0.366,1.129,66.667,613536.000,1.000
6.549,11.664,5.193,4.800,1.623,14.894,3.344,1.347,0.023,0.981,-0.106,0.214,-0.458,1.251,66.667,613537.000,1.000
7.274,11.618,5.667,6.035,2.590,13.310,3.301,2.235,0.023,0.979,-0.104,0.275,-0.549,1.282,66.667,613538.000,1.000
6.381,9.999,4.852,6.416,2.300,10.904,1.604,2.063,0.022,0.981,-0.104,0.336,-0.427,1.160,66.667,613539.000,1.000
4.237,7.487,3.379,6.140,1.087,8.652,-1.015,0.963,0.021,0.981,-0.106,0.366,-0.488,1.251,66.667,613540.000,1.000
1.882,5.005,2.289,5.788,-0.268,6.986,-3.580,-0.439,0.021,0.983,-0.105,0.305,-0.519,1.221,66.667,613541.000,1.000
0.308,3.202,2.221,5.801,-1.208,5.443,-5.493,-1.577,0.021,0.984,-0.102,0.488,-0.519,1.282,66.667,613542.000,1.000
-0.033,2.412,3.130,6.239,-1.515,3.713,-6.540,-2.098,0.020,0.982,-0.105,0.397,-0.610,1.404,66.667,613543.000,1.000
0.697,2.679,4.488,6.792,-1.170,2.380,-6.560,-1.779,0.019,0.981,-0.106,0.458,-0.763,1.343,66.667,613544.000,1.000
1.908,3.608,5.591,6.891,-0.506,2.024,-5.700,-0.774,0.020,0.982,-0.106,0.458,-0.793,1.373,66.667,613545.000,1.000
2.914,4.464,5.869,6.057,-0.253,2.216,-4.795,0.202,0.021,0.982,-0.106,0.519,-0.732,1.373,66.667,613546.000,1.000
3.351,4.653,5.171,4.318,-1.014,2.018,-4.824,0.247,0.021,0.982,-0.104,0.519,-0.916,1.404,66.667,613547.000,1.000
3.452,4.117,3.888,2.330,-2.617,1.032,-6.010,-1.068,0.021,0.983,-0.101,0.549,-1.068,1.373,66.667,613548.000,1.000
4.095,3.500,3.013,1.262,-3.856,-0.160,-7.373,-3.051,0.020,0.983,-0.103,0.641,-1.129,1.373,66.667,613549.000,1.000
6.429,3.943,3.854,2.400,-2.966,-0.276,-7.132,-3.826,0.019,0.982,-0.104,0.763,-1.129,1.434,66.667,613550.000,1.000
10.988,6.234,7.069,6.247,1.000,1.712,-4.052,-1.615,0.018,0.983,-0.104,0.793,-1.312,1.343,66.667,613551.000,1.000
16.941,9.834,11.769,11.726,6.927,5.425,1.255,3.368,0.018,0.980,-0.105,0.946,-1.404,1.434,66.667,613552.000,1.000
22.409,12.959,15.859,16.621,12.096,9.070,6.554,8.701,0.018,0.980,-0.103,0.916,-1.495,1.434,66.667,613553.000,1.000
25.617,13.802,17.455,19.015,14.119,10.771,9.593,11.720,0.018,0.979,-0.106,0.977,-1.648,1.587,66.667,613554.000,1.000
25.820,11.771,16.009,18.327,12.449,9.836,9.475,11.428,0.017,0.978,-0.104,1.007,-1.770,1.617,66.667,613555.000,1.000
23.607,7.889,12.486,15.356,8.403,7.072,7.011,8.731,0.018,0.977,-0.102,1.099,-2.014,1.495,66.667,613556.000,1.000
20.557,4.178,8.739,11.685,4.114,4.174,4.082,5.481,0.019,0.977,-0.106,1.160,-2.197,1.434,66.667,613557.000,1.000
18.301,2.292,6.388,8.816,1.186,2.436,2.209,3.162,0.020,0.975,-0.109,1.221,-2.411,1.404,66.667,613558.000,1.000
17.608,2.436,5.905,7.450,-0.123,1.800,1.515,2.030,0.022,0.975,-0.106,1.251,-2.380,1.465,66.667,613559.000,1.000
18.395,3.628,6.724,7.434,-0.536,1.401,1.226,1.501,0.022,0.973,-0.108,1.465,-2.441,1.434,66.667,613560.000,1.000
20.401,4.875,8.097,8.251,-0.729,0.873,0.901,1.241,0.025,0.977,-0.109,1.526,-2.502,1.526,66.667,613561.000,1.000
23.347,5.670,9.457,9.270,-1.009,0.351,0.453,1.253,0.024,0.974,-0.108,1.587,-2.563,1.495,66.667,613562.000,1.000
26.586,5.603,10.158,9.720,-1.729,-0.629,-0.625,1.157,0.026,0.978,-0.108,1.709,-2.686,1.404,66.667,613563.000,1.000
29.253,4.377,9.673,9.067,-3.159,-2.935,-2.851,0.326,0.025,0.979,-0.109,1.801,-2.594,1.495,66.667,613564.000,1.000
30.847,2.267,8.106,7.493,-4.940,-6.538,-5.823,-1.340,0.025,0.981,-0.107,1.801,-2.655,1.526,66.667,613565.000,1.000
31.333,-0.004,6.079,5.705,-6.234,-10.290,-8.286,-3.303,0.024,0.983,-0.105,1.831,-2.838,1.526,66.667,613566.000,1.000
30.899,-1.740,4.235,4.424,-6.378,-12.723,-8.710,-4.760,0.024,0.981,-0.109,1.801,-2.869,1.495,66.667,613567.000,1.000
29.859,-2.464,3.027,4.090,-5.190,-12.810,-6.008,-5.010,0.025,0.979,-0.105,1.831,-2.899,1.526,66.667,613568.000,1.000
28.615,-2.018,2.665,4.658,-3.059,-10.782,-0.891,-4.000,0.023,0.977,-0.104,1.801,-2.869,1.465,66.667,613569.000,1.000
27.557,-0.664,3.047,5.616,-0.874,-8.389,3.554,-2.636,0.026,0.978,-0.106,1.770,-2.838,1.434,66.667,613570.000,1.000
26.912,1.006,3.794,6.283,0.413,-7.696,4.000,-2.145,0.028,0.977,-0.110,1.892,-2.777,1.312,66.667,613571.000,1.000
26.522,2.233,4.348,6.108,0.209,-9.714,-0.518,-3.241,0.030,0.977,-0.108,1.862,-2.716,1.373,66.667,613572.000,1.000
25.916,2.319,4.234,4.900,-1.564,-14.109,-8.558,-5.969,0.031,0.977,-0.111,1.984,-2.655,1.312,66.667,613573.000,1.000
24.795,1.075,3.445,3.055,-4.384,-19.419,-17.515,-9.782,0.033,0.972,-0.110,1.923,-2.472,1.434,66.667,613574.000,1.000
23.391,-0.946,2.523,1.521,-7.183,-23.592,-24.401,-13.504,0.034,0.970,-0.110,2.045,-2.350,1.495,66.667,613575.000,1.000
22.175,-2.846,2.078,1.226,-8.862,-24.991,-26.766,-15.653,0.037,0.971,-0.112,2.167,-2.319,1.556,66.667,613576.000,1.000
21.242,-4.091,2.180,2.376,-9.000,-23.309,-23.989,-15.282,0.034,0.971,-0.113,2.197,-2.136,1.617,66.667,613577.000,1.000
20.206,-4.777,2.320,4.317,-8.044,-19.696,-17.751,-12.527,0.031,0.973,-0.116,2.441,-1.953,1.526,66.667,613578.000,1.000
18.652,-5.241,1.974,6.052,-6.789,-15.896,-10.803,-8.364,0.031,0.978,-0.116,2.502,-1.831,1.434,66.667,613579.000,1.000
16.439,-5.606,1.062,6.884,-5.739,-13.030,-5.175,-4.025,0.032,0.981,-0.115,2.563,-1.556,1.495,66.667,613580.000,1.000
13.615,-5.744,-0.053,6.777,-4.846,-11.056,-1.396,-0.470,0.034,0.980,-0.117,2.472,-1.465,1.465,66.667,613581.000,1.000
10.320,-5.490,-0.865,6.258,-3.693,-9.262,1.029,1.939,0.034,0.982,-0.117,2.380,-1.434,1.617,66.667,613582.000,1.000
6.705,-4.869,-1.121,5.867,-2.019,-7.219,2.701,3.260,0.035,0.982,-0.115,2.289,-1.160,1.648,66.667,613583.000,1.000
2.803,-4.190,-1.075,5.613,-0.094,-5.206,3.914,3.507,0.034,0.983,-0.114,2.319,-1.038,1.678,66.667,613584.000,1.000
-1.495,-3.945,-1.308,4.955,1.407,-3.901,4.589,2.492,0.030,0.984,-0.116,2.350,-0.977,1.709,66.667,613585.000,1.000
-6.293,-4.656,-2.396,3.125,1.724,-4.000,4.210,0.001,0.029,0.985,-0.117,2.319,-0.854,1.648,66.667,613586.000,1.000
-11.509,-6.643,-4.628,-0.377,0.331,-5.880,2.244,-3.831,0.026,0.989,-0.113,2.228,-0.793,1.587,66.667,613587.000,1.000
-16.712,-9.640,-7.739,-5.243,-2.593,-9.063,-0.945,-8.125,0.024,0.990,-0.115,1.984,-0.702,1.404,66.667,613588.000,1.000
-21.189,-12.687,-10.923,-10.303,-6.103,-12.163,-3.953,-11.532,0.026,0.994,-0.113,1.831,-0.702,1.282,66.667,613589.000,1.000
-24.365,-14.699,-13.402,-14.272,-9.142,-13.820,-5.525,-13.185,0.024,0.996,-0.113,1.526,-0.763,1.160,66.667,613590.000,1.000
-26.167,-15.176,-14.881,-16.504,-11.104,-13.483,-5.480,-13.184,0.024,0.997,-0.118,1.312,-0.824,1.068,66.667,613591.000,1.000
-27.010,-14.358,-15.458,-17.106,-11.786,-11.343,-4.342,-12.181,0.026,0.995,-0.117,1.038,-0.854,0.854,66.667,613592.000,1.000
-27.602,-13.022,-15.479,-16.797,-11.376,-8.171,-2.736,-10.898,0.028,0.998,-0.119,0.702,-0.763,0.702,66.667,613593.000,1.000
-28.729,-12.120,-15.510,-16.633,-10.535,-5.186,-1.154,-9.938,0.031,0.998,-0.118,0.549,-0.793,0.702,66.667,613594.000,1.000
-30.922,-12.307,-16.120,-17.421,-10.063,-3.557,0.038,-9.650,0.033,0.997,-0.117,0.244,-0.793,0.763,66.667,613595.000,1.000
-34.215,-13.643,-17.566,-19.262,-10.431,-3.896,0.452,-10.089,0.032,0.998,-0.115,0.000,-0.671,0.763,66.667,613596.000,1.000
-38.102,-15.597,-19.613,-21.600,-11.631,-5.997,-0.315,-11.088,0.033,0.996,-0.115,-0.244,-0.519,0.824,66.667,613597.000,1.000
-41.678,-17.251,-21.553,-23.536,-13.247,-8.779,-2.198,-12.206,0.031,0.998,-0.113,-0.519,-0.397,0.702,66.667,613598.000,1.000
-43.999,-17.673,-22.498,-24.193,-14.620,-10.662,-4.099,-12.561,0.029,0.999,-0.113,-0.702,-0.458,0.854,66.667,613599.000,1.000
-44.616,-16.486,-22.003,-23.217,-15.262,-10.580,-4.505,-11.225,0.028,0.999,-0.111,-0.977,-0.397,0.702,66.667,613600.000,1.000
-43.947,-14.283,-20.575,-21.177,-15.311,-8.789,-3.109,-8.210,0.024,0.996,-0.110,-1.190,-0.366,0.610,66.667,613601.000,1.000
-43.048,-12.281,-19.381,-19.217,-15.341,-6.479,-1.177,-4.642,0.019,0.993,-0.110,-1.404,-0.519,0.610,66.667,613602.000,1.000
-43.017,-11.491,-19.425,-18.278,-15.722,-4.650,-0.198,-1.804,0.016,0.991,-0.108,-1.617,-0.580,0.580,66.667,613603.000,1.000
-44.644,-12.257,-21.090,-18.731,-16.405,-3.490,-0.608,-0.363,0.011,0.991,-0.108,-1.709,-0.732,0.488,66.667,613604.000,1.000
-48.197,-14.290,-24.110,-20.454,-17.126,-2.533,-1.542,-0.311,0.010,0.989,-0.107,-1.801,-0.793,0.336,66.667,613605.000,1.000
-53.140,-16.895,-27.693,-22.930,-17.557,-1.326,-1.354,-1.139,0.008,0.988,-0.108,-1.831,-1.038,0.153,66.667,613606.000,1.000
-58.173,-19.242,-30.820,-25.363,-17.310,0.041,1.217,-2.091,0.007,0.989,-0.106,-1.892,-1.251,0.000,66.667,613607.000,1.000
-61.847,-20.647,-32.679,-26.990,-16.063,1.047,5.745,-2.612,0.006,0.987,-0.103,-1.892,-1.526,-0.031,66.667,613608.000,1.000
-63.402,-20.873,-33.084,-27.557,-13.856,1.244,10.087,-2.828,0.007,0.984,-0.101,-2.014,-1.801,-0.183,66.667,613609.000,1.000
-63.129,-20.183,-32.515,-27.472,-11.227,0.562,11.942,-3.470,0.008,0.983,-0.104,-2.014,-2.106,-0.305,66.667,613610.000,1.000
-61.953,-19.016,-31.619,-27.381,-8.846,-0.647,10.503,-5.174,0.005,0.981,-0.105,-1.953,-2.319,-0.244,66.667,613611.000,1.000
-60.726,-17.687,-30.694,-27.595,-7.027,-1.760,6.840,-7.795,0.005,0.979,-0.104,-1.953,-2.655,-0.214,66.667,613612.000,1.000
-59.834,-16.376,-29.659,-27.938,-5.603,-2.140,3.160,-10.393,0.006,0.978,-0.105,-1.923,-2.777,-0.153,66.667,613613.000,1.000
-59.310,-15.310,-28.442,-28.096,-4.331,-1.543,1.512,-12.006,0.006,0.978,-0.107,-1.801,-3.052,-0.153,66.667,613614.000,1.000
-59.161,-14.927,-27.331,-28.059,-3.388,-0.545,2.331,-12.616,0.007,0.977,-0.107,-1.556,-3.143,0.000,66.667,613615.000,1.000
-59.363,-15.626,-26.747,-27.999,-3.195,-0.245,4.219,-13.061,0.008,0.976,-0.109,-1.312,-3.235,-0.061,66.667,613616.000,1.000
-59.602,-17.268,-26.701,-27.768,-3.722,-1.307,5.377,-13.844,0.009,0.976,-0.108,-1.282,-3.387,0.061,66.667,613617.000,1.000
-59.338,-19.148,-26.735,-26.887,-4.326,-3.587,4.945,-14.532,0.011,0.972,-0.104,-1.038,-3.510,0.183,66.667,613618.000,1.000
-58.186,-20.448,-26.300,-25.007,-4.245,-6.424,3.393,-14.197,0.012,0.971,-0.108,-0.885,-3.601,0.458,66.667,613619.000,1.000
-56.050,-20.609,-24.993,-22.135,-2.970,-8.774,2.304,-11.972,0.013,0.971,-0.108,-0.641,-3.662,0.580,66.667,613620.000,1.000
-53.086,-19.560,-22.768,-18.595,-0.520,-9.544,3.243,-7.596,0.015,0.970,-0.106,-0.427,-3.723,0.732,66.667,613621.000,1.000
-49.743,-17.849,-20.193,-15.026,2.292,-8.423,6.084,-1.942,0.017,0.970,-0.110,-0.092,-3.784,0.854,66.667,613622.000,1.000
-46.691,-16.448,-18.281,-12.260,4.103,-6.240,8.802,3.216,0.015,0.971,-0.108,0.153,-3.784,1.099,66.667,613623.000,1.000
-44.477,-16.225,-17.848,-10.953,3.798,-4.324,9.224,6.193,0.015,0.972,-0.112,0.336,-3.876,1.251,66.667,613624.000,1.000
-43.101,-17.286,-18.844,-11.160,1.300,-3.446,6.844,6.395,0.018,0.973,-0.112,0.397,-3.876,1.221,66.667,613625.000,1.000
-41.786,-18.547,-20.087,-12.056,-2.076,-3.087,3.351,4.785,0.018,0.974,-0.110,0.610,-3.662,1.282,66.667,613626.000,1.000
-39.235,-18.163,-19.726,-12.187,-4.132,-1.742,1.662,3.397,0.021,0.973,-0.108,0.702,-3.479,1.465,66.667,613627.000,1.000
-34.486,-14.862,-16.454,-10.395,-3.188,1.652,3.728,3.908,0.021,0.973,-0.110,0.916,-3.387,1.526,66.667,613628.000,1.000
-27.752,-9.088,-10.568,-6.695,0.617,6.362,8.674,6.316,0.019,0.974,-0.112,1.068,-3.357,1.404,66.667,613629.000,1.000
-20.440,-2.809,-3.872,-2.291,5.377,10.125,13.281,8.944,0.021,0.976,-0.115,1.160,-3.235,1.465,66.667,613630.000,1.000
-14.304,1.787,1.462,1.184,8.772,11.005,14.620,9.782,0.022,0.976,-0.114,1.160,-3.174,1.556,66.667,613631.000,1.000
-10.502,3.534,4.100,2.544,9.524,8.939,12.171,7.895,0.020,0.978,-0.111,1.312,-2.960,1.526,66.667,613632.000,1.000
-9.102,2.682,4.099,1.604,7.940,5.507,7.607,3.890,0.023,0.979,-0.111,1.343,-2.869,1.465,66.667,613633.000,1.000
-9.164,0.534,2.617,-0.748,5.460,2.561,3.261,-0.538,0.024,0.980,-0.111,1.343,-2.625,1.343,66.667,613634.000,1.000
-9.322,-1.367,1.143,-3.041,3.704,1.172,0.807,-3.605,0.023,0.982,-0.112,1.221,-2.441,1.312,66.667,613635.000,1.000
-8.462,-2.005,0.796,-4.027,3.617,1.404,0.704,-4.357,0.023,0.982,-0.113,1.312,-2.441,1.251,66.667,613636.000,1.000
-6.084,-1.125,2.065,-3.239,5.160,2.588,2.353,-2.955,0.025,0.984,-0.114,1.312,-2.289,1.190,66.667,613637.000,1.000
-2.256,1.045,4.899,-0.982,7.670,3.875,4.850,-0.244,0.027,0.982,-0.111,1.129,-2.075,1.099,66.667,613638.000,1.000
2.474,3.995,8.760,1.948,10.382,4.739,7.705,2.859,0.028,0.980,-0.114,1.007,-1.892,1.007,66.667,613639.000,1.000
7.040,6.854,12.559,4.532,12.642,5.030,10.644,5.627,0.029,0.980,-0.117,0.916,-1.556,0.977,66.667,613640.000,1.000
10.139,8.596,14.981,5.933,13.977,4.836,13.007,7.523,0.032,0.980,-0.115,1.007,-1.251,0.824,66.667,613641.000,1.000
10.997,8.678,15.257,5.956,14.318,4.517,14.022,8.377,0.034,0.983,-0.115,0.977,-0.977,0.854,66.667,613642.000,1.000
9.848,7.351,13.609,5.058,13.974,4.531,13.449,8.381,0.035,0.985,-0.117,0.854,-0.702,0.916,66.667,613643.000,1.000
7.756,5.389,10.983,3.889,13.250,5.063,11.537,7.685,0.035,0.985,-0.116,0.916,-0.366,0.946,66.667,613644.000,1.000
6.154,3.731,8.578,3.020,12.323,6.036,8.828,6.369,0.033,0.982,-0.116,0.824,-0.153,1.129,66.667,613645.000,1.000
6.156,3.105,7.307,2.835,11.388,7.287,6.254,4.843,0.033,0.981,-0.116,0.671,-0.031,1.160,66.667,613646.000,1.000
7.883,3.643,7.322,3.371,10.637,8.535,4.760,3.810,0.035,0.980,-0.119,0.732,0.427,1.129,66.667,613647.000,1.000
10.523,4.957,8.109,4.357,10.243,9.564,4.730,3.886,0.034,0.980,-0.118,0.763,0.824,1.190,66.667,613648.000,1.000
12.944,6.586,8.977,5.439,10.373,10.560,6.140,5.375,0.033,0.982,-0.114,0.763,1.068,1.129,66.667,613649.000,1.000
14.224,8.182,9.352,6.291,11.046,11.789,8.895,8.142,0.031,0.981,-0.117,0.732,1.312,1.068,66.667,613650.000,1.000
13.948,9.392,8.867,6.646,11.970,13.011,12.566,11.498,0.027,0.982,-0.114,0.732,1.373,1.068,66.667,613651.000,1.000
12.364,9.884,7.525,6.394,12.594,13.578,15.832,14.227,0.024,0.985,-0.114,0.641,1.404,1.007,66.667,613652.000,1.000
10.413,9.717,5.902,5.745,12.510,13.238,16.872,15.123,0.021,0.985,-0.115,0.549,1.465,0.916,66.667,613653.000,1.000
9.456,9.597,5.083,5.312,11.906,12.656,14.942,13.953,0.020,0.983,-0.114,0.488,1.556,0.793,66.667,613654.000,1.000
10.501,10.393,5.976,5.753,11.420,12.784,11.105,11.722,0.021,0.981,-0.114,0.427,1.526,0.549,66.667,613655.000,1.000
13.341,12.287,8.469,7.133,11.489,13.919,7.320,9.825,0.021,0.981,-0.115,0.305,1.526,0.427,66.667,613656.000,1.000
16.536,14.509,11.339,8.703,11.936,15.500,5.113,9.004,0.021,0.980,-0.117,0.305,1.495,0.427,66.667,613657.000,1.000
18.338,15.783,12.953,9.303,11.954,16.282,4.589,8.852,0.023,0.981,-0.116,0.336,1.495,0.397,66.667,613658.000,1.000
17.915,15.255,12.320,8.203,10.647,15.041,4.635,8.339,0.023,0.979,-0.111,0.305,1.404,0.336,66.667,613659.000,1.000
16.068,13.322,9.924,5.867,8.003,11.870,4.425,7.065,0.024,0.980,-0.113,0.336,1.404,0.336,66.667,613660.000,1.000
14.682,11.301,7.371,3.730,4.992,8.236,4.242,5.600,0.023,0.980,-0.115,0.366,1.465,0.366,66.667,613661.000,1.000
15.183,10.090,5.996,2.969,2.483,5.431,4.687,4.531,0.019,0.979,-0.115,0.244,1.373,0.336,66.667,613662.000,1.000
17.494,9.466,5.927,3.647,0.565,3.700,5.807,3.751,0.020,0.981,-0.117,0.305,1.343,0.244,66.667,613663.000,1.000
20.381,8.722,6.458,5.045,-0.977,2.844,6.990,2.811,0.020,0.981,-0.116,0.244,1.251,0.397,66.667,613664.000,1.000
22.681,7.672,7.074,6.520,-1.998,2.773,7.243,1.542,0.021,0.979,-0.117,0.244,1.160,0.458,66.667,613665.000,1.000
24.139,6.886,7.973,7.973,-1.980,3.354,5.965,0.311,0.021,0.980,-0.112,0.275,1.129,0.549,66.667,613666.000,1.000
25.125,6.985,9.579,9.564,-0.587,4.174,3.688,-0.350,0.022,0.981,-0.112,0.366,1.007,0.732,66.667,613667.000,1.000
25.895,7.896,11.740,11.173,1.832,4.668,1.758,-0.371,0.022,0.980,-0.115,0.244,1.038,0.702,66.667,613668.000,1.000
26.374,8.878,13.676,12.337,4.304,4.424,1.093,-0.192,0.019,0.984,-0.113,0.122,0.916,0.824,66.667,613669.000,1.000
26.529,9.174,14.660,12.704,5.791,3.380,1.262,-0.211,0.019,0.984,-0.112,0.031,0.824,0.916,66.667,613670.000,1.000
26.637,8.634,14.581,12.377,5.808,1.845,1.029,-0.360,0.019,0.987,-0.110,-0.031,0.885,1.038,66.667,613671.000,1.000
27.105,7.741,13.893,11.771,4.602,0.338,-0.229,-0.257,0.019,0.987,-0.112,-0.092,0.763,1.068,66.667,613672.000,1.000
28.158,7.199,13.258,11.283,2.864,-0.624,-1.858,0.377,0.019,0.987,-0.114,-0.183,0.549,1.099,66.667,613673.000,1.000
29.804,7.551,13.277,11.168,1.347,-0.605,-2.538,1.483,0.019,0.987,-0.116,-0.183,0.458,1.099,66.667,613674.000,1.000
31.870,8.889,14.187,11.477,0.532,0.482,-1.650,2.658,0.020,0.987,-0.112,-0.305,0.366,1.251,66.667,613675.000,1.000
33.933,10.671,15.558,11.914,0.378,1.979,-0.039,3.265,0.021,0.986,-0.112,-0.427,0.244,1.343,66.667,613676.000,1.000
35.488,12.074,16.527,11.999,0.500,2.832,0.818,2.883,0.022,0.985,-0.113,-0.519,0.153,1.312,66.667,613677.000,1.000
36.402,12.758,16.601,11.566,0.687,2.653,0.279,1.829,0.022,0.983,-0.113,-0.732,0.061,1.373,66.667,613678.000,1.000
37.042,13.081,16.078,10.990,1.100,2.060,-1.011,0.979,0.023,0.981,-0.113,-0.702,-0.092,1.587,66.667,613679.000,1.000
37.892,13.549,15.674,10.853,1.934,1.842,-1.978,0.891,0.024,0.982,-0.115,-0.824,-0.183,1.648,66.667,613680.000,1.000
39.230,14.311,15.978,11.561,3.164,2.206,-2.006,1.362,0.022,0.982,-0.111,-0.824,-0.183,1.709,66.667,613681.000,1.000
41.052,15.235,17.224,13.234,4.677,2.912,-0.980,1.947,0.022,0.984,-0.111,-0.732,-0.336,1.617,66.667,613682.000,1.000
42.949,16.028,19.093,15.581,6.341,3.629,0.909,2.444,0.023,0.983,-0.114,-0.702,-0.275,1.556,66.667,613683.000,1.000
44.032,16.165,20.586,17.728,7.798,3.954,3.123,2.717,0.024,0.981,-0.115,-0.885,-0.305,1.678,66.667,613684.000,1.000
43.460,15.198,20.633,18.653,8.660,3.671,4.958,2.615,0.026,0.981,-0.114,-0.946,-0.427,1.740,66.667,613685.000,1.000
41.187,13.376,19.084,18.005,9.017,3.249,6.071,2.306,0.027,0.979,-0.117,-0.885,-0.366,1.709,66.667,613686.000,1.000
37.999,11.658,16.814,16.302,9.313,3.521,6.361,2.203,0.025,0.979,-0.115,-0.824,-0.397,1.709,66.667,613687.000,1.000
35.026,11.139,15.067,14.573,9.938,4.961,5.710,2.689,0.027,0.978,-0.112,-0.793,-0.275,1.831,66.667,613688.000,1.000
33.149,12.421,14.751,13.880,11.145,7.540,4.473,4.144,0.026,0.977,-0.116,-0.732,-0.244,1.984,66.667,613689.000,1.000
32.257,14.901,15.687,14.552,12.664,10.441,3.288,6.609,0.028,0.978,-0.117,-0.641,-0.183,1.923,66.667,613690.000,1.000
31.095,16.690,16.391,15.682,13.282,11.874,2.070,9.127,0.028,0.979,-0.115,-0.519,-0.275,1.892,66.667,613691.000,1.000
28.546,16.092,15.376,15.983,11.830,10.432,0.222,10.190,0.030,0.980,-0.114,-0.549,-0.214,1.923,66.667,613692.000,1.000
24.964,13.225,12.745,15.158,8.720,6.722,-2.214,9.204,0.028,0.982,-0.112,-0.488,-0.183,1.923,66.667,613693.000,1.000
21.721,9.704,9.961,13.894,5.680,2.906,-4.325,6.910,0.030,0.983,-0.113,-0.519,-0.153,2.014,66.667,613694.000,1.000
19.863,7.194,8.365,12.866,4.191,1.053,-4.902,4.568,0.029,0.983,-0.114,-0.458,-0.061,2.045,66.667,613695.000,1.000
19.677,6.662,8.457,12.373,4.720,2.229,-3.041,3.385,0.029,0.982,-0.113,-0.427,-0.031,2.106,66.667,613696.000,1.000
21.018,8.309,10.118,12.576,6.936,6.268,1.117,4.263,0.029,0.982,-0.111,-0.427,-0.061,2.075,66.667,613697.000,1.000
23.441,11.527,12.831,13.515,10.018,11.751,6.110,7.257,0.028,0.983,-0.113,-0.488,0.000,2.106,66.667,613698.000,1.000
26.131,15.078,15.762,14.904,12.927,16.555,10.061,11.349,0.028,0.983,-0.113,-0.488,0.092,2.014,66.667,613699.000,1.000
28.021,17.634,17.961,16.115,14.776,18.875,11.788,14.944,0.029,0.984,-0.111,-0.610,0.000,2.014,66.667,613700.000,1.000
28.105,18.261,18.608,16.360,15.044,17.994,11.033,16.590,0.027,0.981,-0.109,-0.671,0.000,2.014,66.667,613701.000,1.000
25.886,16.656,17.291,15.071,13.656,14.495,8.291,15.611,0.026,0.982,-0.112,-0.610,-0.061,1.984,66.667,613702.000,1.000
21.867,13.332,14.356,12.387,11.131,9.943,4.645,12.531,0.027,0.980,-0.113,-0.580,-0.031,2.045,66.667,613703.000,1.000
17.496,9.523,10.884,9.205,8.407,5.948,1.176,8.726,0.029,0.982,-0.111,-0.488,0.031,1.923,66.667,613704.000,1.000
14.405,6.593,8.132,6.679,6.313,3.258,-1.702,5.499,0.029,0.980,-0.113,-0.427,0.122,1.953,66.667,613705.000,1.000
13.629,5.376,6.991,5.663,5.258,1.869,-3.950,3.594,0.030,0.980,-0.113,-0.427,0.153,2.014,66.667,613706.000,1.000
15.220,5.893,7.709,6.393,5.285,1.627,-5.242,3.276,0.030,0.979,-0.111,-0.366,0.061,2.045,66.667,613707.000,1.000
18.307,7.443,9.773,8.369,6.190,2.375,-5.053,4.454,0.029,0.979,-0.112,-0.305,0.122,1.923,66.667,613708.000,1.000
21.513,8.963,12.049,10.574,7.567,3.668,-3.280,6.702,0.030,0.979,-0.113,-0.336,0.122,2.045,66.667,613709.000,1.000
23.610,9.578,13.348,11.977,8.915,4.733,-0.522,9.337,0.031,0.980,-0.114,-0.244,0.214,2.045,66.667,613710.000,1.000
24.080,9.113,13.143,12.037,9.841,5.011,2.421,11.684,0.032,0.978,-0.113,-0.183,0.336,2.136,66.667,613711.000,1.000
23.203,8.035,11.760,10.798,10.089,4.405,4.865,13.204,0.034,0.979,-0.112,-0.153,0.458,2.350,66.667,613712.000,1.000
21.760,6.880,9.964,8.692,9.425,2.917,5.895,13.439,0.033,0.978,-0.113,-0.092,0.519,2.289,66.667,613713.000,1.000
20.671,6.026,8.555,6.441,7.870,0.720,4.830,12.389,0.034,0.978,-0.115,-0.122,0.641,2.472,66.667,613714.000,1.000
20.599,5.814,8.137,4.875,6.054,-1.329,2.429,10.922,0.035,0.979,-0.116,-0.092,0.793,2.594,66.667,613715.000,1.000
21.515,6.442,8.769,4.427,4.862,-2.090,0.522,10.080,0.036,0.981,-0.115,-0.061,0.763,2.747,66.667,613716.000,1.000
22.581,7.590,9.658,4.666,4.462,-1.291,-0.086,9.741,0.036,0.980,-0.114,0.000,0.854,2.716,66.667,613717.000,1.000
22.600,8.405,9.514,4.544,4.055,0.214,-0.289,8.719,0.036,0.982,-0.110,-0.061,0.854,2.869,66.667,613718.000,1.000
20.891,8.216,7.647,3.395,2.893,1.575,-0.988,6.432,0.035,0.982,-0.111,-0.122,1.068,2.869,66.667,613719.000,1.000
17.911,7.314,4.751,1.707,1.277,2.886,-1.932,3.804,0.034,0.983,-0.112,-0.153,1.160,2.869,66.667,613720.000,1.000
14.879,6.668,2.338,0.661,0.271,4.733,-2.207,2.429,0.034,0.981,-0.111,-0.183,1.282,2.808,66.667,613721.000,1.000
12.638,6.780,1.319,0.872,0.554,7.103,-1.108,3.148,0.033,0.982,-0.113,-0.214,1.312,2.930,66.667,613722.000,1.000
11.011,7.105,1.285,1.720,1.675,9.034,1.109,5.297,0.034,0.982,-0.114,-0.305,1.465,2.930,66.667,613723.000,1.000
9.309,6.704,1.175,2.006,2.451,9.363,3.098,7.203,0.035,0.981,-0.115,-0.305,1.495,2.960,66.667,613724.000,1.000
7.240,5.193,0.360,1.079,1.970,7.761,3.381,7.409,0.036,0.981,-0.112,-0.366,1.465,2.960,66.667,613725.000,1.000
5.158,3.038,-0.953,-0.700,0.220,5.087,1.504,5.580,0.034,0.980,-0.113,-0.366,1.556,2.991,66.667,613726.000,1.000
3.675,1.236,-2.002,-2.296,-1.967,2.830,-1.652,2.582,0.034,0.981,-0.111,-0.427,1.526,2.899,66.667,613727.000,1.000
3.200,0.698,-2.026,-2.702,-3.463,2.084,-4.518,-0.160,0.036,0.980,-0.112,-0.336,1.495,2.930,66.667,613728.000,1.000
3.579,1.589,-0.857,-1.640,-3.628,2.768,-5.864,-1.635,0.035,0.982,-0.113,-0.458,1.587,2.899,66.667,613729.000,1.000
4.109,3.165,0.914,0.205,-2.682,3.887,-5.391,-1.845,0.035,0.982,-0.111,-0.488,1.617,2.899,66.667,613730.000,1.000
4.064,4.373,2.446,1.713,-1.332,4.597,-3.471,-1.477,0.036,0.981,-0.110,-0.580,1.678,2.808,66.667,613731.000,1.000
3.166,4.578,3.237,2.157,-0.218,4.695,-1.023,-1.167,0.036,0.980,-0.112,-0.549,1.648,2.747,66.667,613732.000,1.000
1.497,3.720,3.148,1.493,0.178,4.125,0.265,-1.258,0.036,0.978,-0.112,-0.519,1.648,2.686,66.667,613733.000,1.000
-0.864,1.980,2.118,0.029,-0.572,2.639,-1.229,-2.034,0.039,0.978,-0.113,-0.519,1.587,2.777,66.667,613734.000,1.000
-3.864,-0.422,0.119,-1.926,-2.695,0.020,-5.771,-3.776,0.039,0.979,-0.114,-0.519,1.556,2.655,66.667,613735.000,1.000
-7.190,-3.064,-2.548,-4.053,-5.905,-3.657,-12.058,-6.414,0.040,0.979,-0.115,-0.366,1.587,2.594,66.667,613736.000,1.000
-10.126,-5.135,-5.064,-5.876,-9.247,-7.750,-17.666,-9.137,0.038,0.980,-0.114,-0.305,1.556,2.472,66.667,613737.000,1.000
-11.792,-5.669,-6.357,-6.807,-11.380,-10.932,-19.840,-10.596,0.038,0.979,-0.114,-0.244,1.587,2.411,66.667,613738.000,1.000
-11.708,-4.253,-5.776,-6.521,-11.448,-12.036,-17.254,-10.005,0.037,0.978,-0.111,-0.488,1.617,2.563,66.667,613739.000,1.000
-10.299,-1.699,-3.719,-5.428,-9.921,-11.368,-11.813,-8.250,0.037,0.979,-0.111,-0.305,1.617,2.441,66.667,613740.000,1.000
-8.714,0.311,-1.432,-4.534,-8.233,-10.498,-7.716,-7.418,0.037,0.979,-0.113,-0.397,1.556,2.258,66.667,613741.000,1.000
-7.821,0.706,0.101,-4.442,-7.222,-10.335,-7.567,-8.623,0.037,0.980,-0.112,-0.397,1.526,2.228,66.667,613742.000,1.000
-7.379,0.073,1.062,-4.547,-6.193,-10.034,-9.897,-10.598,0.036,0.980,-0.113,-0.366,1.373,2.136,66.667,613743.000,1.000
-6.425,-0.089,2.361,-3.585,-3.872,-8.197,-11.147,-10.937,0.033,0.982,-0.111,-0.336,1.373,2.014,66.667,613744.000,1.000
-4.394,1.053,4.459,-0.926,0.005,-4.710,-9.366,-8.437,0.034,0.983,-0.108,-0.366,1.221,1.801,66.667,613745.000,1.000
-1.489,3.229,7.075,3.030,4.504,-0.856,-5.281,-3.747,0.033,0.982,-0.108,-0.366,1.129,1.678,66.667,613746.000,1.000
1.870,5.821,9.794,7.452,8.538,2.026,-0.694,1.668,0.034,0.984,-0.108,-0.397,1.068,1.526,66.667,613747.000,1.000
5.273,8.222,12.257,11.402,11.419,3.328,2.932,6.348,0.033,0.985,-0.110,-0.427,0.885,1.556,66.667,613748.000,1.000
8.131,9.740,13.928,13.875,12.701,3.035,4.848,9.143,0.032,0.985,-0.109,-0.427,0.763,1.373,66.667,613749.000,1.000
9.988,10.004,14.395,14.349,12.364,1.718,5.169,9.749,0.032,0.984,-0.110,-0.458,0.610,1.312,66.667,613750.000,1.000
10.970,9.413,13.861,13.319,11.115,0.513,4.873,8.966,0.033,0.989,-0.110,-0.610,0.397,1.282,66.667,613751.000,1.000
11.480,8.672,12.872,11.838,9.907,0.423,5.113,7.933,0.033,0.990,-0.110,-0.702,0.183,1.068,66.667,613752.000,1.000
11.592,8.002,11.727,10.591,9.096,1.452,6.140,7.087,0.031,0.992,-0.108,-0.793,0.000,0.946,66.667,613753.000,1.000
11.169,7.180,10.464,9.646,8.317,2.607,6.993,6.075,0.033,0.990,-0.110,-0.854,0.000,0.916,66.667,613754.000,1.000
10.373,6.144,9.197,8.859,7.136,2.823,6.494,4.632,0.033,0.989,-0.110,-0.916,-0.214,0.854,66.667,613755.000,1.000
9.642,5.182,8.170,8.178,5.561,1.818,4.519,3.127,0.033,0.987,-0.107,-1.068,-0.275,0.732,66.667,613756.000,1.000
9.153,4.528,7.439,7.539,3.862,0.013,1.884,2.036,0.035,0.984,-0.109,-1.160,-0.397,0.641,66.667,613757.000,1.000
8.572,3.985,6.666,6.709,2.136,-2.108,-0.669,1.258,0.033,0.985,-0.109,-1.129,-0.549,0.488,66.667,613758.000,1.000
7.490,3.195,5.441,5.482,0.401,-3.996,-2.645,0.376,0.030,0.986,-0.111,-1.099,-0.641,0.397,66.667,613759.000,1.000
6.143,2.318,3.944,4.192,-0.897,-4.672,-3.430,-0.569,0.030,0.983,-0.111,-1.221,-0.732,0.336,66.667,613760.000,1.000
5.439,2.020,3.016,3.653,-1.035,-3.432,-2.682,-1.041,0.030,0.985,-0.110,-1.221,-0.885,0.183,66.667,613761.000,1.000
5.954,2.465,3.175,4.215,-0.069,-1.186,-1.148,-0.870,0.029,0.984,-0.109,-1.251,-1.007,0.122,66.667,613762.000,1.000
7.059,2.640,3.721,5.093,0.669,-0.315,-0.565,-0.780,0.028,0.983,-0.106,-1.160,-1.160,0.183,66.667,613763.000,1.000
7.443,1.233,3.289,5.002,-0.382,-2.650,-2.380,-1.851,0.029,0.981,-0.106,-1.221,-1.251,0.031,66.667,613764.000,1.000
6.383,-1.983,1.226,3.353,-3.542,-7.718,-6.440,-4.560,0.027,0.982,-0.108,-1.190,-1.343,-0.092,66.667,613765.000,1.000
4.141,-5.994,-1.942,0.655,-7.670,-13.093,-11.022,-8.286,0.028,0.983,-0.105,-1.282,-1.434,-0.122,66.667,613766.000,1.000
1.359,-9.476,-5.155,-2.016,-11.159,-16.356,-14.334,-11.716,0.029,0.981,-0.106,-1.251,-1.495,-0.153,66.667,613767.000,1.000
-1.425,-11.532,-7.507,-3.676,-12.848,-16.654,-15.794,-13.664,0.026,0.980,-0.106,-1.251,-1.740,-0.153,66.667,613768.000,1.000
-3.871,-11.906,-8.557,-3.891,-12.387,-14.733,-15.717,-13.564,0.028,0.981,-0.106,-1.129,-1.770,-0.214,66.667,613769.000,1.000
-5.903,-11.107,-8.554,-3.060,-10.421,-12.134,-14.693,-11.759,0.025,0.979,-0.107,-1.160,-1.984,-0.244,66.667,613770.000,1.000
-7.763,-10.356,-8.383,-2.303,-8.505,-10.549,-13.672,-9.531,0.026,0.980,-0.106,-1.221,-2.075,-0.336,66.667,613771.000,1.000
-9.726,-10.875,-8.935,-2.643,-8.176,-11.079,-13.670,-8.239,0.024,0.980,-0.106,-0.977,-2.136,-0.305,66.667,613772.000,1.000
-11.644,-12.919,-10.313,-4.103,-9.759,-13.429,-14.750,-8.177,0.026,0.980,-0.104,-0.916,-2.289,-0.244,66.667,613773.000,1.000
-13.064,-15.674,-11.880,-5.805,-12.266,-16.132,-15.825,-8.599,0.024,0.979,-0.102,-0.854,-2.228,-0.336,66.667,613774.000,1.000
-13.853,-18.069,-13.039,-6.927,-14.351,-17.730,-15.694,-8.708,0.025,0.979,-0.103,-0.885,-2.258,-0.275,66.667,613775.000,1.000
-14.361,-19.399,-13.690,-7.252,-15.098,-17.537,-13.958,-8.301,0.024,0.979,-0.104,-0.763,-2.380,-0.305,66.667,613776.000,1.000
-14.912,-19.368,-13.951,-6.960,-14.187,-15.580,-11.055,-7.628,0.024,0.980,-0.103,-0.793,-2.411,-0.336,66.667,613777.000,1.000
-15.312,-17.866,-13.632,-6.174,-11.753,-12.295,-7.690,-6.898,0.024,0.981,-0.106,-0.793,-2.533,-0.336,66.667,613778.000,1.000
-15.015,-14.982,-12.266,-4.895,-8.320,-8.415,-4.397,-6.050,0.025,0.981,-0.110,-0.793,-2.563,-0.336,66.667,613779.000,1.000
-13.869,-11.439,-9.858,-3.401,-4.897,-5.134,-1.754,-5.122,0.022,0.982,-0.104,-0.793,-2.625,-0.305,66.667,613780.000,1.000
-12.495,-8.633,-7.312,-2.386,-2.709,-3.845,-0.497,-4.499,0.023,0.982,-0.104,-0.671,-2.747,-0.183,66.667,613781.000,1.000
-11.713,-7.668,-5.763,-2.407,-2.333,-5.017,-0.836,-4.496,0.024,0.981,-0.104,-0.702,-2.716,-0.061,66.667,613782.000,1.000
-11.814,-8.479,-5.718,-3.360,-3.234,-7.538,-2.012,-4.950,0.022,0.980,-0.105,-0.854,-2.808,0.092,66.667,613783.000,1.000
-12.596,-10.076,-6.981,-4.698,-4.355,-9.644,-2.873,-5.455,0.022,0.980,-0.107,-0.763,-2.869,-0.031,66.667,613784.000,1.000
-13.741,-11.345,-8.981,-5.878,-4.878,-10.129,-2.706,-5.675,0.023,0.981,-0.107,-0.732,-2.869,-0.031,66.667,613785.000,1.000
-14.932,-11.540,-10.938,-6.542,-4.461,-8.579,-1.546,-5.438,0.022,0.982,-0.107,-0.702,-2.899,-0.031,66.667,613786.000,1.000
-15.909,-10.504,-12.140,-6.602,-3.275,-5.365,-0.219,-4.939,0.024,0.981,-0.106,-0.641,-2.991,0.000,66.667,613787.000,1.000
-16.594,-8.712,-12.358,-6.330,-1.935,-1.721,0.176,-4.667,0.025,0.979,-0.104,-0.641,-2.960,-0.031,66.667,613788.000,1.000
-17.075,-6.910,-11.902,-6.141,-0.983,0.923,-0.519,-4.666,0.026,0.976,-0.103,-0.519,-2.899,0.000,66.667,613789.000,1.000
-17.444,-5.647,-11.320,-6.253,-0.462,1.868,-1.424,-4.312,0.026,0.973,-0.102,-0.549,-2.777,0.061,66.667,613790.000,1.000
-17.854,-5.233,-11.244,-6.728,-0.297,1.163,-2.032,-3.184,0.028,0.971,-0.103,-0.458,-2.747,0.275,66.667,613791.000,1.000
-18.538,-5.801,-12.211,-7.639,-0.687,-0.767,-2.667,-1.608,0.030,0.969,-0.105,-0.366,-2.625,0.427,66.667,613792.000,1.000
-19.389,-6.959,-14.063,-8.828,-1.656,-2.917,-3.428,-0.216,0.030,0.970,-0.106,-0.183,-2.441,0.610,66.667,613793.000,1.000
-19.602,-7.618,-15.616,-9.665,-2.524,-3.707,-3.609,0.657,0.029,0.974,-0.109,-0.061,-2.289,0.702,66.667,613794.000,1.000
-18.177,-6.697,-15.386,-9.413,-2.358,-2.065,-2.319,1.168,0.030,0.977,-0.109,0.122,-2.136,0.763,66.667,613795.000,1.000
-14.965,-4.150,-12.887,-7.983,-0.970,1.537,0.714,1.705,0.031,0.979,-0.109,0.122,-1.984,0.854,66.667,613796.000,1.000
-11.096,-1.172,-9.188,-6.178,0.736,5.408,4.759,2.373,0.030,0.982,-0.109,0.214,-1.770,0.916,66.667,613797.000,1.000
-8.227,0.692,-6.100,-5.042,1.511,7.904,8.272,2.867,0.031,0.983,-0.108,0.275,-1.587,1.038,66.667,613798.000,1.000
-7.414,0.668,-4.906,-5.072,0.725,8.383,9.860,2.819,0.029,0.983,-0.107,0.305,-1.343,0.977,66.667,613799.000,1.000
-8.740,-1.003,-5.851,-6.131,-1.452,7.166,9.084,1.964,0.029,0.983,-0.109,0.397,-1.404,1.099,66.667,613800.000,1.000
-11.607,-3.623,-8.417,-7.887,-4.508,4.894,6.329,0.103,0.026,0.985,-0.109,0.305,-1.343,1.129,66.667,613801.000,1.000
-15.034,-6.533,-11.743,-10.017,-7.920,2.152,2.399,-2.741,0.023,0.987,-0.109,0.214,-1.251,1.099,66.667,613802.000,1.000
-17.967,-9.324,-15.019,-12.234,-11.266,-0.593,-1.768,-6.279,0.020,0.987,-0.107,0.183,-1.190,1.038,66.667,613803.000,1.000
-19.825,-11.912,-17.779,-14.377,-14.325,-3.123,-5.434,-10.106,0.019,0.989,-0.106,0.122,-1.251,0.854,66.667,613804.000,1.000
-20.754,-14.382,-19.901,-16.400,-17.014,-5.508,-8.153,-13.717,0.017,0.991,-0.104,-0.092,-1.251,0.610,66.667,613805.000,1.000
-21.317,-16.694,-21.377,-18.208,-19.165,-7.939,-9.552,-16.490,0.017,0.992,-0.105,-0.275,-1.343,0.549,66.667,613806.000,1.000
-21.991,-18.546,-22.158,-19.552,-20.455,-10.472,-9.404,-17.920,0.018,0.992,-0.106,-0.458,-1.404,0.519,66.667,613807.000,1.000
-22.818,-19.419,-22.047,-19.988,-20.463,-12.682,-8.017,-17.794,0.019,0.991,-0.104,-0.549,-1.495,0.305,66.667,613808.000,1.000
-23.389,-18.761,-20.735,-18.978,-18.851,-13.640,-6.117,-16.123,0.022,0.988,-0.105,-0.641,-1.587,0.305,66.667,613809.000,1.000
-23.192,-16.433,-18.134,-16.256,-15.725,-12.717,-4.266,-13.126,0.023,0.989,-0.103,-0.763,-1.587,0.275,66.667,613810.000,1.000
-22.106,-13.084,-14.739,-12.233,-11.836,-10.307,-2.448,-9.332,0.026,0.989,-0.106,-0.732,-1.556,0.305,66.667,613811.000,1.000
-20.592,-9.942,-11.576,-8.031,-8.291,-7.524,-0.308,-5.562,0.028,0.990,-0.103,-0.793,-1.404,0.458,66.667,613812.000,1.000
-19.406,-8.134,-9.635,-4.963,-5.917,-5.370,2.167,-2.626,0.029,0.989,-0.103,-0.854,-1.251,0.488,66.667,613813.000,1.000
-18.957,-7.937,-9.166,-3.740,-4.693,-3.970,4.567,-0.827,0.028,0.989,-0.104,-0.916,-1.251,0.549,66.667,613814.000,1.000
-18.946,-8.550,-9.465,-4.030,-3.790,-2.404,6.701,0.300,0.025,0.988,-0.103,-1.007,-1.221,0.854,66.667,613815.000,1.000
-18.739,-8.719,-9.477,-4.862,-2.333,0.350,8.903,1.558,0.026,0.985,-0.102,-1.068,-1.190,1.038,66.667,613816.000,1.000
-18.063,-7.759,-8.683,-5.533,-0.227,4.109,11.401,3.203,0.023,0.986,-0.104,-1.099,-1.190,1.068,66.667,613817.000,1.000
-17.193,-5.926,-7.362,-6.054,1.831,7.478,13.667,4.652,0.022,0.984,-0.103,-1.099,-1.160,1.160,66.667,613818.000,1.000
-16.585,-3.915,-6.096,-6.756,3.107,9.148,14.743,5.221,0.022,0.983,-0.102,-1.038,-1.160,1.160,66.667,613819.000,1.000
-16.551,-2.371,-5.355,-7.815,3.335,8.735,13.922,4.692,0.022,0.983,-0.104,-0.977,-1.221,1.282,66.667,613820.000,1.000
-17.124,-1.683,-5.406,-9.196,2.627,6.773,11.195,3.181,0.023,0.980,-0.103,-0.885,-1.282,1.251,66.667,613821.000,1.000
-17.888,-1.734,-6.099,-10.690,1.392,4.564,7.595,1.068,0.020,0.982,-0.102,-0.671,-1.312,1.190,66.667,613822.000,1.000
-18.187,-2.062,-6.898,-12.026,0.133,3.474,4.705,-1.049,0.020,0.981,-0.103,-0.610,-1.312,1.129,66.667,613823.000,1.000
-17.741,-2.518,-7.445,-13.147,-0.998,3.810,3.406,-2.725,0.020,0.982,-0.103,-0.549,-1.343,1.221,66.667,613824.000,1.000
-16.668,-3.180,-7.638,-14.071,-2.001,4.995,3.659,-3.615,0.020,0.982,-0.100,-0.549,-1.312,1.190,66.667,613825.000,1.000
-14.845,-3.529,-7.062,-14.325,-2.291,6.823,5.394,-2.994,0.021,0.980,-0.100,-0.427,-1.404,1.221,66.667,613826.000,1.000
-11.670,-2.344,-4.889,-12.851,-0.765,9.779,8.772,0.047,0.024,0.982,-0.100,-0.427,-1.404,1.190,66.667,613827.000,1.000
-6.657,1.278,-0.606,-8.790,3.172,14.107,13.721,5.726,0.025,0.979,-0.103,-0.366,-1.495,1.068,66.667,613828.000,1.000
-0.212,6.905,5.276,-2.475,8.695,18.967,19.487,12.914,0.025,0.976,-0.101,-0.244,-1.495,1.007,66.667,613829.000,1.000
6.364,12.901,11.436,4.529,13.826,22.676,24.331,19.369,0.027,0.977,-0.101,-0.153,-1.343,0.885,66.667,613830.000,1.000
11.778,17.684,16.761,10.567,16.876,23.973,26.247,23.030,0.025,0.976,-0.104,-0.092,-1.282,1.007,66.667,613831.000,1.000
15.510,20.702,20.972,14.882,17.593,22.960,24.661,23.381,0.027,0.977,-0.104,0.061,-1.312,1.007,66.667,613832.000,1.000
17.693,22.195,24.280,17.560,16.925,20.782,21.190,21.567,0.028,0.976,-0.102,0.183,-1.221,0.885,66.667,613833.000,1.000
18.553,22.483,26.778,18.991,16.080,18.672,18.394,19.311,0.026,0.977,-0.103,0.275,-1.099,0.885,66.667,613834.000,1.000
18.117,21.678,28.256,19.526,15.816,17.287,17.592,17.779,0.026,0.975,-0.104,0.427,-1.038,0.977,66.667,613835.000,1.000
16.285,19.771,28.322,19.341,16.110,16.432,17.815,17.093,0.027,0.973,-0.104,0.488,-0.977,0.977,66.667,613836.000,1.000
13.027,16.738,26.621,18.381,16.268,15.306,16.892,16.493,0.027,0.975,-0.105,0.702,-1.007,0.916,66.667,613837.000,1.000
8.686,12.811,23.218,16.584,15.629,13.357,13.615,15.112,0.026,0.973,-0.103,0.854,-0.946,0.854,66.667,613838.000,1.000
4.129,8.784,18.862,14.258,14.265,11.003,9.004,12.925,0.025,0.975,-0.105,0.977,-0.946,0.793,66.667,613839.000,1.000
0.330,5.658,14.560,11.963,12.818,9.309,5.546,10.777,0.026,0.974,-0.104,1.160,-0.916,0.763,66.667,613840.000,1.000
-2.440,3.730,10.704,9.881,11.666,8.925,5.195,9.491,0.027,0.975,-0.105,1.221,-0.793,0.793,66.667,613841.000,1.000
-4.720,2.403,6.964,7.733,10.639,9.559,7.965,9.287,0.028,0.976,-0.106,1.221,-0.763,0.702,66.667,613842.000,1.000
-7.063,0.989,3.090,5.397,9.487,10.393,12.046,9.850,0.027,0.977,-0.105,1.404,-0.763,0.702,66.667,613843.000,1.000
-9.666,-0.846,-0.821,3.043,8.037,10.547,15.046,10.400,0.028,0.979,-0.104,1.465,-0.732,0.702,66.667,613844.000,1.000
-12.745,-3.362,-4.820,0.650,5.881,9.204,15.109,9.742,0.027,0.978,-0.105,1.465,-0.641,0.763,66.667,613845.000,1.000
-16.454,-6.612,-9.057,-1.980,2.611,6.051,11.639,6.956,0.024,0.981,-0.109,1.495,-0.641,0.793,66.667,613846.000,1.000
-20.257,-9.909,-13.085,-4.601,-1.396,1.982,5.777,2.460,0.024,0.980,-0.107,1.495,-0.580,0.824,66.667,613847.000,1.000
-22.963,-12.026,-15.784,-6.380,-4.838,-1.162,-0.105,-1.889,0.024,0.983,-0.107,1.465,-0.610,0.916,66.667,613848.000,1.000
-23.700,-12.198,-16.352,-6.671,-6.545,-2.050,-4.000,-4.197,0.021,0.987,-0.109,1.495,-0.793,0.977,66.667,613849.000,1.000
-22.614,-10.676,-15.068,-5.716,-6.441,-0.803,-5.335,-3.964,0.019,0.988,-0.110,1.343,-0.702,1.068,66.667,613850.000,1.000
-20.516,-8.238,-12.865,-4.259,-5.210,1.669,-4.331,-1.925,0.020,0.992,-0.108,1.251,-0.824,1.160,66.667,613851.000,1.000
-18.292,-5.611,-10.566,-2.830,-3.562,4.508,-1.271,0.847,0.019,0.996,-0.108,1.190,-0.854,1.190,66.667,613852.000,1.000
-16.817,-3.565,-8.832,-1.784,-2.255,6.753,2.888,3.204,0.019,0.996,-0.106,0.946,-1.038,1.221,66.667,613853.000,1.000
-16.923,-2.980,-8.347,-1.633,-2.267,7.223,6.100,3.976,0.020,0.992,-0.104,0.702,-1.129,1.221,66.667,613854.000,1.000
-18.908,-4.303,-9.414,-2.725,-4.199,5.283,6.639,2.632,0.021,0.990,-0.103,0.427,-1.190,1.129,66.667,613855.000,1.000
-22.018,-6.955,-11.377,-4.662,-7.564,1.558,4.481,-0.235,0.019,0.987,-0.104,0.153,-1.343,1.068,66.667,613856.000,1.000
-24.734,-9.593,-12.886,-6.456,-11.128,-2.568,0.415,-3.596,0.021,0.986,-0.102,-0.031,-1.465,1.129,66.667,613857.000,1.000
-25.741,-11.084,-12.916,-7.320,-13.875,-6.034,-5.123,-6.866,0.023,0.985,-0.105,-0.122,-1.526,1.160,66.667,613858.000,1.000
-24.565,-11.063,-11.357,-7.078,-15.401,-8.418,-11.332,-9.751,0.024,0.983,-0.108,-0.183,-1.465,1.099,66.667,613859.000,1.000
-21.455,-9.776,-8.794,-6.018,-15.773,-9.693,-16.587,-11.936,0.024,0.983,-0.110,-0.122,-1.495,1.282,66.667,613860.000,1.000
-17.025,-7.789,-6.035,-4.661,-15.429,-10.195,-19.613,-13.350,0.025,0.983,-0.109,-0.153,-1.526,1.343,66.667,613861.000,1.000
-12.078,-5.861,-3.839,-3.633,-15.092,-10.533,-20.409,-14.309,0.028,0.981,-0.112,-0.122,-1.495,1.404,66.667,613862.000,1.000
-7.587,-4.761,-2.731,-3.459,-15.412,-11.119,-19.691,-15.217,0.028,0.980,-0.113,-0.153,-1.495,1.373,66.667,613863.000,1.000
-4.349,-4.810,-2.695,-4.207,-16.509,-11.894,-18.083,-16.203,0.028,0.979,-0.109,-0.122,-1.495,1.404,66.667,613864.000,1.000
-2.358,-5.559,-2.962,-5.271,-17.835,-12.708,-16.250,-17.022,0.030,0.979,-0.112,0.000,-1.404,1.495,66.667,613865.000,1.000
-0.772,-6.068,-2.424,-5.704,-18.502,-13.612,-14.841,-17.163,0.027,0.978,-0.112,0.244,-1.404,1.617,66.667,613866.000,1.000
1.194,-5.633,-0.534,-4.975,-17.883,-14.647,-13.869,-16.211,0.027,0.980,-0.110,0.214,-1.251,1.587,66.667,613867.000,1.000
3.465,-4.349,2.133,-3.432,-16.147,-15.763,-13.042,-14.402,0.025,0.980,-0.106,0.214,-1.099,1.404,66.667,613868.000,1.000
5.255,-3.007,4.234,-2.036,-14.251,-16.949,-12.524,-12.717,0.021,0.980,-0.106,0.214,-1.251,1.343,66.667,613869.000,1.000
5.839,-2.579,4.557,-1.701,-13.270,-18.145,-12.801,-12.220,0.020,0.978,-0.108,0.244,-1.282,1.221,66.667,613870.000,1.000
5.017,-3.775,2.610,-2.917,-13.825,-19.305,-14.166,-13.382,0.020,0.978,-0.108,0.244,-1.251,1.068,66.667,613871.000,1.000
3.005,-6.751,-1.328,-5.691,-15.960,-20.580,-16.419,-15.848,0.021,0.979,-0.108,0.122,-1.373,0.824,66.667,613872.000,1.000
0.310,-10.860,-6.338,-9.467,-19.092,-22.027,-18.595,-18.500,0.022,0.978,-0.110,0.275,-1.404,0.641,66.667,613873.000,1.000
-2.310,-14.805,-11.134,-13.224,-22.187,-23.262,-19.380,-20.019,0.025,0.978,-0.108,0.305,-1.434,0.397,66.667,613874.000,1.000
-4.165,-17.443,-14.657,-15.983,-24.326,-23.769,-18.373,-19.838,0.027,0.980,-0.112,0.336,-1.434,0.336,66.667,613875.000,1.000
-4.967,-18.336,-16.472,-17.218,-25.054,-23.225,-16.412,-18.360,0.028,0.983,-0.108,0.336,-1.251,0.275,66.667,613876.000,1.000
-4.853,-17.596,-16.717,-16.891,-24.272,-21.493,-14.463,-16.232,0.028,0.985,-0.108,0.275,-1.221,0.336,66.667,613877.000,1.000
-4.349,-15.763,-16.075,-15.528,-22.324,-19.016,-13.128,-14.077,0.030,0.985,-0.105,0.336,-1.129,0.336,66.667,613878.000,1.000
-4.281,-13.776,-15.625,-14.170,-20.087,-16.999,-13.118,-12.779,0.029,0.986,-0.105,0.183,-1.129,0.397,66.667,613879.000,1.000
-5.134,-12.315,-15.963,-13.571,-18.192,-16.238,-14.720,-12.822,0.028,0.987,-0.106,0.122,-1.129,0.641,66.667,613880.000,1.000
-6.451,-11.188,-16.534,-13.432,-16.268,-15.971,-16.632,-13.348,0.028,0.986,-0.109,0.153,-1.099,0.671,66.667,613881.000,1.000
-7.366,-9.879,-16.406,-12.989,-13.673,-14.817,-16.915,-13.042,0.028,0.985,-0.107,0.061,-0.977,0.671,66.667,613882.000,1.000
-7.628,-8.394,-15.468,-12.116,-10.596,-12.436,-14.968,-11.732,0.026,0.985,-0.106,-0.061,-0.854,0.793,66.667,613883.000,1.000
-7.553,-7.005,-14.217,-11.218,-7.683,-9.472,-11.387,-10.127,0.025,0.984,-0.106,-0.061,-0.824,0.916,66.667,613884.000,1.000
-7.163,-5.548,-12.706,-10.315,-5.012,-6.366,-6.771,-8.540,0.026,0.984,-0.106,0.000,-0.702,1.007,66.667,613885.000,1.000
-6.007,-3.536,-10.395,-8.944,-2.174,-3.021,-1.769,-6.754,0.027,0.983,-0.107,0.061,-0.610,0.977,66.667,613886.000,1.000
-3.782,-0.773,-6.878,-6.819,0.935,0.554,2.535,-4.623,0.026,0.982,-0.109,0.000,-0.580,1.099,66.667,613887.000,1.000
-0.659,2.447,-2.326,-4.134,3.881,3.713,5.118,-2.199,0.024,0.980,-0.107,-0.061,-0.580,1.129,66.667,613888.000,1.000
2.864,5.521,2.584,-1.380,5.985,5.427,5.602,0.284,0.025,0.981,-0.109,0.031,-0.580,1.160,66.667,613889.000,1.000
6.186,7.754,6.921,0.882,6.660,4.982,4.130,2.227,0.026,0.982,-0.109,0.183,-0.580,1.221,66.667,613890.000,1.000
8.886,8.744,9.985,2.350,5.870,2.604,1.335,2.969,0.027,0.982,-0.105,0.153,-0.549,1.221,66.667,613891.000,1.000
11.012,8.773,11.846,3.306,4.469,-0.378,-1.512,2.451,0.027,0.981,-0.105,0.153,-0.519,1.160,66.667,613892.000,1.000
13.080,8.764,13.345,4.484,3.864,-2.108,-3.086,1.369,0.026,0.982,-0.105,0.244,-0.458,1.190,66.667,613893.000,1.000
15.705,9.761,15.458,6.529,5.169,-1.284,-2.812,0.705,0.025,0.980,-0.107,0.244,-0.427,1.160,66.667,613894.000,1.000
19.015,12.177,18.480,9.401,8.488,1.974,-0.972,1.159,0.026,0.982,-0.110,0.305,-0.458,1.221,66.667,613895.000,1.000
22.304,15.315,21.616,12.187,12.773,6.156,1.608,2.709,0.025,0.984,-0.111,0.244,-0.305,1.190,66.667,613896.000,1.000
24.475,17.829,23.502,13.652,16.430,9.418,3.833,4.611,0.027,0.983,-0.107,0.275,-0.305,1.190,66.667,613897.000,1.000
25.053,18.866,23.421,13.327,18.444,10.893,4.886,6.099,0.027,0.982,-0.105,0.305,-0.336,1.129,66.667,613898.000,1.000
24.644,18.723,21.957,12.054,19.057,11.154,5.015,7.200,0.026,0.984,-0.107,0.275,-0.458,1.099,66.667,613899.000,1.000
24.338,18.370,20.384,11.263,19.336,11.457,5.450,8.588,0.024,0.983,-0.105,0.305,-0.397,1.099,66.667,613900.000,1.000
24.675,18.405,19.491,11.689,20.087,12.612,7.386,10.661,0.024,0.983,-0.105,0.275,-0.305,1.190,66.667,613901.000,1.000
25.199,18.485,19.043,12.837,21.126,14.450,10.936,12.910,0.024,0.984,-0.105,0.122,-0.244,1.099,66.667,613902.000,1.000
25.056,17.745,18.260,13.610,21.462,16.003,14.540,14.061,0.024,0.985,-0.106,0.031,-0.305,1.160,66.667,613903.000,1.000
24.002,15.794,16.777,13.393,20.245,16.208,15.754,13.142,0.023,0.984,-0.107,0.031,-0.549,1.221,66.667,613904.000,1.000
22.632,13.223,15.034,12.544,17.618,14.634,13.295,10.589,0.022,0.983,-0.106,-0.031,-0.580,1.160,66.667,613905.000,1.000
21.493,10.987,13.623,11.798,14.450,11.576,8.105,7.888,0.025,0.983,-0.107,-0.061,-0.549,1.099,66.667,613906.000,1.000
20.268,9.406,12.375,11.317,11.331,7.525,2.217,6.128,0.023,0.982,-0.104,-0.061,-0.488,1.160,66.667,613907.000,1.000
18.020,7.849,10.323,10.492,8.089,2.834,-2.838,5.238,0.023,0.981,-0.103,-0.031,-0.610,1.099,66.667,613908.000,1.000
14.093,5.406,6.566,8.605,4.291,-1.990,-6.406,4.489,0.024,0.983,-0.108,-0.153,-0.580,1.068,66.667,613909.000,1.000
8.744,1.800,1.122,5.564,-0.057,-6.022,-8.401,3.312,0.023,0.982,-0.106,-0.061,-0.732,1.129,66.667,613910.000,1.000
3.063,-2.322,-4.995,2.005,-4.371,-8.493,-9.212,1.635,0.023,0.983,-0.104,-0.031,-0.793,1.129,66.667,613911.000,1.000
-1.539,-5.776,-10.312,-1.111,-7.814,-9.398,-9.414,-0.183,0.023,0.983,-0.105,-0.092,-0.885,1.190,66.667,613912.000,1.000
-3.979,-7.484,-13.603,-3.027,-9.676,-9.135,-9.072,-1.536,0.024,0.983,-0.104,0.000,-0.854,1.221,66.667,613913.000,1.000
-4.189,-7.209,-14.629,-3.743,-9.944,-8.158,-7.954,-2.146,0.022,0.982,-0.104,-0.031,-0.916,1.160,66.667,613914.000,1.000
-3.270,-5.851,-14.398,-4.127,-9.641,-7.291,-6.718,-2.643,0.021,0.983,-0.104,-0.061,-0.977,1.068,66.667,613915.000,1.000
-2.529,-4.599,-14.174,-5.032,-9.981,-7.432,-6.816,-3.989,0.022,0.981,-0.105,-0.122,-1.068,1.160,66.667,613916.000,1.000
-2.352,-3.777,-14.222,-6.312,-11.122,-8.544,-8.949,-6.274,0.020,0.980,-0.105,-0.092,-1.099,1.129,66.667,613917.000,1.000
-2.286,-2.972,-13.987,-7.118,-12.266,-9.710,-12.456,-8.678,0.022,0.980,-0.106,-0.092,-1.099,1.129,66.667,613918.000,1.000
-1.962,-2.026,-13.204,-6.986,-12.736,-10.153,-15.834,-10.387,0.022,0.979,-0.105,-0.092,-1.099,1.129,66.667,613919.000,1.000
-1.429,-1.227,-12.150,-6.140,-12.340,-9.578,-17.360,-11.050,0.023,0.980,-0.106,0.092,-1.160,1.038,66.667,613920.000,1.000
-0.868,-0.791,-11.106,-5.057,-11.108,-7.947,-16.089,-10.728,0.023,0.980,-0.105,0.122,-1.251,1.007,66.667,613921.000,1.000
-0.516,-0.784,-10.250,-4.231,-9.363,-5.748,-12.882,-9.862,0.025,0.980,-0.106,0.153,-1.221,0.946,66.667,613922.000,1.000
-0.655,-1.253,-9.729,-3.974,-7.628,-4.005,-9.733,-8.884,0.024,0.982,-0.104,0.122,-1.282,1.038,66.667,613923.000,1.000
-1.305,-1.987,-9.352,-4.083,-6.120,-3.403,-7.935,-7.773,0.024,0.982,-0.104,0.092,-1.251,0.977,66.667,613924.000,1.000
-2.109,-2.511,-8.641,-4.066,-4.765,-3.812,-7.618,-6.520,0.024,0.981,-0.106,0.214,-1.282,1.068,66.667,613925.000,1.000
-2.653,-2.561,-7.397,-3.749,-3.682,-4.709,-8.317,-5.669,0.025,0.980,-0.106,0.153,-1.251,1.099,66.667,613926.000,1.000
-2.612,-2.220,-5.806,-3.298,-3.124,-5.585,-9.233,-5.759,0.027,0.983,-0.107,0.092,-1.099,1.038,66.667,613927.000,1.000
-1.633,-1.558,-3.943,-2.726,-2.942,-5.900,-9.468,-6.509,0.026,0.984,-0.104,0.092,-1.099,1.038,66.667,613928.000,1.000
0.506,-0.441,-1.611,-1.732,-2.432,-5.087,-8.383,-6.854,0.026,0.985,-0.105,0.092,-1.129,1.099,66.667,613929.000,1.000
3.461,1.147,1.187,-0.059,-0.905,-2.913,-5.862,-5.750,0.026,0.983,-0.108,0.061,-1.038,1.099,66.667,613930.000,1.000
6.268,2.821,3.890,2.108,1.635,0.193,-2.319,-2.972,0.025,0.986,-0.108,0.092,-0.885,1.099,66.667,613931.000,1.000
7.996,4.102,5.806,4.284,4.576,3.420,1.718,0.797,0.025,0.985,-0.105,-0.031,-0.885,1.160,66.667,613932.000,1.000
8.426,4.902,6.787,6.121,7.347,6.165,5.915,4.484,0.025,0.985,-0.106,-0.153,-0.793,1.221,66.667,613933.000,1.000
7.963,5.464,7.159,7.437,9.631,8.191,9.802,7.098,0.026,0.985,-0.104,-0.214,-0.854,1.221,66.667,613934.000,1.000
7.087,5.886,7.144,7.948,11.100,9.358,12.391,7.990,0.026,0.985,-0.105,-0.366,-0.854,1.282,66.667,613935.000,1.000
6.146,6.049,6.745,7.426,11.484,9.543,12.783,7.189,0.024,0.983,-0.105,-0.427,-0.854,1.282,66.667,613936.000,1.000
5.487,5.944,6.079,6.119,10.971,8.930,11.146,5.513,0.026,0.982,-0.106,-0.488,-0.854,1.251,66.667,613937.000,1.000
5.474,5.843,5.500,4.738,10.254,8.181,8.762,4.029,0.025,0.981,-0.107,-0.610,-0.824,1.312,66.667,613938.000,1.000
6.306,6.133,5.406,3.984,10.110,8.124,7.161,3.406,0.024,0.983,-0.106,-0.732,-0.763,1.282,66.667,613939.000,1.000
7.829,6.979,5.965,4.126,10.941,9.180,7.204,3.719,0.024,0.983,-0.108,-0.732,-0.824,1.190,66.667,613940.000,1.000
9.574,8.137,7.007,4.928,12.592,11.189,8.777,4.613,0.023,0.983,-0.105,-0.732,-0.793,1.099,66.667,613941.000,1.000
11.042,9.206,8.185,5.937,14.500,13.685,11.062,5.544,0.024,0.983,-0.106,-0.854,-0.916,1.190,66.667,613942.000,1.000
11.851,9.887,9.150,6.762,15.983,16.071,13.026,6.060,0.023,0.984,-0.106,-0.946,-0.916,1.312,66.667,613943.000,1.000
11.640,9.852,9.448,7.088,16.411,17.541,13.949,5.931,0.022,0.983,-0.109,-0.946,-0.916,1.282,66.667,613944.000,1.000
10.165,8.652,8.547,6.668,15.358,17.224,13.572,5.122,0.023,0.980,-0.107,-0.854,-0.946,1.312,66.667,613945.000,1.000
7.636,6.108,6.317,5.527,12.926,14.893,12.093,3.872,0.025,0.980,-0.107,-0.854,-0.824,1.251,66.667,613946.000,1.000
4.870,2.769,3.451,4.138,9.966,11.491,10.114,2.659,0.025,0.982,-0.109,-0.763,-0.854,1.190,66.667,613947.000,1.000
2.916,-0.347,1.131,3.140,7.626,8.439,8.023,1.776,0.025,0.980,-0.110,-0.854,-0.885,1.190,66.667,613948.000,1.000
2.373,-2.512,0.149,2.782,6.481,6.449,5.624,1.111,0.026,0.982,-0.107,-0.763,-0.885,1.251,66.667,613949.000,1.000
3.030,-3.637,0.464,2.745,6.251,5.296,2.783,0.395,0.026,0.981,-0.104,-0.732,-0.854,1.129,66.667,613950.000,1.000
4.192,-3.956,1.514,2.548,6.303,4.405,-0.033,-0.504,0.026,0.980,-0.104,-0.763,-0.824,1.129,66.667,613951.000,1.000
5.215,-3.748,2.688,1.957,6.191,3.282,-2.086,-1.431,0.026,0.983,-0.105,-0.824,-0.916,1.190,66.667,613952.000,1.000
5.856,-3.290,3.632,1.121,5.882,1.754,-2.759,-1.898,0.025,0.982,-0.105,-0.763,-0.854,1.160,66.667,613953.000,1.000
6.459,-2.593,4.526,0.573,5.857,0.379,-1.443,-1.114,0.024,0.980,-0.103,-0.702,-0.793,1.099,66.667,613954.000,1.000
7.730,-1.257,5.997,0.997,6.834,0.297,2.277,1.536,0.025,0.981,-0.104,-0.763,-0.824,1.282,66.667,613955.000,1.000
9.853,0.865,8.280,2.528,8.906,2.032,7.730,5.632,0.025,0.983,-0.101,-0.671,-0.916,1.221,66.667,613956.000,1.000
11.821,2.906,10.457,4.254,10.957,4.547,12.899,9.576,0.025,0.984,-0.103,-0.641,-0.854,1.221,66.667,613957.000,1.000
11.966,3.329,10.853,4.669,11.251,5.909,15.535,11.616,0.024,0.983,-0.103,-0.671,-0.977,1.129,66.667,613958.000,1.000
9.272,1.201,8.391,2.836,8.705,4.784,14.493,10.983,0.025,0.984,-0.101,-0.671,-0.885,1.099,66.667,613959.000,1.000
4.307,-2.825,3.707,-0.716,3.853,1.447,10.380,8.310,0.027,0.985,-0.103,-0.793,-0.824,1.129,66.667,613960.000,1.000
-0.970,-6.753,-1.055,-4.195,-1.239,-2.232,5.501,5.258,0.024,0.984,-0.103,-0.824,-0.763,1.129,66.667,613961.000,1.000
-4.398,-8.587,-3.709,-5.802,-4.321,-4.114,2.420,3.419,0.026,0.985,-0.104,-0.763,-0.763,1.068,66.667,613962.000,1.000
-4.979,-7.755,-3.508,-5.022,-4.620,-3.733,1.755,3.217,0.025,0.987,-0.104,-0.824,-0.854,1.007,66.667,613963.000,1.000
-3.459,-5.494,-1.530,-2.935,-3.321,-2.779,1.890,3.794,0.025,0.986,-0.104,-0.885,-0.946,1.038,66.667,613964.000,1.000
-1.667,-3.876,0.243,-1.348,-2.414,-3.439,0.942,3.935,0.026,0.984,-0.105,-0.854,-0.854,1.007,66.667,613965.000,1.000
-1.116,-4.234,0.402,-1.401,-3.006,-6.410,-1.389,3.290,0.025,0.984,-0.105,-0.793,-0.854,1.068,66.667,613966.000,1.000
-2.097,-6.333,-1.031,-2.851,-4.568,-10.359,-3.647,2.739,0.026,0.984,-0.106,-0.702,-0.946,1.007,66.667,613967.000,1.000
-3.958,-8.915,-3.037,-4.611,-5.712,-13.016,-3.958,3.334,0.026,0.985,-0.107,-0.732,-0.916,1.007,66.667,613968.000,1.000
-5.976,-10.885,-4.711,-5.864,-5.610,-12.953,-1.936,4.924,0.027,0.984,-0.107,-0.702,-0.885,1.007,66.667,613969.000,1.000
-7.923,-12.024,-5.946,-6.621,-4.645,-10.647,0.589,6.137,0.024,0.982,-0.106,-0.580,-0.916,1.038,66.667,613970.000,1.000
-9.937,-12.678,-7.180,-7.387,-3.773,-7.823,1.227,5.720,0.023,0.981,-0.103,-0.519,-0.885,1.160,66.667,613971.000,1.000
-11.975,-12.998,-8.621,-8.389,-3.450,-5.801,-0.497,3.757,0.023,0.981,-0.103,-0.427,-0.854,1.160,66.667,613972.000,1.000
-13.506,-12.684,-9.843,-9.165,-3.250,-4.606,-2.714,1.628,0.023,0.981,-0.104,-0.397,-0.854,1.129,66.667,613973.000,1.000
-13.744,-11.369,-10.088,-8.897,-2.368,-3.459,-3.044,0.904,0.022,0.980,-0.102,-0.275,-0.916,1.221,66.667,613974.000,1.000
-12.163,-9.067,-8.844,-7.097,-0.370,-1.748,-0.574,2.214,0.023,0.980,-0.105,-0.214,-0.946,1.251,66.667,613975.000,1.000
-8.876,-6.299,-6.243,-4.044,2.377,0.420,3.695,4.896,0.022,0.979,-0.104,-0.153,-0.946,1.251,66.667,613976.000,1.000
-4.607,-3.766,-2.949,-0.608,4.983,2.424,7.717,7.567,0.024,0.980,-0.103,-0.031,-1.038,1.129,66.667,613977.000,1.000
-0.205,-1.753,0.414,2.431,6.918,3.872,9.999,9.268,0.023,0.981,-0.103,0.122,-0.916,1.221,66.667,613978.000,1.000
3.751,0.075,3.655,4.835,8.513,5.011,10.846,10.167,0.025,0.980,-0.101,0.153,-1.007,1.160,66.667,613979.000,1.000
6.882,2.145,6.706,6.645,10.328,6.201,11.641,10.903,0.025,0.979,-0.104,0.214,-0.946,1.038,66.667,613980.000,1.000
8.832,4.389,9.212,7.786,12.275,7.236,12.908,11.528,0.024,0.981,-0.102,0.153,-1.038,0.977,66.667,613981.000,1.000
9.469,6.368,10.757,8.235,13.755,7.583,13.867,11.605,0.024,0.983,-0.105,0.214,-1.099,1.068,66.667,613982.000,1.000
9.230,7.817,11.395,8.358,14.484,7.230,13.915,11.149,0.024,0.982,-0.105,0.214,-1.129,1.007,66.667,613983.000,1.000
9.035,8.915,11.729,8.809,14.849,7.005,13.728,10.917,0.024,0.983,-0.104,0.183,-1.099,1.038,66.667,613984.000,1.000
9.718,10.032,12.439,10.051,15.438,7.933,14.467,11.683,0.024,0.985,-0.103,0.214,-1.129,1.007,66.667,613985.000,1.000
11.309,11.183,13.630,11.892,16.316,10.156,16.335,13.380,0.023,0.985,-0.102,0.183,-1.068,0.977,66.667,613986.000,1.000
12.851,11.793,14.564,13.344,16.707,12.379,17.985,14.886,0.022,0.984,-0.101,0.122,-1.160,0.885,66.667,613987.000,1.000
13.200,11.284,14.270,13.205,15.629,12.857,17.449,14.858,0.022,0.984,-0.101,0.122,-1.160,0.885,66.667,613988.000,1.000
12.080,9.859,12.534,11.104,13.004,11.143,14.144,12.926,0.020,0.983,-0.101,0.122,-1.282,0.885,66.667,613989.000,1.000
10.212,8.373,10.098,7.905,9.875,8.298,9.592,9.800,0.021,0.984,-0.102,0.061,-1.160,0.977,66.667,613990.000,1.000
8.546,7.491,7.936,5.007,7.455,5.495,5.770,6.388,0.022,0.983,-0.101,0.122,-1.190,0.824,66.667,613991.000,1.000
7.538,7.186,6.520,3.314,6.171,3.155,3.322,3.249,0.023,0.984,-0.103,0.122,-1.251,0.885,66.667,613992.000,1.000
7.013,6.964,5.702,2.829,5.633,1.362,1.786,0.668,0.023,0.985,-0.103,0.061,-1.221,0.824,66.667,613993.000,1.000
6.483,6.466,5.086,3.015,5.289,0.414,0.977,-1.102,0.023,0.985,-0.104,0.031,-1.282,0.885,66.667,613994.000,1.000
5.488,5.701,4.362,3.241,4.864,0.656,1.363,-1.792,0.023,0.984,-0.107,0.061,-1.343,0.916,66.667,613995.000,1.000
3.671,4.681,3.274,2.908,4.164,1.846,3.179,-1.451,0.023,0.982,-0.105,0.122,-1.495,0.885,66.667,613996.000,1.000
0.898,3.122,1.559,1.554,2.797,2.917,5.584,-0.788,0.023,0.983,-0.104,0.122,-1.465,0.977,66.667,613997.000,1.000
-2.410,0.769,-0.787,-0.784,0.471,2.593,6.935,-0.820,0.025,0.981,-0.104,0.061,-1.404,1.007,66.667,613998.000,1.000
-5.278,-2.110,-3.286,-3.408,-2.499,0.315,5.950,-2.070,0.025,0.981,-0.103,0.153,-1.465,1.007,66.667,613999.000,1.000
-6.810,-4.786,-5.230,-5.433,-5.314,-3.457,2.443,-4.291,0.025,0.980,-0.106,0.153,-1.495,1.068,66.667,614000.000,1.000
-6.856,-6.587,-6.198,-6.420,-7.260,-7.579,-2.605,-6.791,0.024,0.981,-0.101,0.183,-1.282,1.160,66.667,614001.000,1.000
-6.035,-7.177,-6.218,-6.435,-7.870,-10.564,-7.074,-8.676,0.025,0.981,-0.101,0.183,-1.251,1.160,66.667,614002.000,1.000
-5.213,-6.524,-5.555,-5.720,-6.821,-11.057,-8.499,-9.095,0.026,0.982,-0.102,0.183,-1.343,1.221,66.667,614003.000,1.000
-4.943,-4.870,-4.485,-4.546,-4.217,-8.723,-5.987,-7.844,0.028,0.982,-0.104,0.214,-1.282,1.251,66.667,614004.000,1.000
-5.215,-2.734,-3.223,-3.211,-0.871,-4.672,-1.374,-5.657,0.026,0.982,-0.103,0.275,-1.160,1.343,66.667,614005.000,1.000
-5.583,-0.778,-1.907,-1.943,2.079,-0.804,2.210,-3.546,0.025,0.984,-0.103,0.305,-1.251,1.434,66.667,614006.000,1.000
-5.418,0.570,-0.486,-0.715,3.935,1.307,2.943,-1.954,0.024,0.987,-0.103,0.305,-1.221,1.373,66.667,614007.000,1.000
-4.076,1.512,1.391,0.767,4.834,1.316,1.493,-0.631,0.024,0.985,-0.102,0.183,-1.221,1.373,66.667,614008.000,1.000
-1.271,2.731,4.096,2.714,5.432,0.286,0.114,0.828,0.023,0.984,-0.104,0.122,-1.190,1.373,66.667,614009.000,1.000
2.541,4.717,7.521,4.904,6.282,-0.234,0.649,2.504,0.022,0.982,-0.104,0.122,-1.099,1.343,66.667,614010.000,1.000
6.349,7.296,11.011,6.781,7.486,0.517,3.105,4.136,0.022,0.983,-0.104,0.122,-1.160,1.251,66.667,614011.000,1.000
9.129,9.693,13.714,7.780,8.726,2.136,5.893,5.335,0.024,0.984,-0.106,0.061,-1.160,1.190,66.667,614012.000,1.000
10.240,10.959,14.951,7.595,9.523,3.688,7.286,5.791,0.024,0.986,-0.104,0.122,-1.038,1.190,66.667,614013.000,1.000
9.618,10.536,14.488,6.328,9.514,4.544,6.591,5.296,0.026,0.984,-0.105,0.122,-0.977,1.007,66.667,614014.000,1.000
7.841,8.643,12.697,4.486,8.653,4.661,4.110,3.787,0.028,0.983,-0.103,0.122,-1.099,1.160,66.667,614015.000,1.000
5.981,6.260,10.500,2.836,7.355,4.544,0.925,1.725,0.028,0.985,-0.103,0.000,-0.946,1.221,66.667,614016.000,1.000
5.107,4.607,8.921,2.086,6.331,5.014,-1.247,0.127,0.031,0.982,-0.100,-0.092,-0.916,1.251,66.667,614017.000,1.000
5.589,4.254,8.372,2.468,5.927,6.374,-1.256,-0.283,0.032,0.979,-0.104,-0.061,-0.763,1.404,66.667,614018.000,1.000
6.883,4.704,8.430,3.616,5.777,7.766,0.459,0.418,0.032,0.976,-0.104,0.000,-0.610,1.556,66.667,614019.000,1.000
8.195,5.048,8.487,5.004,5.395,7.995,2.778,1.812,0.032,0.975,-0.102,0.153,-0.458,1.617,66.667,614020.000,1.000
9.195,4.857,8.400,6.413,4.769,6.856,5.048,3.480,0.032,0.979,-0.104,0.183,-0.336,1.617,66.667,614021.000,1.000
9.851,4.145,8.211,7.735,3.930,4.889,6.450,4.574,0.032,0.980,-0.106,0.214,-0.122,1.678,66.667,614022.000,1.000
9.908,2.800,7.570,8.499,2.357,2.207,5.417,3.866,0.030,0.981,-0.105,0.275,0.092,1.648,66.667,614023.000,1.000
9.022,0.672,5.992,8.140,-0.492,-1.484,0.995,0.914,0.029,0.982,-0.106,0.153,0.183,1.770,66.667,614024.000,1.000
7.430,-1.789,3.700,6.848,-4.133,-5.786,-5.588,-3.053,0.028,0.982,-0.107,0.092,0.244,1.923,66.667,614025.000,1.000
6.116,-3.367,1.873,5.829,-6.896,-9.062,-11.067,-5.673,0.026,0.984,-0.106,0.092,0.275,1.923,66.667,614026.000,1.000
6.108,-2.858,1.816,6.448,-7.042,-9.353,-12.120,-5.025,0.026,0.985,-0.107,0.122,0.275,1.923,66.667,614027.000,1.000
7.524,-0.190,3.771,8.959,-4.307,-6.154,-8.024,-1.119,0.023,0.986,-0.103,0.061,0.183,1.740,66.667,614028.000,1.000
9.307,3.213,6.508,12.102,-0.386,-1.247,-1.665,3.933,0.020,0.987,-0.103,-0.061,0.214,1.740,66.667,614029.000,1.000
9.916,5.319,8.119,13.979,2.178,2.453,2.446,7.336,0.017,0.988,-0.103,-0.031,0.031,1.617,66.667,614030.000,1.000
8.312,4.827,7.207,13.286,1.672,2.864,1.535,7.376,0.014,0.990,-0.103,-0.214,-0.031,1.495,66.667,614031.000,1.000
4.492,1.802,3.582,9.914,-1.952,-0.225,-3.723,4.096,0.017,0.991,-0.103,-0.336,-0.183,1.373,66.667,614032.000,1.000
-0.536,-2.536,-1.677,4.902,-7.243,-5.305,-10.337,-1.128,0.016,0.991,-0.103,-0.519,-0.488,1.190,66.667,614033.000,1.000
-5.172,-6.394,-6.684,0.034,-11.982,-10.016,-15.329,-6.250,0.017,0.991,-0.104,-0.610,-0.641,0.977,66.667,614034.000,1.000
-7.957,-8.149,-9.640,-2.910,-14.172,-12.309,-17.112,-9.187,0.019,0.990,-0.104,-0.763,-0.702,0.885,66.667,614035.000,1.000
-8.281,-7.109,-9.709,-3.087,-12.955,-11.308,-15.474,-8.603,0.021,0.990,-0.103,-0.977,-0.977,0.854,66.667,614036.000,1.000
-6.611,-3.853,-7.312,-1.012,-8.976,-7.573,-11.205,-4.656,0.024,0.990,-0.103,-1.038,-1.099,0.854,66.667,614037.000,1.000
-4.181,0.071,-3.812,1.869,-3.979,-2.727,-5.768,0.934,0.026,0.990,-0.104,-1.160,-1.099,0.793,66.667,614038.000,1.000
-2.426,2.915,-0.939,3.959,-0.040,1.303,-0.834,5.579,0.028,0.990,-0.104,-1.099,-1.129,0.885,66.667,614039.000,1.000
-2.359,3.494,-0.146,4.107,1.126,2.858,1.956,6.924,0.030,0.990,-0.105,-1.251,-1.099,1.068,66.667,614040.000,1.000
-4.031,1.666,-1.921,2.055,-1.196,1.041,1.353,4.097,0.031,0.988,-0.104,-1.251,-1.190,1.221,66.667,614041.000,1.000
-6.446,-1.560,-5.416,-1.354,-6.215,-3.676,-2.661,-1.722,0.027,0.988,-0.100,-1.251,-1.160,1.282,66.667,614042.000,1.000
-8.207,-4.558,-8.901,-4.568,-11.839,-9.383,-8.483,-8.037,0.027,0.985,-0.101,-1.312,-1.068,1.404,66.667,614043.000,1.000
-8.581,-6.158,-10.989,-6.377,-15.869,-13.722,-13.613,-12.562,0.025,0.985,-0.101,-1.312,-1.160,1.495,66.667,614044.000,1.000
-7.976,-6.368,-11.494,-6.679,-17.280,-15.210,-16.017,-14.350,0.026,0.982,-0.101,-1.221,-1.312,1.495,66.667,614045.000,1.000
-7.261,-5.830,-10.965,-6.079,-16.293,-13.633,-14.887,-13.701,0.024,0.982,-0.104,-1.160,-1.190,1.434,66.667,614046.000,1.000
-6.868,-4.838,-9.773,-5.038,-13.583,-9.668,-10.637,-11.370,0.024,0.979,-0.103,-1.038,-1.160,1.465,66.667,614047.000,1.000
-6.792,-3.319,-8.069,-3.748,-9.932,-4.609,-4.814,-8.204,0.025,0.980,-0.103,-0.885,-1.221,1.434,66.667,614048.000,1.000
-6.918,-1.381,-6.154,-2.419,-6.298,-0.086,0.388,-5.046,0.024,0.982,-0.103,-0.885,-1.190,1.160,66.667,614049.000,1.000
-6.975,0.584,-4.370,-1.222,-3.519,2.572,3.348,-2.475,0.024,0.979,-0.102,-0.824,-1.221,1.129,66.667,614050.000,1.000
-6.620,2.042,-2.938,-0.212,-1.996,2.892,3.809,-0.777,0.025,0.979,-0.102,-0.732,-1.160,1.160,66.667,614051.000,1.000
-5.839,2.485,-2.022,0.528,-1.702,1.347,2.401,-0.157,0.027,0.978,-0.101,-0.671,-1.038,1.007,66.667,614052.000,1.000
-4.949,1.876,-1.626,0.965,-2.190,-0.854,0.101,-0.579,0.027,0.979,-0.099,-0.488,-1.190,0.977,66.667,614053.000,1.000
-4.196,0.903,-1.407,1.304,-2.660,-2.234,-1.651,-1.450,0.028,0.976,-0.104,-0.305,-1.129,0.916,66.667,614054.000,1.000
-3.564,0.476,-0.901,1.793,-2.466,-1.933,-1.576,-2.024,0.029,0.976,-0.102,-0.214,-1.160,0.916,66.667,614055.000,1.000
-2.970,0.921,-0.017,2.327,-1.708,-0.329,0.111,-2.199,0.028,0.975,-0.099,-0.031,-1.068,0.854,66.667,614056.000,1.000
-2.448,1.792,0.815,2.475,-1.135,1.381,1.831,-2.616,0.029,0.974,-0.100,0.153,-0.946,0.793,66.667,614057.000,1.000
-2.172,2.276,0.961,1.888,-1.488,2.164,2.239,-3.906,0.028,0.974,-0.101,0.305,-0.824,0.671,66.667,614058.000,1.000
-2.304,1.844,0.130,0.641,-2.870,1.771,1.198,-5.894,0.030,0.975,-0.100,0.427,-0.763,0.671,66.667,614059.000,1.000
-2.654,0.814,-1.175,-0.621,-4.455,0.884,-0.476,-7.476,0.028,0.974,-0.102,0.549,-0.702,0.763,66.667,614060.000,1.000
-2.677,0.201,-1.902,-1.021,-4.909,0.703,-1.515,-7.367,0.028,0.973,-0.104,0.610,-0.580,0.763,66.667,614061.000,1.000
-1.966,0.855,-1.322,-0.179,-3.411,2.019,-0.754,-5.072,0.027,0.974,-0.105,0.824,-0.488,0.702,66.667,614062.000,1.000
-0.569,2.840,0.430,1.502,-0.291,4.597,2.047,-1.180,0.026,0.975,-0.103,0.946,-0.397,0.793,66.667,614063.000,1.000
1.085,5.489,2.541,3.165,3.195,7.489,5.811,2.999,0.027,0.975,-0.105,1.099,-0.397,0.824,66.667,614064.000,1.000
2.332,7.745,3.974,3.937,5.571,9.714,8.748,5.989,0.027,0.974,-0.103,1.038,-0.336,0.824,66.667,614065.000,1.000
2.533,8.632,3.973,3.319,5.909,10.640,9.405,6.890,0.027,0.976,-0.104,1.190,-0.305,0.854,66.667,614066.000,1.000
1.557,7.880,2.517,1.527,4.358,10.073,7.324,5.949,0.026,0.979,-0.105,1.221,-0.275,0.854,66.667,614067.000,1.000
-0.035,6.149,0.336,-0.603,2.029,8.322,3.239,4.341,0.024,0.980,-0.104,1.129,-0.244,0.854,66.667,614068.000,1.000
-1.572,4.409,-1.708,-2.294,0.172,6.051,-1.234,3.255,0.024,0.981,-0.107,1.221,-0.183,1.007,66.667,614069.000,1.000
-2.999,3.120,-3.285,-3.407,-0.647,3.898,-4.464,3.140,0.024,0.982,-0.108,1.251,-0.183,1.038,66.667,614070.000,1.000
-4.814,2.169,-4.591,-4.282,-0.595,2.376,-5.403,3.824,0.023,0.984,-0.105,1.099,-0.214,1.099,66.667,614071.000,1.000
-7.353,1.419,-5.849,-5.195,-0.048,2.007,-3.711,5.041,0.022,0.984,-0.103,1.099,-0.183,1.129,66.667,614072.000,1.000
-10.277,0.997,-6.961,-6.121,0.739,3.069,-0.093,6.557,0.022,0.986,-0.101,0.977,-0.275,1.282,66.667,614073.000,1.000
-12.721,1.107,-7.538,-6.820,1.601,5.128,3.723,8.079,0.023,0.986,-0.101,0.885,-0.336,1.465,66.667,614074.000,1.000
-13.853,1.781,-7.164,-6.959,2.502,7.336,6.258,9.461,0.021,0.987,-0.104,0.793,-0.397,1.404,66.667,614075.000,1.000
-13.379,2.813,-5.741,-6.290,3.542,9.219,7.443,10.809,0.020,0.987,-0.108,0.610,-0.336,1.495,66.667,614076.000,1.000
-11.707,3.811,-3.687,-4.943,4.649,10.764,7.932,12.047,0.021,0.989,-0.109,0.519,-0.458,1.373,66.667,614077.000,1.000
-9.732,4.282,-1.880,-3.625,5.236,11.795,7.765,12.552,0.022,0.990,-0.105,0.305,-0.580,1.373,66.667,614078.000,1.000
-8.405,3.812,-1.301,-3.355,4.416,11.734,6.234,11.467,0.021,0.991,-0.105,0.183,-0.610,1.465,66.667,614079.000,1.000
-8.156,2.455,-2.399,-4.700,1.799,10.221,2.838,8.475,0.021,0.993,-0.107,-0.122,-0.763,1.465,66.667,614080.000,1.000
-8.606,0.924,-4.677,-7.252,-1.922,7.791,-1.772,4.357,0.020,0.991,-0.103,-0.244,-0.885,1.434,66.667,614081.000,1.000
-8.984,0.136,-7.057,-9.958,-5.321,5.575,-5.937,0.698,0.023,0.988,-0.104,-0.488,-0.946,1.434,66.667,614082.000,1.000
-8.858,0.530,-8.583,-11.833,-7.115,4.468,-8.025,-1.025,0.024,0.985,-0.100,-0.671,-0.977,1.373,66.667,614083.000,1.000
-8.447,1.805,-8.852,-12.361,-6.793,4.712,-7.271,-0.237,0.026,0.983,-0.103,-0.793,-1.007,1.373,66.667,614084.000,1.000
-8.324,3.182,-8.045,-11.517,-4.733,5.971,-4.089,2.597,0.029,0.983,-0.107,-0.916,-1.038,1.404,66.667,614085.000,1.000
-8.869,3.917,-6.741,-9.619,-1.863,7.596,0.269,6.489,0.030,0.983,-0.105,-0.977,-0.946,1.404,66.667,614086.000,1.000
-10.054,3.621,-5.713,-7.252,0.747,8.820,4.372,10.341,0.029,0.984,-0.105,-1.007,-0.916,1.465,66.667,614087.000,1.000
-11.604,2.259,-5.647,-5.199,2.155,8.874,6.797,12.947,0.029,0.984,-0.105,-0.885,-0.885,1.465,66.667,614088.000,1.000
-13.177,0.153,-6.764,-4.079,1.865,7.379,6.457,13.367,0.031,0.982,-0.105,-0.946,-0.824,1.526,66.667,614089.000,1.000
-14.469,-2.091,-8.701,-3.982,0.113,4.750,3.456,11.656,0.031,0.982,-0.106,-0.946,-0.824,1.495,66.667,614090.000,1.000
-15.340,-3.891,-10.737,-4.539,-2.267,2.017,-0.678,8.929,0.030,0.981,-0.106,-1.038,-0.793,1.495,66.667,614091.000,1.000
-15.700,-4.869,-11.995,-5.156,-4.201,0.368,-3.816,6.698,0.033,0.981,-0.105,-1.038,-0.671,1.556,66.667,614092.000,1.000
-15.256,-4.733,-11.552,-5.134,-4.663,0.753,-4.193,6.147,0.031,0.981,-0.105,-0.946,-0.580,1.617,66.667,614093.000,1.000
-13.631,-3.380,-8.904,-3.953,-3.156,3.192,-1.237,7.622,0.029,0.981,-0.105,-0.885,-0.519,1.617,66.667,614094.000,1.000
-10.814,-1.266,-4.539,-1.730,-0.203,6.321,3.702,10.358,0.027,0.982,-0.102,-0.885,-0.397,1.465,66.667,614095.000,1.000
-7.421,0.611,0.126,0.677,2.790,8.144,7.757,12.757,0.024,0.982,-0.101,-0.885,-0.397,1.404,66.667,614096.000,1.000
-4.336,1.415,3.709,2.265,4.535,7.501,8.465,13.428,0.021,0.982,-0.100,-0.854,-0.458,1.282,66.667,614097.000,1.000
-1.955,1.241,5.907,2.796,4.984,5.072,5.870,12.372,0.021,0.981,-0.099,-0.977,-0.549,1.038,66.667,614098.000,1.000
0.082,1.060,7.460,2.894,5.280,3.002,2.606,10.824,0.021,0.980,-0.100,-0.946,-0.519,0.885,66.667,614099.000,1.000
2.288,1.747,9.062,3.109,6.332,2.939,1.140,9.614,0.021,0.979,-0.103,-1.007,-0.610,0.702,66.667,614100.000,1.000
4.679,3.334,10.608,3.279,7.751,4.448,1.245,8.282,0.024,0.979,-0.104,-0.946,-0.732,0.488,66.667,614101.000,1.000
6.713,5.137,11.469,2.923,8.415,5.706,0.851,6.023,0.025,0.978,-0.103,-0.824,-0.793,0.427,66.667,614102.000,1.000
7.704,6.322,11.143,1.888,7.699,5.410,-1.321,2.904,0.026,0.979,-0.104,-0.732,-0.763,0.366,66.667,614103.000,1.000
7.301,6.417,9.617,0.458,5.970,3.738,-4.594,-0.056,0.027,0.981,-0.100,-0.671,-0.763,0.336,66.667,614104.000,1.000
5.735,5.526,7.349,-0.948,4.130,1.906,-7.402,-1.793,0.028,0.983,-0.098,-0.702,-0.671,0.397,66.667,614105.000,1.000
3.752,4.220,5.065,-1.995,2.907,1.142,-8.696,-1.956,0.028,0.984,-0.100,-0.702,-0.641,0.427,66.667,614106.000,1.000
2.261,3.173,3.496,-2.435,2.504,1.910,-8.260,-0.873,0.027,0.984,-0.101,-0.671,-0.488,0.580,66.667,614107.000,1.000
1.789,2.670,2.967,-2.212,2.541,3.701,-6.561,0.681,0.028,0.987,-0.102,-0.671,-0.519,0.641,66.667,614108.000,1.000
2.103,2.385,3.097,-1.637,2.246,5.430,-4.576,1.597,0.026,0.985,-0.101,-0.702,-0.458,0.854,66.667,614109.000,1.000
2.474,1.796,3.104,-1.173,1.104,6.238,-3.204,0.972,0.026,0.984,-0.101,-0.793,-0.458,1.007,66.667,614110.000,1.000
2.283,0.801,2.451,-1.042,-0.622,6.117,-2.740,-1.223,0.026,0.984,-0.104,-0.671,-0.397,1.068,66.667,614111.000,1.000
1.405,-0.186,1.149,-1.199,-2.182,5.745,-3.072,-4.287,0.026,0.985,-0.102,-0.702,-0.305,1.221,66.667,614112.000,1.000
0.210,-0.601,-0.369,-1.501,-2.977,5.771,-4.017,-7.363,0.025,0.985,-0.103,-0.702,-0.458,1.312,66.667,614113.000,1.000
-0.710,-0.086,-1.509,-1.720,-2.724,6.407,-5.135,-9.587,0.024,0.987,-0.103,-0.641,-0.458,1.526,66.667,614114.000,1.000
-0.893,1.317,-1.791,-1.587,-1.372,7.495,-5.615,-10.283,0.022,0.986,-0.102,-0.732,-0.488,1.465,66.667,614115.000,1.000
-0.280,3.097,-1.147,-1.052,0.740,8.630,-4.816,-9.581,0.023,0.987,-0.102,-0.763,-0.549,1.495,66.667,614116.000,1.000
0.697,4.387,-0.072,-0.465,2.742,9.183,-2.965,-8.666,0.022,0.987,-0.101,-0.793,-0.580,1.526,66.667,614117.000,1.000
1.325,4.347,0.617,-0.358,3.601,8.426,-1.142,-8.964,0.021,0.987,-0.101,-0.854,-0.641,1.434,66.667,614118.000,1.000
1.088,2.706,0.353,-1.013,2.811,5.986,-0.493,-11.033,0.022,0.988,-0.098,-0.793,-0.671,1.312,66.667,614119.000,1.000
0.120,0.046,-0.702,-2.244,0.752,2.341,-1.525,-14.270,0.023,0.988,-0.098,-0.854,-0.610,1.404,66.667,614120.000,1.000
-0.778,-2.517,-1.772,-3.545,-1.608,-1.374,-3.924,-17.498,0.024,0.987,-0.097,-0.793,-0.671,1.495,66.667,614121.000,1.000
-0.716,-4.106,-2.170,-4.468,-3.466,-4.314,-7.019,-19.851,0.024,0.988,-0.098,-0.885,-0.763,1.434,66.667,614122.000,1.000
0.570,-4.658,-1.906,-4.919,-4.770,-6.656,-10.513,-21.340,0.025,0.988,-0.100,-0.946,-0.824,1.495,66.667,614123.000,1.000
2.559,-4.769,-1.563,-5.116,-6.081,-9.116,-14.330,-22.566,0.026,0.985,-0.098,-0.946,-0.793,1.404,66.667,614124.000,1.000
4.357,-5.062,-1.700,-5.273,-7.888,-11.965,-17.857,-23.977,0.026,0.984,-0.099,-1.007,-0.824,1.434,66.667,614125.000,1.000
5.243,-5.754,-2.435,-5.370,-10.107,-14.822,-19.921,-25.499,0.028,0.984,-0.100,-0.885,-0.916,1.373,66.667,614126.000,1.000
5.124,-6.564,-3.387,-5.142,-12.053,-17.081,-19.528,-26.543,0.027,0.982,-0.099,-0.793,-0.946,1.343,66.667,614127.000,1.000
4.679,-6.919,-3.912,-4.311,-12.841,-18.309,-16.731,-26.376,0.027,0.981,-0.101,-0.732,-0.885,1.373,66.667,614128.000,1.000
4.783,-6.461,-3.633,-2.961,-12.098,-18.648,-12.972,-24.805,0.029,0.982,-0.101,-0.580,-0.854,1.373,66.667,614129.000,1.000
5.604,-5.508,-2.871,-1.679,-10.327,-18.873,-10.199,-22.517,0.028,0.983,-0.102,-0.580,-0.946,1.190,66.667,614130.000,1.000
6.433,-4.871,-2.380,-1.098,-8.463,-19.685,-9.382,-20.585,0.029,0.982,-0.101,-0.610,-0.885,1.221,66.667,614131.000,1.000
6.336,-5.217,-2.700,-1.385,-7.213,-21.021,-10.136,-19.693,0.028,0.982,-0.099,-0.519,-0.732,1.251,66.667,614132.000,1.000
4.740,-6.728,-3.963,-2.304,-6.911,-22.268,-11.595,-19.833,0.029,0.981,-0.103,-0.397,-0.824,1.160,66.667,614133.000,1.000
1.547,-9.203,-6.153,-3.649,-7.699,-22.975,-13.122,-20.566,0.030,0.980,-0.102,-0.305,-0.702,1.068,66.667,614134.000,1.000
-2.858,-12.210,-9.167,-5.421,-9.535,-23.142,-14.485,-21.546,0.027,0.981,-0.102,-0.214,-0.732,1.038,66.667,614135.000,1.000
-7.480,-15.111,-12.546,-7.489,-12.001,-22.935,-15.659,-22.598,0.027,0.983,-0.100,-0.153,-0.732,0.916,66.667,614136.000,1.000
-10.881,-17.144,-15.363,-9.239,-14.259,-22.375,-16.374,-23.283,0.025,0.984,-0.098,-0.244,-0.732,1.007,66.667,614137.000,1.000
-11.904,-17.749,-16.627,-9.807,-15.420,-21.287,-15.908,-22.859,0.027,0.982,-0.097,-0.183,-0.763,0.854,66.667,614138.000,1.000
-10.311,-16.828,-15.797,-8.717,-15.043,-19.509,-13.645,-20.895,0.025,0.982,-0.099,-0.153,-0.824,0.885,66.667,614139.000,1.000
-6.712,-14.740,-12.996,-6.212,-13.350,-17.201,-9.956,-17.669,0.025,0.984,-0.099,-0.122,-0.824,0.763,66.667,614140.000,1.000
-2.212,-12.181,-8.998,-3.148,-11.086,-14.894,-6.168,-13.982,0.026,0.984,-0.094,-0.092,-0.824,0.671,66.667,614141.000,1.000
1.873,-10.001,-5.054,-0.659,-9.194,-13.141,-3.570,-10.755,0.024,0.982,-0.098,-0.122,-0.793,0.671,66.667,614142.000,1.000
4.515,-8.827,-2.346,0.406,-8.389,-12.175,-2.767,-8.666,0.025,0.981,-0.098,-0.153,-0.793,0.732,66.667,614143.000,1.000
5.554,-8.713,-1.329,0.008,-8.826,-11.958,-3.824,-7.903,0.024,0.982,-0.098,-0.122,-0.824,0.610,66.667,614144.000,1.000
5.607,-9.321,-1.678,-1.201,-10.159,-12.517,-6.535,-8.214,0.023,0.982,-0.097,-0.092,-0.854,0.610,66.667,614145.000,1.000
5.259,-10.425,-2.906,-2.622,-11.944,-14.034,-10.351,-9.144,0.025,0.984,-0.099,-0.092,-0.824,0.488,66.667,614146.000,1.000
4.528,-12.017,-4.788,-4.146,-13.856,-16.442,-14.248,-10.193,0.023,0.983,-0.096,-0.183,-0.916,0.519,66.667,614147.000,1.000
3.222,-13.907,-7.111,-5.809,-15.529,-18.988,-16.833,-10.835,0.025,0.983,-0.100,-0.183,-1.038,0.488,66.667,614148.000,1.000
1.638,-15.384,-9.179,-7.220,-16.292,-20.222,-16.547,-10.498,0.024,0.984,-0.099,-0.122,-1.038,0.488,66.667,614149.000,1.000
0.739,-15.377,-9.844,-7.534,-15.246,-18.531,-12.271,-8.737,0.021,0.986,-0.099,-0.153,-1.068,0.519,66.667,614150.000,1.000
1.457,-13.234,-8.352,-6.179,-12.002,-13.428,-4.837,-5.809,0.022,0.984,-0.096,-0.275,-1.038,0.610,66.667,614151.000,1.000
3.664,-9.538,-5.235,-3.629,-7.482,-6.804,2.238,-2.997,0.021,0.983,-0.099,-0.336,-1.129,0.610,66.667,614152.000,1.000
6.036,-5.941,-2.146,-1.240,-3.542,-2.121,4.901,-1.810,0.025,0.984,-0.100,-0.275,-1.251,0.580,66.667,614153.000,1.000
7.134,-3.868,-0.587,-0.218,-1.572,-1.634,1.968,-2.586,0.024,0.982,-0.099,-0.427,-1.221,0.610,66.667,614154.000,1.000
6.521,-3.485,-0.888,-0.824,-1.620,-4.662,-4.061,-4.208,0.023,0.983,-0.097,-0.488,-1.129,0.702,66.667,614155.000,1.000
4.802,-3.932,-2.339,-2.461,-2.807,-8.607,-9.352,-5.224,0.023,0.983,-0.096,-0.397,-1.190,0.793,66.667,614156.000,1.000
2.875,-4.252,-3.980,-4.221,-4.184,-11.015,-11.374,-4.897,0.025,0.983,-0.097,-0.305,-1.282,0.885,66.667,614157.000,1.000
1.272,-4.020,-5.164,-5.358,-5.132,-10.652,-9.619,-3.307,0.024,0.983,-0.099,-0.366,-1.251,0.824,66.667,614158.000,1.000
-0.020,-3.424,-5.707,-5.584,-5.462,-7.697,-5.122,-1.155,0.024,0.985,-0.101,-0.397,-1.282,0.854,66.667,614159.000,1.000
-1.374,-3.030,-5.836,-5.112,-5.455,-3.590,-0.031,0.468,0.025,0.986,-0.097,-0.549,-1.221,0.977,66.667,614160.000,1.000
-3.156,-3.303,-5.958,-4.366,-5.524,-0.114,3.538,0.845,0.026,0.985,-0.096,-0.549,-1.251,1.007,66.667,614161.000,1.000
-5.345,-4.145,-6.248,-3.609,-5.679,1.916,5.111,0.241,0.026,0.989,-0.097,-0.610,-1.251,1.190,66.667,614162.000,1.000
-7.399,-4.901,-6.403,-2.840,-5.494,2.908,5.722,-0.522,0.026,0.986,-0.097,-0.549,-1.190,1.221,66.667,614163.000,1.000
-8.532,-4.831,-5.815,-1.891,-4.574,3.503,6.259,-0.804,0.026,0.986,-0.094,-0.580,-1.160,1.282,66.667,614164.000,1.000
-8.230,-3.600,-4.101,-0.636,-2.924,3.772,6.612,-0.335,0.026,0.985,-0.096,-0.732,-1.221,1.312,66.667,614165.000,1.000
-6.574,-1.429,-1.529,0.790,-0.947,3.484,6.381,0.833,0.025,0.983,-0.097,-0.763,-1.221,1.282,66.667,614166.000,1.000
-4.124,1.084,1.141,1.994,0.804,2.742,5.724,2.354,0.027,0.984,-0.099,-0.732,-1.190,1.343,66.667,614167.000,1.000
-1.675,3.162,3.121,2.520,1.853,1.983,5.171,3.695,0.027,0.983,-0.099,-0.702,-1.129,1.251,66.667,614168.000,1.000
-0.160,3.979,3.779,1.999,1.862,1.438,4.930,4.388,0.026,0.984,-0.101,-0.702,-1.038,1.373,66.667,614169.000,1.000
-0.385,2.921,2.733,0.346,0.632,0.761,4.342,4.116,0.028,0.983,-0.100,-0.824,-0.946,1.434,66.667,614170.000,1.000
-2.443,0.068,0.234,-1.944,-1.676,-0.626,2.234,2.801,0.026,0.983,-0.098,-0.763,-0.977,1.343,66.667,614171.000,1.000
-5.328,-3.475,-2.537,-3.738,-4.203,-2.679,-1.626,0.957,0.027,0.984,-0.098,-0.732,-0.854,1.282,66.667,614172.000,1.000
-7.350,-5.995,-3.966,-3.842,-5.616,-4.467,-5.743,-0.331,0.028,0.985,-0.099,-0.671,-0.854,1.251,66.667,614173.000,1.000
-7.252,-6.279,-3.136,-1.861,-5.041,-4.913,-7.942,-0.151,0.028,0.987,-0.100,-0.610,-0.763,1.312,66.667,614174.000,1.000
-5.013,-4.367,-0.434,1.561,-2.684,-3.579,-6.861,1.632,0.029,0.985,-0.099,-0.610,-0.702,1.343,66.667,614175.000,1.000
-1.593,-1.253,2.952,5.269,0.434,-0.866,-2.635,4.479,0.028,0.986,-0.099,-0.610,-0.549,1.251,66.667,614176.000,1.000
1.833,1.838,5.865,8.191,3.106,2.170,3.110,7.474,0.027,0.988,-0.096,-0.671,-0.641,1.160,66.667,614177.000,1.000
4.369,3.945,7.544,9.602,4.463,4.365,8.028,9.626,0.027,0.988,-0.097,-0.702,-0.580,1.129,66.667,614178.000,1.000
5.552,4.643,7.690,9.259,4.282,5.205,10.609,10.413,0.026,0.988,-0.098,-0.732,-0.580,1.221,66.667,614179.000,1.000
5.403,4.217,6.548,7.529,3.127,5.192,11.444,10.336,0.026,0.988,-0.098,-0.702,-0.549,1.129,66.667,614180.000,1.000
4.406,3.519,4.913,5.345,2.122,5.510,12.703,10.704,0.027,0.987,-0.098,-0.732,-0.488,1.068,66.667,614181.000,1.000
3.209,3.330,3.692,3.716,2.099,6.879,15.549,12.326,0.030,0.988,-0.097,-0.824,-0.580,1.007,66.667,614182.000,1.000
2.234,3.719,3.261,3.080,2.822,8.590,18.375,14.405,0.031,0.989,-0.097,-0.885,-0.458,1.038,66.667,614183.000,1.000
1.703,4.240,3.437,3.281,3.411,9.222,18.653,15.253,0.029,0.990,-0.098,-0.916,-0.366,1.068,66.667,614184.000,1.000
1.867,4.550,3.957,4.021,3.407,8.213,15.862,14.039,0.029,0.988,-0.095,-0.916,-0.305,1.129,66.667,614185.000,1.000
2.808,4.471,4.560,4.943,2.905,6.057,11.532,11.276,0.025,0.989,-0.093,-1.007,-0.336,1.099,66.667,614186.000,1.000
4.121,3.823,4.808,5.505,2.030,3.450,7.341,7.969,0.027,0.987,-0.094,-0.977,-0.458,1.129,66.667,614187.000,1.000
5.217,2.697,4.358,5.305,0.936,1.121,4.266,5.058,0.025,0.986,-0.094,-1.068,-0.427,1.160,66.667,614188.000,1.000
5.870,1.707,3.408,4.502,0.145,0.015,2.908,3.433,0.026,0.986,-0.100,-1.099,-0.366,1.038,66.667,614189.000,1.000
6.204,1.567,2.589,3.651,0.298,0.696,3.425,3.659,0.027,0.986,-0.100,-1.038,-0.336,1.099,66.667,614190.000,1.000
6.200,2.373,2.322,3.056,1.535,2.623,5.315,5.475,0.025,0.983,-0.096,-0.946,-0.427,0.946,66.667,614191.000,1.000
5.649,3.604,2.532,2.588,3.430,4.652,7.757,7.910,0.026,0.981,-0.097,-0.885,-0.397,1.007,66.667,614192.000,1.000
4.732,4.824,3.036,2.170,5.459,6.130,9.855,10.019,0.026,0.981,-0.096,-0.824,-0.336,1.099,66.667,614193.000,1.000
4.213,6.015,3.847,2.060,7.230,7.015,10.586,11.339,0.024,0.983,-0.096,-0.732,-0.336,1.068,66.667,614194.000,1.000
4.907,7.279,5.084,2.593,8.483,7.327,9.319,11.890,0.025,0.982,-0.093,-0.519,-0.397,1.099,66.667,614195.000,1.000
7.019,8.582,6.757,3.837,9.191,7.032,6.648,12.006,0.023,0.980,-0.092,-0.488,-0.427,1.160,66.667,614196.000,1.000
9.899,9.708,8.563,5.425,9.504,6.150,4.111,11.993,0.025,0.979,-0.095,-0.397,-0.427,1.160,66.667,614197.000,1.000
12.447,10.403,9.967,6.747,9.581,4.825,2.991,11.841,0.023,0.980,-0.095,-0.244,-0.458,1.068,66.667,614198.000,1.000
13.866,10.613,10.599,7.346,9.530,3.404,3.481,11.285,0.022,0.979,-0.096,-0.183,-0.519,1.007,66.667,614199.000,1.000
14.018,10.472,10.463,7.102,9.337,2.281,4.688,10.092,0.023,0.982,-0.096,-0.031,-0.580,0.946,66.667,614200.000,1.000
13.386,10.193,9.919,6.314,9.006,1.813,5.617,8.448,0.024,0.981,-0.094,0.031,-0.610,0.854,66.667,614201.000,1.000
12.908,10.163,9.659,5.725,8.875,2.457,6.392,7.165,0.025,0.980,-0.094,0.061,-0.610,0.885,66.667,614202.000,1.000
13.560,10.857,10.412,6.143,9.464,4.531,8.141,7.171,0.026,0.979,-0.096,0.244,-0.641,0.793,66.667,614203.000,1.000
15.581,12.321,12.252,7.677,10.727,7.444,11.241,8.452,0.022,0.979,-0.094,0.366,-0.580,0.824,66.667,614204.000,1.000
18.016,13.793,14.232,9.405,11.666,9.499,13.915,9.619,0.024,0.979,-0.094,0.427,-0.702,0.885,66.667,614205.000,1.000
19.252,14.184,15.032,10.046,11.061,9.075,13.516,9.012,0.024,0.979,-0.094,0.549,-0.824,0.824,66.667,614206.000,1.000
18.249,12.971,14.050,8.999,8.592,6.045,9.223,6.206,0.023,0.979,-0.095,0.671,-0.854,0.763,66.667,614207.000,1.000
15.293,10.487,11.780,6.712,5.085,1.752,2.720,2.139,0.022,0.980,-0.095,0.671,-0.916,0.671,66.667,614208.000,1.000
11.685,7.592,9.326,4.282,1.925,-1.972,-3.250,-1.747,0.022,0.980,-0.094,0.732,-0.946,0.549,66.667,614209.000,1.000
8.921,5.368,7.824,2.886,0.444,-3.469,-6.409,-4.048,0.021,0.979,-0.095,0.732,-0.946,0.641,66.667,614210.000,1.000
7.933,4.657,7.928,3.168,1.241,-1.902,-5.977,-3.941,0.023,0.978,-0.095,0.793,-0.946,0.641,66.667,614211.000,1.000
8.510,5.275,9.238,4.688,3.505,1.809,-3.197,-1.906,0.023,0.980,-0.097,0.824,-1.038,0.610,66.667,614212.000,1.000
9.290,5.843,10.311,6.087,5.330,5.086,-0.485,0.516,0.024,0.982,-0.099,0.946,-1.099,0.610,66.667,614213.000,1.000
8.584,4.859,9.629,6.111,5.147,5.599,0.595,2.033,0.023,0.982,-0.099,1.007,-1.251,0.610,66.667,614214.000,1.000
5.537,1.989,6.694,4.514,2.889,3.172,0.421,2.436,0.021,0.980,-0.096,0.946,-1.190,0.702,66.667,614215.000,1.000
0.768,-1.660,2.373,2.131,-0.060,-0.280,0.477,2.385,0.022,0.981,-0.098,0.885,-1.251,0.702,66.667,614216.000,1.000
-3.994,-4.288,-1.637,0.272,-1.843,-2.419,1.753,2.787,0.022,0.981,-0.098,0.854,-1.282,0.732,66.667,614217.000,1.000
-7.009,-4.534,-3.825,-0.116,-1.344,-2.075,3.840,4.236,0.023,0.979,-0.097,0.793,-1.404,0.641,66.667,614218.000,1.000
-7.552,-2.329,-3.766,0.933,1.110,0.250,5.322,6.578,0.021,0.979,-0.097,0.732,-1.434,0.671,66.667,614219.000,1.000
-6.211,1.001,-2.281,2.476,4.001,2.842,4.852,8.802,0.020,0.981,-0.099,0.702,-1.404,0.641,66.667,614220.000,1.000
-4.330,3.534,-0.769,3.362,5.624,3.877,2.057,9.563,0.021,0.980,-0.098,0.824,-1.465,0.702,66.667,614221.000,1.000
-3.084,4.029,-0.221,3.042,5.229,2.756,-1.980,8.250,0.022,0.981,-0.096,0.885,-1.495,0.671,66.667,614222.000,1.000
-2.779,2.792,-0.591,1.961,3.626,0.736,-4.846,5.767,0.021,0.984,-0.097,0.885,-1.587,0.763,66.667,614223.000,1.000
-2.790,1.452,-0.864,1.298,2.706,0.170,-3.943,4.130,0.022,0.984,-0.097,0.702,-1.678,0.793,66.667,614224.000,1.000
-2.220,1.671,0.066,2.098,3.979,2.645,1.377,4.878,0.023,0.987,-0.100,0.549,-1.678,0.763,66.667,614225.000,1.000
-0.901,3.664,2.187,4.232,7.144,7.422,8.671,7.580,0.023,0.988,-0.100,0.549,-1.678,0.763,66.667,614226.000,1.000
0.212,5.869,4.042,6.231,10.131,11.772,14.022,10.012,0.024,0.987,-0.100,0.488,-1.587,0.763,66.667,614227.000,1.000
-0.151,6.255,3.915,6.422,10.832,13.167,14.953,10.052,0.023,0.989,-0.098,0.336,-1.648,0.793,66.667,614228.000,1.000
-2.366,4.045,1.362,4.336,8.799,11.242,11.961,7.425,0.024,0.987,-0.100,0.244,-1.648,0.824,66.667,614229.000,1.000
-5.523,0.266,-2.427,0.991,5.351,7.808,7.733,3.690,0.026,0.988,-0.100,0.153,-1.648,0.916,66.667,614230.000,1.000
-8.144,-3.148,-5.649,-2.064,2.309,5.255,4.996,0.705,0.023,0.986,-0.098,0.061,-1.709,0.824,66.667,614231.000,1.000
-9.201,-4.719,-7.138,-3.851,0.715,4.921,4.649,-0.774,0.021,0.983,-0.099,0.000,-1.740,0.763,66.667,614232.000,1.000
-8.555,-4.187,-6.808,-4.329,0.488,6.433,5.530,-1.177,0.022,0.984,-0.096,-0.031,-1.770,0.824,66.667,614233.000,1.000
-6.879,-2.437,-5.443,-4.157,0.730,8.070,5.631,-1.450,0.020,0.984,-0.097,-0.122,-1.709,0.793,66.667,614234.000,1.000
-5.231,-0.790,-4.216,-4.192,0.393,7.976,3.751,-2.380,0.021,0.983,-0.096,-0.092,-1.709,0.885,66.667,614235.000,1.000
-4.346,0.070,-3.912,-4.808,-0.794,5.736,0.694,-3.921,0.021,0.984,-0.097,-0.244,-1.709,0.824,66.667,614236.000,1.000
-4.163,0.569,-4.374,-5.609,-2.007,2.811,-1.276,-5.115,0.023,0.984,-0.099,-0.275,-1.770,0.885,66.667,614237.000,1.000
-4.077,1.542,-4.793,-5.910,-2.099,1.238,-0.538,-4.928,0.022,0.986,-0.100,-0.305,-1.678,0.824,66.667,614238.000,1.000
-3.502,3.342,-4.438,-5.331,-0.508,2.152,2.886,-2.941,0.021,0.987,-0.099,-0.427,-1.587,0.916,66.667,614239.000,1.000
-2.190,5.666,-3.117,-3.969,2.520,5.438,8.096,0.687,0.022,0.989,-0.099,-0.427,-1.526,0.916,66.667,614240.000,1.000
-0.353,7.802,-1.309,-2.328,6.007,9.879,13.625,5.235,0.021,0.986,-0.098,-0.336,-1.556,0.946,66.667,614241.000,1.000
1.356,8.871,0.023,-1.098,8.493,13.393,17.114,9.352,0.022,0.986,-0.100,-0.397,-1.556,1.038,66.667,614242.000,1.000
2.211,8.223,0.077,-0.699,8.860,14.089,16.430,11.604,0.022,0.983,-0.100,-0.397,-1.648,1.038,66.667,614243.000,1.000
1.861,5.823,-1.193,-0.967,7.127,11.569,11.493,11.352,0.023,0.983,-0.096,-0.549,-1.465,1.007,66.667,614244.000,1.000
0.474,2.330,-3.094,-1.363,4.341,7.006,4.259,9.061,0.024,0.983,-0.097,-0.641,-1.556,1.068,66.667,614245.000,1.000
-1.374,-1.104,-4.614,-1.336,1.962,2.295,-2.479,6.066,0.023,0.984,-0.098,-0.702,-1.373,1.129,66.667,614246.000,1.000
-2.944,-3.277,-4.870,-0.512,1.267,-0.692,-6.076,4.038,0.024,0.982,-0.098,-0.641,-1.221,1.190,66.667,614247.000,1.000
-3.805,-3.658,-3.626,1.069,2.667,-0.948,-5.256,4.045,0.025,0.982,-0.101,-0.519,-1.160,1.190,66.667,614248.000,1.000
-4.138,-2.787,-1.552,2.778,5.271,0.884,-1.174,5.721,0.025,0.982,-0.099,-0.488,-1.068,1.312,66.667,614249.000,1.000
-4.363,-1.758,0.338,3.863,7.504,2.898,3.128,7.595,0.026,0.984,-0.099,-0.488,-0.916,1.404,66.667,614250.000,1.000
-4.532,-1.283,1.614,4.184,8.406,3.469,5.055,8.505,0.026,0.987,-0.101,-0.519,-0.854,1.434,66.667,614251.000,1.000
-4.373,-1.295,2.610,4.315,8.273,2.463,4.518,8.669,0.026,0.988,-0.100,-0.458,-0.763,1.617,66.667,614252.000,1.000
-3.792,-1.331,3.747,4.847,8.077,1.040,3.493,9.163,0.025,0.988,-0.100,-0.427,-0.732,1.617,66.667,614253.000,1.000
-3.163,-1.207,4.851,5.618,8.261,0.337,3.508,10.223,0.024,0.990,-0.097,-0.702,-0.763,1.617,66.667,614254.000,1.000
-3.090,-1.355,5.205,5.731,8.170,0.229,3.908,10.460,0.024,0.986,-0.096,-0.702,-0.702,1.587,66.667,614255.000,1.000
-3.929,-2.415,4.260,4.401,6.770,-0.554,2.943,8.216,0.024,0.984,-0.099,-0.732,-0.519,1.556,66.667,614256.000,1.000
-5.463,-4.426,2.237,1.750,3.844,-3.015,-0.029,3.366,0.024,0.983,-0.100,-0.793,-0.549,1.526,66.667,614257.000,1.000
-7.007,-6.545,0.031,-1.236,0.283,-6.726,-4.036,-2.484,0.025,0.983,-0.102,-0.702,-0.549,1.434,66.667,614258.000,1.000
-7.969,-7.756,-1.533,-3.495,-2.685,-10.127,-7.481,-7.169,0.025,0.984,-0.099,-0.549,-0.488,1.312,66.667,614259.000,1.000
-8.303,-7.777,-2.325,-4.597,-4.333,-11.823,-8.977,-9.199,0.025,0.983,-0.099,-0.549,-0.427,1.343,66.667,614260.000,1.000
-8.406,-7.181,-2.797,-4.834,-4.706,-11.500,-7.959,-8.414,0.026,0.980,-0.095,-0.519,-0.488,1.312,66.667,614261.000,1.000
-8.608,-6.758,-3.357,-4.811,-4.389,-9.725,-5.134,-5.912,0.028,0.979,-0.096,-0.580,-0.366,1.251,66.667,614262.000,1.000
-8.850,-6.823,-3.955,-4.954,-3.962,-7.230,-1.778,-3.194,0.028,0.974,-0.099,-0.458,-0.183,1.343,66.667,614263.000,1.000
-8.903,-7.174,-4.301,-5.335,-3.671,-4.870,1.134,-1.285,0.029,0.973,-0.098,-0.397,-0.214,1.343,66.667,614264.000,1.000
-8.753,-7.579,-4.337,-5.902,-3.663,-3.936,2.374,-0.629,0.029,0.973,-0.099,-0.244,-0.092,1.373,66.667,614265.000,1.000
-8.499,-7.932,-4.212,-6.537,-4.077,-5.298,0.529,-1.248,0.027,0.975,-0.099,-0.092,0.031,1.404,66.667,614266.000,1.000
-7.906,-8.006,-3.881,-6.867,-4.719,-8.150,-4.255,-2.653,0.028,0.974,-0.097,0.092,0.122,1.404,66.667,614267.000,1.000
-6.491,-7.560,-3.135,-6.445,-5.125,-10.519,-9.780,-4.051,0.028,0.979,-0.098,0.214,0.244,1.465,66.667,614268.000,1.000
-4.182,-6.769,-2.093,-5.264,-5.120,-11.040,-13.542,-4.942,0.028,0.983,-0.098,0.214,0.244,1.709,66.667,614269.000,1.000
-1.528,-6.138,-1.223,-3.779,-4.900,-9.704,-14.212,-5.252,0.026,0.984,-0.098,0.275,0.336,1.678,66.667,614270.000,1.000
0.835,-5.948,-0.818,-2.399,-4.588,-7.331,-11.777,-4.971,0.026,0.986,-0.101,0.336,0.244,1.678,66.667,614271.000,1.000
2.575,-6.085,-0.790,-1.305,-4.181,-5.118,-7.406,-4.191,0.025,0.987,-0.100,0.336,0.275,1.770,66.667,614272.000,1.000
3.615,-6.256,-0.902,-0.620,-3.763,-4.201,-3.066,-3.376,0.022,0.985,-0.101,0.366,0.214,1.678,66.667,614273.000,1.000
4.142,-5.986,-0.820,-0.331,-3.248,-4.664,-0.244,-2.965,0.020,0.988,-0.100,0.427,0.214,1.617,66.667,614274.000,1.000
4.692,-4.599,-0.015,-0.026,-2.037,-4.979,1.264,-2.717,0.017,0.989,-0.095,0.366,0.031,1.465,66.667,614275.000,1.000
5.902,-1.687,1.960,0.862,0.508,-3.153,2.800,-2.094,0.014,0.991,-0.094,0.214,-0.244,1.312,66.667,614276.000,1.000
7.914,2.260,4.874,2.392,4.063,1.141,4.772,-1.277,0.014,0.990,-0.094,0.092,-0.397,1.099,66.667,614277.000,1.000
10.041,5.875,7.668,3.923,7.195,5.859,5.839,-1.142,0.012,0.992,-0.094,-0.122,-0.610,1.007,66.667,614278.000,1.000
11.205,7.801,9.190,4.701,8.487,8.401,4.677,-2.188,0.011,0.992,-0.095,-0.244,-0.916,0.946,66.667,614279.000,1.000
10.814,7.628,9.075,4.503,7.663,7.922,1.826,-3.926,0.017,0.990,-0.097,-0.275,-1.068,0.824,66.667,614280.000,1.000
9.126,5.917,7.818,3.625,5.522,5.565,-0.779,-5.363,0.019,0.989,-0.098,-0.397,-1.190,0.732,66.667,614281.000,1.000
6.803,3.497,6.105,2.457,3.057,2.909,-1.764,-5.831,0.021,0.990,-0.100,-0.458,-1.221,0.732,66.667,614282.000,1.000
4.367,0.970,4.238,1.211,0.855,0.827,-1.358,-5.327,0.025,0.991,-0.098,-0.519,-1.373,0.793,66.667,614283.000,1.000
2.059,-1.246,2.170,-0.050,-0.904,-0.454,-0.757,-4.364,0.026,0.991,-0.098,-0.580,-1.434,0.763,66.667,614284.000,1.000
-0.023,-2.767,-0.074,-1.289,-2.191,-1.000,-1.027,-3.646,0.029,0.990,-0.096,-0.610,-1.404,0.854,66.667,614285.000,1.000
-1.653,-3.165,-2.036,-2.316,-2.804,-0.854,-2.244,-3.490,0.029,0.991,-0.095,-0.702,-1.312,0.977,66.667,614286.000,1.000
-2.302,-2.008,-2.847,-2.610,-2.165,0.294,-3.088,-3.261,0.028,0.991,-0.096,-0.702,-1.251,1.068,66.667,614287.000,1.000
-1.392,0.796,-1.744,-1.489,0.332,2.874,-1.520,-1.750,0.027,0.990,-0.097,-0.854,-1.251,1.129,66.667,614288.000,1.000
1.049,4.544,1.210,1.253,4.479,6.670,3.411,1.527,0.024,0.986,-0.096,-0.854,-1.221,1.190,66.667,614289.000,1.000
4.101,7.808,4.890,4.892,8.897,10.521,10.023,5.534,0.021,0.985,-0.094,-0.763,-1.282,1.373,66.667,614290.000,1.000
6.362,9.213,7.710,8.136,11.826,13.105,14.852,8.451,0.022,0.983,-0.091,-0.793,-1.312,1.282,66.667,614291.000,1.000
6.644,8.184,8.503,9.883,12.227,13.844,15.400,8.978,0.022,0.984,-0.092,-0.824,-1.282,1.251,66.667,614292.000,1.000
4.537,5.052,6.967,9.646,10.050,12.787,11.481,6.797,0.022,0.983,-0.091,-0.763,-1.312,1.160,66.667,614293.000,1.000
0.776,0.853,3.760,7.738,6.010,10.160,4.649,2.539,0.022,0.982,-0.092,-0.702,-1.556,1.190,66.667,614294.000,1.000
-2.881,-2.872,0.390,5.355,1.626,6.665,-2.297,-2.013,0.023,0.981,-0.094,-0.641,-1.495,1.129,66.667,614295.000,1.000
-4.679,-4.695,-1.575,3.949,-1.207,3.687,-6.082,-4.498,0.023,0.981,-0.094,-0.641,-1.556,1.068,66.667,614296.000,1.000
-4.075,-4.244,-1.576,4.135,-1.459,2.395,-5.031,-3.679,0.025,0.982,-0.093,-0.610,-1.495,0.916,66.667,614297.000,1.000
-1.863,-2.301,-0.185,5.417,0.430,2.983,-0.347,-0.319,0.026,0.980,-0.091,-0.519,-1.465,0.854,66.667,614298.000,1.000
0.731,0.066,1.723,6.934,3.242,4.991,5.270,3.756,0.026,0.979,-0.091,-0.549,-1.434,0.854,66.667,614299.000,1.000
2.797,2.125,3.490,8.049,5.824,7.639,9.635,6.879,0.026,0.979,-0.092,-0.397,-1.434,0.824,66.667,614300.000,1.000
3.907,3.459,4.671,8.406,7.346,9.719,11.511,8.053,0.026,0.978,-0.093,-0.336,-1.526,0.824,66.667,614301.000,1.000
4.102,3.964,5.098,7.965,7.459,10.084,10.339,7.158,0.025,0.977,-0.094,-0.244,-1.373,0.793,66.667,614302.000,1.000
3.856,3.959,5.034,7.080,6.543,8.631,6.503,4.938,0.027,0.975,-0.092,0.000,-1.373,0.824,66.667,614303.000,1.000
3.810,4.021,5.048,6.310,5.549,6.433,1.570,2.590,0.025,0.974,-0.094,0.061,-1.312,0.793,66.667,614304.000,1.000
4.285,4.494,5.527,5.961,5.274,4.799,-2.367,1.135,0.028,0.977,-0.095,0.092,-1.251,0.763,66.667,614305.000,1.000
4.904,5.032,6.172,5.722,5.632,4.239,-3.892,0.781,0.027,0.976,-0.092,0.305,-1.221,0.732,66.667,614306.000,1.000
4.813,4.758,6.115,4.893,5.690,4.151,-3.027,0.854,0.024,0.976,-0.094,0.366,-1.099,0.671,66.667,614307.000,1.000
3.499,3.070,4.733,3.071,4.495,3.457,-1.092,0.435,0.026,0.975,-0.095,0.397,-1.068,0.610,66.667,614308.000,1.000
1.259,0.208,2.243,0.480,1.762,1.475,-0.036,-1.034,0.024,0.977,-0.094,0.519,-1.068,0.641,66.667,614309.000,1.000
-1.063,-2.887,-0.438,-2.226,-1.924,-1.585,-1.247,-3.367,0.025,0.979,-0.093,0.488,-1.038,0.763,66.667,614310.000,1.000
-2.570,-4.992,-2.186,-4.175,-5.185,-4.477,-4.084,-5.355,0.025,0.979,-0.095,0.610,-1.007,0.793,66.667,614311.000,1.000
-2.819,-5.260,-2.335,-4.612,-6.602,-5.609,-6.097,-5.472,0.025,0.980,-0.095,0.641,-0.916,0.793,66.667,614312.000,1.000
-2.251,-3.959,-1.268,-3.490,-5.886,-4.468,-5.454,-3.402,0.022,0.980,-0.096,0.641,-1.068,0.824,66.667,614313.000,1.000
-1.951,-2.400,-0.259,-1.635,-4.156,-2.213,-2.752,-0.509,0.021,0.982,-0.096,0.641,-0.885,0.885,66.667,614314.000,1.000
-2.798,-1.972,-0.533,-0.170,-2.980,-0.781,-0.254,1.328,0.021,0.984,-0.094,0.610,-0.916,0.885,66.667,614315.000,1.000
-4.875,-3.326,-2.519,0.151,-3.340,-1.630,0.078,1.063,0.021,0.985,-0.094,0.580,-0.946,0.916,66.667,614316.000,1.000
-7.564,-6.180,-5.775,-0.806,-5.281,-5.004,-2.299,-1.173,0.022,0.983,-0.097,0.397,-0.977,1.038,66.667,614317.000,1.000
-9.889,-9.501,-9.231,-2.580,-8.006,-9.793,-6.501,-4.401,0.023,0.983,-0.095,0.427,-1.007,0.977,66.667,614318.000,1.000
-10.908,-12.033,-11.653,-4.402,-10.356,-14.177,-10.697,-7.286,0.022,0.989,-0.098,0.366,-0.916,1.068,66.667,614319.000,1.000
-10.206,-13.006,-12.326,-5.632,-11.534,-16.817,-12.948,-8.699,0.022,0.989,-0.096,0.244,-0.916,1.129,66.667,614320.000,1.000
-8.152,-12.453,-11.422,-6.018,-11.535,-17.461,-12.249,-8.297,0.022,0.987,-0.096,0.092,-0.916,1.099,66.667,614321.000,1.000
-5.653,-10.963,-9.747,-5.695,-10.958,-16.629,-9.302,-6.777,0.022,0.988,-0.097,0.031,-0.946,1.190,66.667,614322.000,1.000
-3.648,-9.258,-8.198,-5.025,-10.447,-15.062,-6.100,-5.324,0.021,0.992,-0.096,-0.031,-1.068,1.129,66.667,614323.000,1.000
-2.785,-7.930,-7.416,-4.441,-10.348,-13.468,-4.398,-4.718,0.023,0.994,-0.093,-0.153,-1.038,1.282,66.667,614324.000,1.000
-3.298,-7.316,-7.656,-4.313,-10.786,-12.480,-4.692,-5.113,0.021,0.994,-0.095,-0.244,-1.038,1.251,66.667,614325.000,1.000
-4.919,-7.425,-8.719,-4.749,-11.702,-12.462,-6.218,-6.201,0.020,0.995,-0.092,-0.549,-1.007,1.190,66.667,614326.000,1.000
-6.966,-7.964,-9.998,-5.513,-12.731,-13.224,-7.512,-7.256,0.020,0.993,-0.092,-0.702,-1.221,1.190,66.667,614327.000,1.000
-8.650,-8.475,-10.735,-6.160,-13.275,-14.207,-7.657,-7.529,0.020,0.990,-0.090,-0.885,-1.221,1.068,66.667,614328.000,1.000
-9.371,-8.472,-10.297,-6.240,-12.815,-14.869,-7.196,-6.881,0.022,0.985,-0.093,-1.099,-1.221,1.068,66.667,614329.000,1.000
-8.974,-7.682,-8.510,-5.600,-11.216,-14.806,-7.500,-5.954,0.025,0.985,-0.094,-1.160,-1.312,1.190,66.667,614330.000,1.000
-7.816,-6.234,-5.880,-4.603,-8.900,-13.851,-9.434,-5.678,0.024,0.983,-0.096,-1.129,-1.282,1.190,66.667,614331.000,1.000
-6.418,-4.392,-3.228,-3.820,-6.543,-12.109,-12.499,-6.417,0.027,0.984,-0.099,-1.068,-1.251,1.282,66.667,614332.000,1.000
-5.031,-2.187,-1.066,-3.512,-4.514,-9.718,-14.755,-7.500,0.026,0.984,-0.095,-0.916,-1.160,1.251,66.667,614333.000,1.000
-3.723,0.349,0.468,-3.563,-2.812,-6.743,-13.918,-7.732,0.027,0.986,-0.095,-1.007,-1.038,1.404,66.667,614334.000,1.000
-2.638,2.815,1.312,-3.667,-1.364,-3.469,-9.212,-6.384,0.026,0.985,-0.096,-1.007,-0.946,1.465,66.667,614335.000,1.000
-1.857,4.675,1.538,-3.418,-0.069,-0.493,-2.164,-3.601,0.027,0.984,-0.094,-0.977,-0.885,1.556,66.667,614336.000,1.000
-1.170,5.764,1.542,-2.493,1.262,1.643,4.402,-0.187,0.028,0.984,-0.097,-0.977,-0.854,1.617,66.667,614337.000,1.000
-0.255,6.337,1.848,-0.925,2.757,2.795,8.154,2.806,0.029,0.983,-0.096,-0.854,-0.763,1.617,66.667,614338.000,1.000
1.048,6.791,2.731,0.977,4.429,3.243,8.653,4.713,0.027,0.982,-0.094,-0.732,-0.671,1.678,66.667,614339.000,1.000
2.695,7.457,4.117,2.943,6.292,3.536,7.249,5.702,0.025,0.984,-0.091,-0.702,-0.641,1.617,66.667,614340.000,1.000
4.315,8.335,5.535,4.661,8.163,4.058,5.472,6.277,0.023,0.984,-0.092,-0.641,-0.580,1.465,66.667,614341.000,1.000
5.081,8.907,6.141,5.497,9.400,4.631,3.893,6.548,0.021,0.983,-0.091,-0.610,-0.580,1.251,66.667,614342.000,1.000
4.139,8.489,5.187,4.810,9.278,4.843,2.606,6.192,0.020,0.980,-0.091,-0.671,-0.671,1.160,66.667,614343.000,1.000
1.308,6.821,2.613,2.519,7.613,4.661,1.914,4.833,0.022,0.979,-0.092,-0.702,-0.763,0.977,66.667,614344.000,1.000
-2.730,4.200,-0.904,-0.838,4.824,4.392,1.898,2.342,0.022,0.979,-0.095,-0.641,-0.854,0.793,66.667,614345.000,1.000
-6.770,1.211,-4.402,-4.480,1.544,4.139,1.932,-1.038,0.023,0.978,-0.096,-0.580,-0.763,0.641,66.667,614346.000,1.000
-9.520,-1.475,-6.996,-7.605,-1.543,3.642,1.430,-4.574,0.025,0.977,-0.094,-0.427,-0.793,0.580,66.667,614347.000,1.000
-10.076,-3.158,-8.049,-9.457,-3.659,2.758,0.772,-7.074,0.026,0.979,-0.094,-0.305,-0.824,0.488,66.667,614348.000,1.000
-8.504,-3.363,-7.444,-9.623,-4.242,1.867,0.783,-7.483,0.029,0.980,-0.094,-0.153,-0.793,0.397,66.667,614349.000,1.000
-6.008,-2.220,-5.821,-8.431,-3.436,1.547,1.510,-5.725,0.025,0.982,-0.095,-0.122,-0.610,0.458,66.667,614350.000,1.000
-4.221,-0.431,-4.280,-6.830,-2.036,2.003,2.127,-2.848,0.025,0.981,-0.094,-0.061,-0.610,0.488,66.667,614351.000,1.000
-4.053,1.287,-3.563,-5.624,-0.817,2.979,1.876,-0.188,0.025,0.983,-0.097,-0.122,-0.580,0.671,66.667,614352.000,1.000
-5.179,2.655,-3.565,-4.936,-0.032,4.122,0.716,1.572,0.025,0.986,-0.094,-0.061,-0.519,0.824,66.667,614353.000,1.000
-6.624,3.637,-3.752,-4.491,0.445,5.208,-0.733,2.529,0.026,0.986,-0.092,-0.061,-0.397,0.885,66.667,614354.000,1.000
-7.553,4.122,-3.778,-4.067,0.784,6.140,-1.643,3.070,0.027,0.985,-0.096,-0.092,-0.397,1.038,66.667,614355.000,1.000
-7.543,3.986,-3.576,-3.547,1.154,6.923,-1.460,3.525,0.026,0.986,-0.095,-0.031,-0.336,1.129,66.667,614356.000,1.000
-6.603,3.214,-3.259,-2.927,1.631,7.537,-0.299,4.001,0.025,0.987,-0.097,-0.061,-0.488,1.312,66.667,614357.000,1.000
-5.215,1.831,-3.142,-2.451,2.008,7.744,1.185,4.339,0.024,0.988,-0.095,-0.122,-0.488,1.404,66.667,614358.000,1.000
-4.148,-0.126,-3.655,-2.539,1.841,7.166,2.508,4.250,0.022,0.988,-0.095,-0.122,-0.549,1.434,66.667,614359.000,1.000
-3.988,-2.438,-5.001,-3.411,0.768,5.662,3.484,3.488,0.021,0.989,-0.092,-0.183,-0.519,1.526,66.667,614360.000,1.000
-4.641,-4.506,-6.787,-4.718,-1.115,3.684,3.675,1.963,0.019,0.988,-0.090,-0.183,-0.580,1.617,66.667,614361.000,1.000
-5.342,-5.557,-8.153,-5.643,-3.199,2.111,2.448,-0.094,0.021,0.989,-0.091,-0.305,-0.549,1.770,66.667,614362.000,1.000
-5.290,-5.316,-8.467,-5.559,-4.791,1.539,-0.200,-2.158,0.020,0.988,-0.093,-0.305,-0.732,1.587,66.667,614363.000,1.000
-4.328,-4.363,-7.884,-4.618,-5.633,1.812,-3.320,-3.725,0.020,0.987,-0.095,-0.275,-0.824,1.617,66.667,614364.000,1.000
-3.026,-3.687,-7.154,-3.648,-5.989,2.252,-5.703,-4.585,0.021,0.986,-0.097,-0.397,-0.885,1.678,66.667,614365.000,1.000
-2.221,-4.009,-6.976,-3.520,-6.331,2.208,-6.630,-4.814,0.021,0.985,-0.094,-0.275,-0.946,1.648,66.667,614366.000,1.000
-2.427,-5.438,-7.527,-4.586,-6.980,1.378,-6.104,-4.752,0.024,0.983,-0.092,-0.397,-0.885,1.556,66.667,614367.000,1.000
-3.415,-7.445,-8.377,-6.437,-7.879,-0.169,-4.805,-4.897,0.027,0.984,-0.095,-0.397,-0.977,1.556,66.667,614368.000,1.000
-4.317,-9.137,-8.782,-8.128,-8.653,-2.186,-3.798,-5.509,0.026,0.983,-0.093,-0.366,-0.854,1.556,66.667,614369.000,1.000
-4.181,-9.794,-8.205,-8.849,-9.003,-4.514,-4.094,-6.524,0.027,0.980,-0.093,-0.244,-0.763,1.465,66.667,614370.000,1.000
-2.598,-9.226,-6.569,-8.442,-8.987,-7.019,-5.963,-7.815,0.029,0.981,-0.092,-0.122,-0.732,1.404,66.667,614371.000,1.000
0.065,-7.664,-4.159,-7.347,-8.820,-9.256,-8.411,-9.094,0.028,0.983,-0.094,-0.061,-0.702,1.373,66.667,614372.000,1.000
3.048,-5.405,-1.368,-6.105,-8.482,-10.546,-9.832,-9.689,0.028,0.982,-0.094,0.061,-0.763,1.404,66.667,614373.000,1.000
5.859,-2.558,1.570,-4.898,-7.652,-10.434,-9.455,-8.933,0.028,0.983,-0.094,0.122,-0.702,1.312,66.667,614374.000,1.000
8.468,0.866,4.589,-3.538,-6.063,-8.907,-7.885,-6.895,0.027,0.983,-0.093,0.153,-0.702,1.251,66.667,614375.000,1.000
10.924,4.651,7.583,-1.807,-3.830,-6.239,-6.126,-4.430,0.026,0.981,-0.096,0.122,-0.671,1.190,66.667,614376.000,1.000
12.968,8.264,10.239,0.252,-1.408,-2.825,-4.561,-2.466,0.025,0.982,-0.095,0.122,-0.641,1.099,66.667,614377.000,1.000
14.045,11.009,12.041,2.240,0.592,0.763,-3.072,-1.469,0.026,0.983,-0.093,0.122,-0.610,1.129,66.667,614378.000,1.000
13.707,12.345,12.504,3.566,1.652,3.815,-1.535,-1.403,0.027,0.984,-0.093,0.153,-0.641,0.977,66.667,614379.000,1.000
12.110,12.265,11.570,3.924,1.678,5.854,0.159,-1.862,0.029,0.985,-0.096,0.153,-0.763,1.068,66.667,614380.000,1.000
10.070,11.374,9.773,3.615,1.172,7.028,2.287,-2.222,0.026,0.984,-0.093,0.214,-0.702,0.977,66.667,614381.000,1.000
8.508,10.499,7.898,3.260,0.918,7.971,4.933,-2.008,0.025,0.985,-0.091,0.244,-0.671,0.885,66.667,614382.000,1.000
7.894,10.138,6.519,3.286,1.387,9.041,7.342,-1.215,0.025,0.985,-0.091,0.305,-0.610,0.793,66.667,614383.000,1.000
8.197,10.297,5.895,3.802,2.489,9.758,8.337,-0.070,0.024,0.985,-0.091,0.214,-0.671,0.824,66.667,614384.000,1.000
9.079,10.656,6.058,4.721,3.737,9.166,7.436,1.305,0.023,0.986,-0.092,0.000,-0.671,0.854,66.667,614385.000,1.000
9.882,10.622,6.630,5.624,4.358,6.543,4.920,2.540,0.022,0.985,-0.093,0.031,-0.732,0.793,66.667,614386.000,1.000
9.759,9.504,6.777,5.772,3.536,1.811,1.039,2.603,0.022,0.985,-0.093,0.092,-0.885,0.763,66.667,614387.000,1.000
8.350,7.192,5.923,4.751,1.176,-4.064,-3.778,0.623,0.023,0.985,-0.093,0.061,-0.854,0.793,66.667,614388.000,1.000
6.254,4.637,4.490,3.068,-1.565,-8.903,-7.973,-2.814,0.023,0.985,-0.093,-0.031,-0.916,0.732,66.667,614389.000,1.000
4.625,3.273,3.645,1.845,-2.921,-10.400,-9.403,-5.841,0.021,0.983,-0.094,0.000,-1.099,0.671,66.667,614390.000,1.000
4.281,3.863,4.306,1.946,-1.847,-7.867,-7.050,-6.737,0.021,0.985,-0.091,0.000,-1.129,0.519,66.667,614391.000,1.000
5.131,5.881,6.378,3.356,1.179,-2.821,-1.800,-5.039,0.022,0.984,-0.091,-0.061,-1.312,0.580,66.667,614392.000,1.000
6.363,7.926,8.852,5.261,4.514,2.045,4.052,-1.642,0.022,0.986,-0.091,-0.122,-1.373,0.580,66.667,614393.000,1.000
7.220,8.815,10.656,6.746,6.559,4.581,8.021,1.936,0.021,0.986,-0.093,-0.214,-1.373,0.671,66.667,614394.000,1.000
7.537,8.426,11.444,7.456,6.843,4.391,8.743,4.455,0.021,0.986,-0.089,-0.305,-1.465,0.641,66.667,614395.000,1.000
7.578,7.575,11.572,7.624,6.088,2.630,6.477,5.467,0.020,0.986,-0.091,-0.366,-1.373,0.610,66.667,614396.000,1.000
7.744,7.316,11.691,7.770,5.528,0.970,2.807,5.434,0.020,0.985,-0.093,-0.397,-1.495,0.641,66.667,614397.000,1.000
8.406,8.285,12.394,8.350,6.186,0.804,0.056,5.388,0.020,0.983,-0.091,-0.427,-1.556,0.732,66.667,614398.000,1.000
9.531,10.229,13.781,9.307,8.201,2.583,0.024,5.977,0.021,0.985,-0.091,-0.427,-1.678,0.824,66.667,614399.000,1.000
10.516,12.042,15.207,9.963,10.607,5.360,2.360,6.744,0.018,0.985,-0.090,-0.366,-1.709,0.824,66.667,614400.000,1.000
10.684,12.574,15.702,9.582,12.032,7.446,4.742,6.697,0.020,0.986,-0.093,-0.427,-1.678,0.916,66.667,614401.000,1.000
9.911,11.506,14.718,8.103,11.774,7.835,5.237,5.529,0.019,0.986,-0.095,-0.488,-1.709,0.977,66.667,614402.000,1.000
8.630,9.296,12.354,6.133,10.041,6.767,3.844,3.798,0.021,0.984,-0.094,-0.488,-1.709,1.129,66.667,614403.000,1.000
7.340,6.564,9.044,4.292,7.430,5.139,1.905,2.058,0.021,0.986,-0.095,-0.610,-1.770,1.129,66.667,614404.000,1.000
6.409,3.900,5.450,2.882,4.675,3.892,0.947,0.567,0.022,0.985,-0.094,-0.519,-1.709,1.129,66.667,614405.000,1.000
6.146,1.979,2.477,2.059,2.597,3.703,1.889,-0.351,0.023,0.986,-0.092,-0.549,-1.770,1.099,66.667,614406.000,1.000
6.563,1.259,0.859,1.842,1.631,4.632,4.400,-0.441,0.022,0.987,-0.092,-0.671,-1.678,1.221,66.667,614407.000,1.000
7.124,1.546,0.602,1.969,1.454,6.052,6.972,-0.049,0.023,0.988,-0.092,-0.702,-1.678,1.251,66.667,614408.000,1.000
7.073,2.085,1.031,2.041,1.346,7.117,8.129,0.022,0.023,0.988,-0.090,-0.793,-1.678,1.251,66.667,614409.000,1.000
6.009,2.058,1.292,1.789,0.788,7.175,7.545,-0.676,0.024,0.986,-0.091,-0.824,-1.587,1.251,66.667,614410.000,1.000
4.038,1.001,0.768,1.067,-0.349,5.833,5.883,-1.918,0.023,0.986,-0.091,-0.763,-1.587,1.251,66.667,614411.000,1.000
1.598,-1.018,-0.680,-0.222,-1.947,3.040,3.734,-3.292,0.023,0.985,-0.093,-0.946,-1.465,1.343,66.667,614412.000,1.000
-0.698,-3.423,-2.667,-2.027,-3.806,-0.814,0.886,-4.712,0.024,0.985,-0.092,-0.916,-1.404,1.404,66.667,614413.000,1.000
-2.193,-5.372,-4.470,-4.010,-5.720,-5.052,-3.257,-6.359,0.026,0.985,-0.091,-0.977,-1.373,1.373,66.667,614414.000,1.000
-2.332,-6.078,-5.296,-5.502,-7.344,-8.847,-8.490,-8.141,0.026,0.984,-0.091,-0.916,-1.282,1.343,66.667,614415.000,1.000
-0.871,-5.114,-4.559,-5.677,-8.075,-11.226,-13.164,-9.309,0.026,0.983,-0.091,-0.824,-1.251,1.404,66.667,614416.000,1.000
1.902,-2.619,-2.182,-3.994,-7.314,-11.361,-15.074,-8.794,0.026,0.984,-0.091,-0.763,-1.129,1.312,66.667,614417.000,1.000
5.234,0.826,1.397,-0.538,-4.832,-9.078,-12.951,-5.870,0.027,0.983,-0.092,-0.793,-1.068,1.251,66.667,614418.000,1.000
8.259,4.543,5.485,4.012,-0.915,-5.055,-7.247,-0.613,0.025,0.982,-0.092,-0.671,-0.977,1.221,66.667,614419.000,1.000
10.187,7.663,9.074,8.426,3.370,-0.805,-0.309,5.636,0.028,0.982,-0.091,-0.732,-0.916,1.251,66.667,614420.000,1.000
10.362,8.939,10.769,11.150,6.176,1.696,4.529,10.368,0.027,0.984,-0.092,-0.732,-0.793,1.190,66.667,614421.000,1.000
8.630,7.503,9.587,11.203,6.010,1.208,5.185,11.449,0.025,0.984,-0.091,-0.763,-0.763,1.282,66.667,614422.000,1.000
5.652,3.844,5.893,8.935,3.006,-1.764,2.256,8.752,0.025,0.983,-0.089,-0.641,-0.732,1.282,66.667,614423.000,1.000
2.493,-0.426,1.163,5.664,-1.263,-5.467,-1.853,4.035,0.025,0.985,-0.090,-0.580,-0.702,1.251,66.667,614424.000,1.000
0.013,-3.564,-2.843,2.862,-4.836,-8.159,-4.705,-0.311,0.025,0.987,-0.093,-0.580,-0.610,1.282,66.667,614425.000,1.000
-1.248,-4.378,-4.653,1.663,-6.134,-8.812,-4.899,-2.324,0.025,0.987,-0.090,-0.610,-0.549,1.251,66.667,614426.000,1.000
-0.992,-2.521,-3.547,2.564,-4.430,-7.193,-2.462,-1.171,0.023,0.986,-0.091,-0.610,-0.580,1.190,66.667,614427.000,1.000
0.597,1.330,-0.044,5.141,-0.257,-3.795,1.259,2.467,0.024,0.985,-0.088,-0.519,-0.488,1.221,66.667,614428.000,1.000
2.534,5.528,4.087,8.043,4.558,0.155,4.306,6.542,0.023,0.985,-0.092,-0.519,-0.549,1.190,66.667,614429.000,1.000
3.426,8.168,6.733,9.623,7.720,2.953,5.044,8.662,0.026,0.985,-0.092,-0.519,-0.488,1.068,66.667,614430.000,1.000
2.381,8.109,6.620,8.849,7.763,3.184,2.949,7.522,0.023,0.985,-0.091,-0.427,-0.427,1.038,66.667,614431.000,1.000
-0.584,5.302,3.678,5.647,4.585,0.331,-1.401,3.402,0.023,0.985,-0.089,-0.336,-0.427,1.099,66.667,614432.000,1.000
-4.775,0.483,-1.296,0.707,-0.808,-4.973,-6.719,-2.342,0.023,0.984,-0.090,-0.275,-0.519,1.038,66.667,614433.000,1.000
-9.079,-5.014,-6.883,-4.642,-6.566,-10.727,-10.749,-7.651,0.023,0.985,-0.092,-0.305,-0.519,1.007,66.667,614434.000,1.000
-12.245,-9.470,-11.334,-8.748,-10.551,-14.198,-10.988,-10.417,0.022,0.983,-0.092,-0.183,-0.641,1.038,66.667,614435.000,1.000
-13.452,-11.551,-13.389,-10.542,-11.550,-13.815,-7.188,-9.909,0.022,0.984,-0.091,-0.122,-0.610,1.160,66.667,614436.000,1.000
-12.738,-11.059,-13.021,-10.198,-10.043,-10.488,-2.166,-7.319,0.023,0.983,-0.092,-0.122,-0.671,1.099,66.667,614437.000,1.000
-10.722,-8.839,-11.172,-8.762,-7.501,-6.634,0.765,-4.533,0.022,0.983,-0.092,-0.122,-0.793,1.129,66.667,614438.000,1.000
-8.002,-6.011,-8.827,-7.219,-5.138,-4.124,0.411,-2.697,0.022,0.984,-0.089,-0.061,-0.732,1.221,66.667,614439.000,1.000
-4.894,-3.321,-6.489,-5.916,-3.300,-3.241,-1.991,-1.800,0.023,0.983,-0.090,-0.031,-0.854,1.160,66.667,614440.000,1.000
-1.626,-1.041,-4.355,-4.632,-1.637,-3.073,-3.918,-1.040,0.022,0.982,-0.091,0.000,-0.824,1.221,66.667,614441.000,1.000
1.261,0.605,-2.783,-3.163,0.152,-2.677,-3.512,0.278,0.022,0.984,-0.092,0.031,-0.885,1.068,66.667,614442.000,1.000
2.865,1.134,-2.407,-1.817,1.698,-2.028,-1.250,1.988,0.024,0.985,-0.092,0.031,-0.946,1.099,66.667,614443.000,1.000
2.506,0.198,-3.629,-1.169,2.331,-1.761,0.709,3.385,0.024,0.984,-0.090,0.183,-0.854,1.282,66.667,614444.000,1.000
0.404,-1.802,-6.032,-1.380,2.004,-2.062,0.845,4.132,0.024,0.986,-0.093,0.183,-0.854,1.190,66.667,614445.000,1.000
-2.427,-3.907,-8.577,-2.026,1.409,-2.287,-0.441,4.471,0.023,0.983,-0.094,0.214,-0.885,1.099,66.667,614446.000,1.000
-4.917,-5.373,-10.355,-2.563,1.147,-1.757,-1.604,4.601,0.024,0.985,-0.093,0.214,-1.038,1.160,66.667,614447.000,1.000
-6.485,-6.031,-11.049,-2.708,1.178,-0.494,-1.477,4.300,0.024,0.984,-0.092,0.214,-1.038,1.221,66.667,614448.000,1.000
-7.130,-6.100,-10.896,-2.451,1.058,0.919,-0.066,3.367,0.024,0.984,-0.094,0.183,-1.007,1.190,66.667,614449.000,1.000
-7.359,-6.027,-10.515,-2.028,0.392,1.917,1.759,2.136,0.026,0.983,-0.092,0.214,-1.038,1.221,66.667,614450.000,1.000
-7.958,-6.337,-10.628,-1.918,-0.970,2.336,3.118,1.218,0.026,0.983,-0.092,0.183,-1.038,1.068,66.667,614451.000,1.000
-9.462,-7.315,-11.594,-2.571,-2.912,2.272,3.558,0.813,0.025,0.984,-0.094,0.183,-1.099,1.038,66.667,614452.000,1.000
-11.811,-8.825,-13.173,-4.079,-5.104,1.696,2.916,0.537,0.025,0.986,-0.094,0.275,-1.099,1.007,66.667,614453.000,1.000
-14.517,-10.498,-14.812,-6.159,-7.193,0.412,1.179,-0.135,0.023,0.985,-0.095,0.336,-1.007,1.007,66.667,614454.000,1.000
-16.940,-11.861,-15.916,-8.260,-8.847,-1.511,-1.440,-1.422,0.024,0.986,-0.093,0.275,-0.977,0.946,66.667,614455.000,1.000
-18.357,-12.254,-15.850,-9.603,-9.542,-3.232,-4.109,-2.867,0.024,0.988,-0.092,0.153,-0.977,0.946,66.667,614456.000,1.000
-18.108,-10.953,-14.079,-9.397,-8.530,-3.265,-5.108,-3.268,0.025,0.988,-0.090,0.153,-0.885,0.824,66.667,614457.000,1.000
-15.967,-7.694,-10.569,-7.346,-5.358,-0.531,-2.940,-1.485,0.023,0.987,-0.090,0.214,-1.038,0.793,66.667,614458.000,1.000
-12.505,-3.220,-6.172,-4.096,-0.640,4.492,1.871,2.299,0.024,0.989,-0.089,0.031,-1.038,0.763,66.667,614459.000,1.000
-9.036,0.801,-2.496,-1.073,3.896,9.817,6.811,6.379,0.023,0.990,-0.091,-0.214,-1.068,0.641,66.667,614460.000,1.000
-6.924,2.673,-1.042,0.331,6.359,13.259,9.362,8.679,0.022,0.988,-0.090,-0.244,-1.007,0.671,66.667,614461.000,1.000
-6.849,1.588,-2.321,-0.538,5.680,13.498,8.389,7.904,0.021,0.988,-0.089,-0.366,-0.977,0.671,66.667,614462.000,1.000
-8.545,-2.116,-5.650,-3.364,1.999,10.275,4.198,4.002,0.022,0.990,-0.086,-0.336,-0.946,0.641,66.667,614463.000,1.000
-10.901,-7.144,-9.498,-6.959,-3.389,4.412,-1.817,-1.835,0.021,0.987,-0.091,-0.488,-0.946,0.641,66.667,614464.000,1.000
-12.427,-11.767,-12.192,-9.760,-8.550,-2.312,-7.803,-7.640,0.019,0.986,-0.089,-0.610,-1.038,0.732,66.667,614465.000,1.000
-12.112,-14.682,-12.780,-10.708,-11.905,-7.877,-12.118,-11.653,0.019,0.986,-0.091,-0.549,-1.099,0.732,66.667,614466.000,1.000
-10.068,-15.647,-11.498,-9.852,-13.014,-11.077,-13.832,-13.246,0.020,0.985,-0.092,-0.610,-1.129,0.732,66.667,614467.000,1.000
-7.280,-15.305,-9.380,-8.075,-12.464,-12.034,-13.032,-12.979,0.018,0.984,-0.091,-0.610,-1.160,0.732,66.667,614468.000,1.000
-4.803,-14.446,-7.443,-6.323,-11.117,-11.775,-10.684,-11.811,0.018,0.985,-0.094,-0.580,-1.282,0.702,66.667,614469.000,1.000
