EEG 1,EEG 2,EEG 3,EEG 4,EEG 5,EEG 6,EEG 7,EEG 8,Accelerometer X,Accelerometer Y,Accelerometer Z,Gyroscope X,Gyroscope Y,Gyroscope Z,Battery Level,Counter,Validation Indicator
-2.900,-2.930,-2.380,-3.078,-1.789,2.530,2.662,-11.104,-0.066,0.991,-0.035,-0.427,-1.190,0.305,73.333,807929.000,1.000
-4.531,-3.709,-4.174,-4.045,-2.649,0.310,-0.945,-9.271,-0.065,0.990,-0.037,-0.397,-1.221,0.183,73.333,807930.000,1.000
-5.832,-3.925,-5.156,-4.637,-2.993,0.512,-2.052,-8.741,-0.065,0.993,-0.038,-0.244,-1.282,0.183,73.333,807931.000,1.000
-5.922,-2.712,-4.435,-4.041,-2.008,3.743,0.534,-8.062,-0.066,0.991,-0.038,-0.183,-1.221,0.153,73.333,807932.000,1.000
-4.542,0.114,-1.927,-1.936,0.354,8.564,5.669,-6.003,-0.068,0.992,-0.040,-0.122,-1.221,0.092,73.333,807933.000,1.000
-2.531,3.637,1.315,1.059,3.286,13.066,11.549,-2.622,-0.066,0.994,-0.038,-0.122,-1.251,-0.031,73.333,807934.000,1.000
-1.600,6.003,3.463,3.516,5.412,15.690,16.638,0.861,-0.067,0.993,-0.037,-0.061,-1.312,0.000,73.333,807935.000,1.000
-3.215,5.415,3.091,4.006,5.305,14.978,18.956,2.751,-0.066,0.995,-0.039,-0.153,-1.404,0.061,73.333,807936.000,1.000
-7.542,1.323,-0.033,1.860,2.136,10.018,16.112,1.354,-0.067,0.993,-0.039,-0.305,-1.312,0.183,73.333,807937.000,1.000
-13.351,-5.229,-4.926,-2.538,-3.767,1.435,7.168,-4.116,-0.066,0.995,-0.042,-0.122,-1.434,0.244,73.333,807938.000,1.000
-18.642,-12.118,-9.857,-7.772,-10.691,-8.471,-5.853,-12.322,-0.068,0.993,-0.038,-0.244,-1.434,0.275,73.333,807939.000,1.000
-21.510,-16.940,-12.846,-11.755,-15.903,-16.090,-18.110,-19.951,-0.067,0.992,-0.040,-0.153,-1.465,0.336,73.333,807940.000,1.000
-21.109,-18.133,-12.554,-12.812,-17.057,-18.061,-24.267,-23.825,-0.068,0.994,-0.041,-0.214,-1.495,0.366,73.333,807941.000,1.000
-18.220,-16.064,-9.460,-10.912,-14.044,-14.405,-22.542,-23.082,-0.068,0.995,-0.042,-0.275,-1.495,0.519,73.333,807942.000,1.000
-14.751,-12.775,-5.622,-7.712,-9.258,-9.243,-16.326,-19.454,-0.067,0.995,-0.041,-0.275,-1.526,0.580,73.333,807943.000,1.000
-12.543,-10.420,-3.253,-5.431,-5.904,-7.444,-11.495,-16.014,-0.070,1.000,-0.041,-0.305,-1.617,0.732,73.333,807944.000,1.000
-12.420,-10.016,-3.441,-5.566,-6.009,-11.260,-12.333,-15.222,-0.071,1.000,-0.038,-0.488,-1.617,0.763,73.333,807945.000,1.000
-13.930,-11.205,-5.707,-8.095,-9.321,-19.276,-18.822,-17.006,-0.070,1.000,-0.038,-0.549,-1.617,0.824,73.333,807946.000,1.000
-15.761,-12.710,-8.529,-11.583,-13.547,-27.185,-26.657,-18.706,-0.068,1.001,-0.041,-0.610,-1.740,0.946,73.333,807947.000,1.000
-16.506,-13.104,-10.199,-14.093,-15.863,-30.154,-29.932,-17.331,-0.068,1.001,-0.041,-0.641,-1.801,0.977,73.333,807948.000,1.000
-15.299,-11.548,-9.657,-14.292,-14.698,-25.723,-25.157,-12.081,-0.070,1.001,-0.039,-0.732,-1.892,1.068,73.333,807949.000,1.000
-12.140,-8.234,-6.900,-12.098,-10.603,-15.493,-14.030,-4.902,-0.070,1.000,-0.039,-0.793,-1.953,1.221,73.333,807950.000,1.000
-7.908,-4.368,-2.885,-8.599,-5.767,-4.552,-2.452,1.141,-0.072,1.003,-0.037,-0.916,-2.014,1.160,73.333,807951.000,1.000
-3.996,-1.591,0.771,-5.400,-2.626,1.291,3.520,3.908,-0.070,1.001,-0.038,-1.129,-2.075,1.129,73.333,807952.000,1.000
-1.555,-0.976,2.643,-3.673,-2.428,-0.824,1.518,3.238,-0.070,1.002,-0.043,-1.160,-2.136,1.129,73.333,807953.000,1.000
-0.849,-2.273,2.370,-3.506,-4.535,-8.790,-6.046,0.698,-0.067,1.002,-0.042,-1.221,-2.228,1.129,73.333,807954.000,1.000
-1.304,-4.107,0.835,-4.019,-6.961,-17.170,-13.948,-1.518,-0.069,1.002,-0.041,-1.312,-2.319,1.099,73.333,807955.000,1.000
-2.057,-4.881,-0.440,-4.000,-7.593,-20.862,-17.523,-1.533,-0.068,1.001,-0.038,-1.343,-2.319,0.977,73.333,807956.000,1.000
-2.441,-3.634,-0.224,-2.574,-5.223,-17.621,-14.983,1.719,-0.066,1.001,-0.036,-1.404,-2.502,0.916,73.333,807957.000,1.000
-2.160,-0.450,1.929,0.318,-0.102,-8.475,-7.539,7.925,-0.065,0.998,-0.035,-1.556,-2.502,0.916,73.333,807958.000,1.000
-1.262,3.610,5.470,3.809,6.059,3.049,1.469,14.930,-0.063,0.995,-0.039,-1.556,-2.411,0.946,73.333,807959.000,1.000
-0.020,7.043,9.120,6.602,10.939,12.426,8.058,19.789,-0.063,0.991,-0.041,-1.526,-2.319,0.824,73.333,807960.000,1.000
1.239,8.767,11.753,7.902,13.108,16.440,9.964,21.091,-0.060,0.990,-0.039,-1.526,-2.258,0.824,73.333,807961.000,1.000
2.325,8.806,13.133,7.991,13.070,15.245,8.345,20.186,-0.057,0.990,-0.041,-1.373,-2.289,0.854,73.333,807962.000,1.000
3.237,8.203,13.995,7.995,12.855,12.153,6.853,20.158,-0.056,0.992,-0.042,-1.343,-2.075,0.916,73.333,807963.000,1.000
4.017,8.117,15.157,8.906,14.253,10.842,8.359,23.264,-0.056,0.994,-0.041,-1.221,-1.923,1.007,73.333,807964.000,1.000
4.595,8.924,16.571,10.628,17.200,12.540,12.536,28.707,-0.057,0.994,-0.042,-1.068,-1.831,1.129,73.333,807965.000,1.000
4.934,10.184,17.484,12.114,20.009,15.886,16.836,33.149,-0.059,0.991,-0.042,-1.160,-1.678,1.160,73.333,807966.000,1.000
5.257,11.314,17.298,12.482,21.114,18.884,19.038,33.859,-0.057,0.988,-0.041,-1.038,-1.495,1.221,73.333,807967.000,1.000
5.911,12.028,16.151,11.704,20.186,20.377,18.328,30.938,-0.060,0.987,-0.040,-0.885,-1.373,1.221,73.333,807968.000,1.000
6.917,12.118,14.476,10.184,17.634,19.802,14.445,26.325,-0.065,0.989,-0.040,-0.824,-1.221,1.221,73.333,807969.000,1.000
7.766,11.181,12.389,8.081,13.727,16.359,7.085,21.676,-0.069,0.991,-0.040,-0.610,-1.282,1.007,73.333,807970.000,1.000
7.860,9.091,9.929,5.509,8.904,10.128,-2.548,17.876,-0.070,0.993,-0.041,-0.641,-1.343,0.824,73.333,807971.000,1.000
7.213,6.775,7.563,3.109,4.711,4.330,-10.066,15.787,-0.072,0.995,-0.038,-0.580,-1.373,0.732,73.333,807972.000,1.000
6.479,5.742,6.092,1.827,3.143,3.743,-10.285,16.269,-0.072,0.996,-0.042,-0.671,-1.434,0.427,73.333,807973.000,1.000
6.215,6.546,5.759,1.999,4.647,9.518,-2.389,19.245,-0.073,0.999,-0.042,-0.763,-1.465,0.336,73.333,807974.000,1.000
6.294,8.174,5.875,2.967,7.426,17.481,8.697,23.125,-0.070,0.998,-0.042,-0.732,-1.617,0.244,73.333,807975.000,1.000
6.074,8.945,5.386,3.559,8.797,21.911,16.186,25.390,-0.069,1.000,-0.042,-0.732,-1.648,0.183,73.333,807976.000,1.000
4.991,7.760,3.536,2.855,7.041,19.713,15.943,24.122,-0.067,1.000,-0.038,-0.824,-1.862,0.092,73.333,807977.000,1.000
3.056,4.819,0.453,0.809,2.480,11.980,8.632,19.349,-0.069,1.004,-0.041,-0.885,-1.831,0.000,73.333,807978.000,1.000
0.896,1.522,-2.825,-1.613,-2.705,3.121,-1.124,13.194,-0.068,1.004,-0.041,-1.007,-1.862,-0.061,73.333,807979.000,1.000
-0.609,-0.472,-4.960,-2.948,-5.893,-2.315,-8.130,8.795,-0.067,1.001,-0.040,-0.977,-1.831,-0.031,73.333,807980.000,1.000
-0.864,-0.427,-5.178,-2.212,-5.809,-3.000,-10.198,8.397,-0.066,1.000,-0.042,-1.007,-1.831,-0.092,73.333,807981.000,1.000
0.120,1.099,-3.771,0.377,-3.181,-0.950,-8.696,11.793,-0.066,0.998,-0.044,-1.068,-1.831,-0.061,73.333,807982.000,1.000
1.836,2.977,-1.604,3.681,0.235,1.079,-5.968,16.773,-0.065,0.999,-0.045,-0.977,-1.862,0.000,73.333,807983.000,1.000
3.726,4.534,0.610,6.590,3.215,1.886,-2.908,21.242,-0.066,0.995,-0.043,-0.977,-1.923,0.122,73.333,807984.000,1.000
5.532,5.951,2.680,8.640,5.804,2.409,1.119,24.647,-0.066,0.996,-0.042,-0.977,-1.923,0.214,73.333,807985.000,1.000
7.228,7.684,4.707,9.810,8.496,4.248,6.260,27.211,-0.066,0.996,-0.040,-0.916,-1.801,0.305,73.333,807986.000,1.000
8.723,9.634,6.521,10.060,11.088,7.628,11.005,28.558,-0.067,0.994,-0.041,-0.793,-1.892,0.366,73.333,807987.000,1.000
9.868,11.227,7.885,9.466,12.897,11.394,13.780,28.097,-0.068,0.996,-0.042,-0.824,-1.770,0.427,73.333,807988.000,1.000
10.620,11.948,8.802,8.395,13.454,14.079,13.930,25.956,-0.069,0.996,-0.041,-0.732,-1.862,0.580,73.333,807989.000,1.000
10.932,11.476,9.299,7.111,12.421,14.258,10.942,22.716,-0.069,0.997,-0.040,-0.702,-1.801,0.641,73.333,807990.000,1.000
10.786,9.881,9.366,5.711,9.865,11.578,5.292,19.257,-0.068,0.995,-0.042,-0.580,-1.831,0.702,73.333,807991.000,1.000
10.341,7.754,9.034,4.402,6.685,7.398,-0.794,16.822,-0.067,0.993,-0.042,-0.641,-1.831,0.671,73.333,807992.000,1.000
9.687,5.556,8.223,3.223,3.695,2.764,-5.862,15.860,-0.068,0.991,-0.040,-0.580,-1.770,0.824,73.333,807993.000,1.000
8.711,3.273,6.697,1.846,0.875,-2.728,-10.655,15.379,-0.067,0.991,-0.043,-0.488,-1.831,0.732,73.333,807994.000,1.000
7.506,1.110,4.704,0.229,-1.650,-8.653,-15.250,14.527,-0.070,0.991,-0.043,-0.427,-1.862,0.732,73.333,807995.000,1.000
6.581,-0.155,3.217,-0.988,-2.899,-12.433,-17.251,13.855,-0.071,0.993,-0.041,-0.336,-1.892,0.702,73.333,807996.000,1.000
6.502,0.253,3.117,-1.054,-1.865,-11.202,-14.234,14.463,-0.070,0.994,-0.040,-0.305,-1.953,0.702,73.333,807997.000,1.000
7.458,2.469,4.591,0.211,1.424,-4.118,-6.483,16.722,-0.070,0.993,-0.040,-0.275,-1.953,0.671,73.333,807998.000,1.000
9.056,5.710,6.967,2.247,5.623,6.462,2.833,19.987,-0.070,0.993,-0.041,-0.275,-1.953,0.641,73.333,807999.000,1.000
10.461,8.442,8.989,4.102,8.665,15.540,9.530,23.208,-0.068,0.993,-0.042,-0.244,-2.014,0.610,73.333,808000.000,1.000
10.898,9.262,9.595,5.058,9.002,18.493,10.878,25.567,-0.071,0.992,-0.044,-0.336,-2.045,0.671,73.333,808001.000,1.000
10.074,7.882,8.492,4.955,6.517,14.275,6.931,26.386,-0.070,0.990,-0.042,-0.244,-2.106,0.549,73.333,808002.000,1.000
8.233,5.192,6.209,4.023,2.324,5.693,0.112,24.925,-0.069,0.990,-0.042,-0.305,-2.167,0.488,73.333,808003.000,1.000
5.874,2.439,3.534,2.580,-2.035,-2.755,-6.239,20.927,-0.068,0.991,-0.042,-0.244,-2.106,0.427,73.333,808004.000,1.000
3.429,0.424,1.000,0.890,-5.293,-7.430,-9.476,15.357,-0.067,0.991,-0.039,-0.153,-2.136,0.366,73.333,808005.000,1.000
1.157,-0.681,-1.117,-0.783,-6.809,-7.293,-8.852,10.285,-0.067,0.993,-0.042,-0.183,-2.167,0.244,73.333,808006.000,1.000
-0.665,-0.918,-2.530,-1.988,-6.433,-3.761,-5.182,8.046,-0.069,0.997,-0.044,-0.214,-2.106,0.305,73.333,808007.000,1.000
-1.599,-0.159,-2.667,-2.093,-4.264,1.006,0.442,10.053,-0.069,0.996,-0.047,-0.275,-2.106,0.305,73.333,808008.000,1.000
-1.227,1.690,-1.080,-0.794,-0.882,5.287,6.628,15.399,-0.069,0.996,-0.046,-0.336,-2.045,0.305,73.333,808009.000,1.000
0.569,4.375,2.087,1.588,2.664,8.154,11.543,21.106,-0.070,0.996,-0.046,-0.305,-2.014,0.275,73.333,808010.000,1.000
3.500,7.396,6.215,4.435,5.558,9.777,14.213,24.565,-0.067,0.996,-0.047,-0.397,-2.045,0.275,73.333,808011.000,1.000
6.824,10.079,10.287,7.073,7.502,10.804,14.947,25.241,-0.069,0.996,-0.046,-0.458,-2.014,0.366,73.333,808012.000,1.000
9.499,11.588,13.105,8.753,8.277,11.235,14.111,23.957,-0.068,0.997,-0.043,-0.549,-2.167,0.336,73.333,808013.000,1.000
10.781,11.451,13.840,8.919,7.811,10.889,11.890,21.568,-0.068,0.996,-0.044,-0.549,-2.045,0.366,73.333,808014.000,1.000
10.775,10.125,12.670,7.708,6.667,10.249,9.224,18.834,-0.068,0.998,-0.047,-0.763,-1.984,0.427,73.333,808015.000,1.000
10.127,8.448,10.525,5.821,5.533,9.130,6.907,16.558,-0.068,0.998,-0.050,-0.824,-1.862,0.549,73.333,808016.000,1.000
9.167,6.643,7.991,3.740,4.203,5.841,3.991,14.880,-0.068,0.998,-0.047,-0.763,-1.892,0.488,73.333,808017.000,1.000
7.752,4.481,5.153,1.495,2.043,-0.220,-0.457,13.160,-0.068,0.998,-0.046,-0.824,-1.892,0.488,73.333,808018.000,1.000
5.856,2.134,2.194,-0.790,-0.639,-6.469,-4.839,11.248,-0.068,0.999,-0.045,-1.038,-1.953,0.610,73.333,808019.000,1.000
3.867,0.213,-0.437,-2.619,-2.612,-9.326,-6.348,10.088,-0.067,1.001,-0.046,-1.129,-1.892,0.641,73.333,808020.000,1.000
2.270,-0.917,-2.399,-3.554,-3.078,-7.688,-4.319,10.500,-0.067,1.001,-0.046,-1.221,-1.770,0.732,73.333,808021.000,1.000
1.307,-1.422,-3.778,-3.641,-2.394,-3.551,-0.961,12.106,-0.068,1.001,-0.046,-1.251,-1.770,0.702,73.333,808022.000,1.000
1.000,-1.607,-4.758,-3.146,-1.351,0.126,1.188,14.074,-0.066,1.000,-0.045,-1.312,-1.770,0.793,73.333,808023.000,1.000
1.306,-1.469,-5.288,-2.090,-0.161,1.735,1.648,16.311,-0.070,0.998,-0.044,-1.404,-1.831,0.824,73.333,808024.000,1.000
2.050,-0.743,-5.136,-0.316,1.623,1.903,2.051,19.312,-0.069,0.998,-0.046,-1.373,-1.892,0.824,73.333,808025.000,1.000
2.800,0.739,-4.174,2.085,4.406,2.713,4.339,23.084,-0.067,0.997,-0.045,-1.556,-1.801,0.854,73.333,808026.000,1.000
3.049,2.807,-2.664,4.549,7.891,5.814,8.732,26.578,-0.069,0.998,-0.042,-1.556,-1.740,0.824,73.333,808027.000,1.000
2.495,4.912,-1.097,6.290,11.038,10.560,13.248,28.400,-0.068,1.000,-0.040,-1.556,-1.862,0.946,73.333,808028.000,1.000
1.106,6.280,0.019,6.749,12.642,13.980,15.037,28.022,-0.065,1.000,-0.042,-1.556,-1.801,0.977,73.333,808029.000,1.000
-0.845,6.461,0.479,5.993,12.263,13.578,12.890,26.187,-0.065,0.998,-0.042,-1.648,-1.740,0.854,73.333,808030.000,1.000
-2.738,5.825,0.646,4.703,10.725,10.323,8.931,24.161,-0.065,0.998,-0.042,-1.831,-1.709,0.916,73.333,808031.000,1.000
-3.849,5.239,1.086,3.648,9.455,7.811,7.151,22.718,-0.066,0.997,-0.042,-1.862,-1.617,0.916,73.333,808032.000,1.000
-3.743,5.224,2.115,3.220,9.342,8.412,10.025,22.041,-0.066,0.997,-0.042,-2.014,-1.587,0.977,73.333,808033.000,1.000
-2.418,5.611,3.586,3.440,10.273,11.133,16.565,22.200,-0.064,0.996,-0.040,-2.075,-1.587,1.007,73.333,808034.000,1.000
-0.242,5.905,5.068,4.038,11.407,13.214,23.159,22.924,-0.063,0.998,-0.039,-2.045,-1.587,0.946,73.333,808035.000,1.000
2.096,5.672,6.150,4.338,11.520,12.660,25.886,22.721,-0.064,0.998,-0.042,-1.953,-1.556,0.916,73.333,808036.000,1.000
3.692,4.632,6.486,3.454,9.494,8.984,22.641,19.444,-0.064,0.995,-0.037,-2.106,-1.434,0.977,73.333,808037.000,1.000
3.785,2.723,5.908,0.997,5.157,2.740,14.181,12.586,-0.063,0.995,-0.041,-2.075,-1.221,1.007,73.333,808038.000,1.000
2.097,0.199,4.350,-2.598,-0.452,-4.775,3.419,4.142,-0.063,0.996,-0.040,-2.045,-1.190,0.977,73.333,808039.000,1.000
-1.072,-2.429,1.758,-6.474,-5.733,-11.543,-6.051,-3.048,-0.063,0.997,-0.037,-2.075,-1.007,0.885,73.333,808040.000,1.000
-4.904,-4.580,-1.660,-9.773,-9.276,-15.348,-11.093,-6.893,-0.064,0.997,-0.035,-2.106,-0.946,0.793,73.333,808041.000,1.000
-8.332,-5.911,-5.378,-11.799,-10.339,-15.093,-10.252,-6.429,-0.064,0.998,-0.035,-2.136,-0.916,0.916,73.333,808042.000,1.000
-10.633,-6.614,-8.845,-12.362,-9.366,-12.010,-5.159,-2.187,-0.064,0.998,-0.040,-2.228,-0.854,0.854,73.333,808043.000,1.000
-11.918,-7.397,-11.997,-12.113,-8.101,-9.204,-0.198,3.402,-0.063,0.998,-0.037,-2.167,-0.824,0.916,73.333,808044.000,1.000
-12.884,-8.800,-15.062,-12.087,-8.343,-8.987,1.048,7.154,-0.064,0.998,-0.036,-2.167,-0.732,0.977,73.333,808045.000,1.000
-14.002,-10.484,-17.788,-12.687,-10.285,-10.614,-1.100,7.404,-0.064,0.996,-0.036,-2.228,-0.671,0.946,73.333,808046.000,1.000
-15.122,-11.538,-19.438,-13.388,-12.536,-11.465,-3.921,4.897,-0.064,0.994,-0.036,-2.197,-0.641,1.160,73.333,808047.000,1.000
-15.805,-11.413,-19.421,-13.370,-13.614,-9.990,-5.590,1.745,-0.066,0.994,-0.039,-2.045,-0.519,1.068,73.333,808048.000,1.000
-15.844,-10.342,-17.866,-12.269,-13.001,-6.688,-6.023,-0.132,-0.066,0.995,-0.037,-1.984,-0.519,0.885,73.333,808049.000,1.000
-15.460,-9.072,-15.560,-10.456,-11.187,-3.244,-5.760,-0.060,-0.066,0.996,-0.041,-1.892,-0.397,0.854,73.333,808050.000,1.000
-15.036,-8.364,-13.374,-8.700,-9.108,-1.393,-4.933,1.414,-0.067,0.997,-0.041,-1.770,-0.366,0.946,73.333,808051.000,1.000
-14.668,-8.426,-11.691,-7.433,-7.270,-1.584,-2.834,3.660,-0.066,0.995,-0.039,-1.801,-0.366,1.038,73.333,808052.000,1.000
-14.005,-8.638,-10.048,-6.331,-5.324,-2.273,1.531,6.655,-0.067,0.996,-0.037,-1.709,-0.366,0.977,73.333,808053.000,1.000
-12.577,-8.018,-7.717,-4.840,-2.723,-1.134,7.881,10.208,-0.069,0.997,-0.033,-1.617,-0.427,0.916,73.333,808054.000,1.000
-10.246,-6.093,-4.561,-2.942,0.377,2.753,14.166,13.243,-0.067,0.994,-0.032,-1.587,-0.580,0.854,73.333,808055.000,1.000
-7.322,-3.298,-1.083,-1.165,3.056,7.778,17.761,14.358,-0.069,0.995,-0.031,-1.526,-0.488,0.824,73.333,808056.000,1.000
-4.384,-0.624,1.919,-0.106,4.325,10.978,17.005,12.786,-0.069,0.996,-0.036,-1.373,-0.519,0.854,73.333,808057.000,1.000
-2.016,1.059,3.797,-0.042,3.978,10.934,12.678,9.016,-0.069,0.994,-0.036,-1.343,-0.488,0.885,73.333,808058.000,1.000
-0.545,1.364,4.243,-0.790,2.674,8.884,7.685,4.600,-0.069,0.992,-0.034,-1.251,-0.549,0.763,73.333,808059.000,1.000
0.013,0.156,3.210,-1.993,0.898,6.093,4.029,0.942,-0.069,0.992,-0.033,-1.068,-0.671,0.793,73.333,808060.000,1.000
-0.166,-2.569,0.870,-3.443,-1.601,1.967,1.047,-1.556,-0.070,0.993,-0.035,-0.916,-0.824,0.854,73.333,808061.000,1.000
-0.719,-6.221,-2.220,-4.898,-4.832,-3.851,-2.341,-2.900,-0.070,0.994,-0.035,-0.854,-0.793,0.824,73.333,808062.000,1.000
-1.115,-9.412,-4.914,-5.773,-7.664,-9.300,-4.932,-2.628,-0.069,0.996,-0.040,-0.763,-0.824,0.793,73.333,808063.000,1.000
-0.922,-10.612,-5.973,-5.346,-8.335,-10.978,-3.882,0.048,-0.067,0.997,-0.040,-0.702,-0.916,0.824,73.333,808064.000,1.000
-0.063,-8.971,-4.772,-3.266,-5.610,-6.583,2.739,5.447,-0.065,0.996,-0.036,-0.580,-0.885,0.916,73.333,808065.000,1.000
1.207,-4.729,-1.609,0.055,0.179,3.226,13.806,12.476,-0.066,0.998,-0.037,-0.580,-1.007,0.916,73.333,808066.000,1.000
2.374,0.697,2.224,3.306,6.698,14.270,24.451,18.195,-0.068,0.997,-0.034,-0.549,-0.916,0.885,73.333,808067.000,1.000
2.819,5.253,5.040,4.860,10.741,21.025,28.531,19.305,-0.068,0.996,-0.036,-0.549,-0.946,0.916,73.333,808068.000,1.000
2.208,7.401,5.745,3.928,10.572,20.716,23.393,14.946,-0.067,0.997,-0.037,-0.580,-0.977,0.946,73.333,808069.000,1.000
0.790,6.976,4.487,1.237,7.168,15.182,12.263,7.719,-0.067,0.996,-0.037,-0.549,-0.946,0.916,73.333,808070.000,1.000
-0.826,4.884,2.347,-1.557,2.976,8.534,1.339,1.393,-0.066,0.998,-0.035,-0.580,-0.977,0.854,73.333,808071.000,1.000
-2.222,2.000,0.183,-3.227,-0.437,3.242,-5.690,-2.355,-0.067,0.999,-0.035,-0.610,-0.946,0.977,73.333,808072.000,1.000
-3.409,-1.386,-1.840,-3.654,-3.207,-1.315,-9.650,-4.487,-0.065,0.997,-0.036,-0.549,-0.977,0.854,73.333,808073.000,1.000
-4.468,-4.994,-3.711,-3.234,-5.795,-6.536,-12.722,-6.321,-0.065,0.997,-0.037,-0.458,-0.946,0.824,73.333,808074.000,1.000
-5.200,-7.958,-4.980,-2.104,-7.665,-11.785,-15.128,-7.625,-0.064,0.998,-0.035,-0.610,-1.007,0.885,73.333,808075.000,1.000
-5.367,-9.322,-5.031,-0.223,-7.763,-14.844,-15.833,-6.932,-0.064,0.999,-0.035,-0.427,-0.946,0.946,73.333,808076.000,1.000
-5.145,-8.928,-3.930,2.081,-5.843,-14.399,-14.645,-3.348,-0.065,0.999,-0.037,-0.488,-0.916,0.885,73.333,808077.000,1.000
-5.123,-7.542,-2.564,3.893,-2.983,-11.225,-12.357,1.923,-0.066,0.998,-0.035,-0.641,-0.916,0.824,73.333,808078.000,1.000
-5.895,-6.276,-2.115,4.121,-0.867,-7.345,-9.846,6.118,-0.066,0.997,-0.039,-0.549,-0.793,0.793,73.333,808079.000,1.000
-7.585,-5.830,-3.227,2.340,-0.400,-4.255,-7.378,7.379,-0.068,0.997,-0.040,-0.549,-0.946,0.793,73.333,808080.000,1.000
-9.611,-6.103,-5.482,-0.744,-1.092,-1.929,-4.658,6.181,-0.066,0.998,-0.037,-0.610,-0.885,0.824,73.333,808081.000,1.000
-10.962,-6.463,-7.845,-3.759,-1.785,0.446,-1.503,4.212,-0.068,0.996,-0.039,-0.488,-1.007,0.793,73.333,808082.000,1.000
-10.734,-6.356,-9.320,-5.500,-1.721,3.010,1.683,2.608,-0.068,0.995,-0.038,-0.488,-0.977,0.763,73.333,808083.000,1.000
-8.594,-5.766,-9.534,-5.570,-1.109,4.503,3.566,1.158,-0.068,0.995,-0.038,-0.580,-1.129,0.732,73.333,808084.000,1.000
-4.938,-5.135,-8.878,-4.469,-0.784,3.278,2.609,-1.116,-0.069,0.995,-0.037,-0.519,-1.068,0.702,73.333,808085.000,1.000
-0.610,-4.766,-7.966,-3.010,-1.138,-0.699,-0.795,-4.391,-0.068,0.995,-0.040,-0.488,-1.038,0.702,73.333,808086.000,1.000
3.543,-4.422,-7.111,-1.650,-1.532,-5.267,-3.839,-7.153,-0.068,0.994,-0.038,-0.458,-0.977,0.793,73.333,808087.000,1.000
6.863,-3.596,-6.216,-0.467,-1.116,-7.841,-4.126,-7.596,-0.066,0.996,-0.035,-0.397,-1.068,0.763,73.333,808088.000,1.000
8.858,-2.173,-5.270,0.366,-0.121,-7.788,-2.687,-5.990,-0.064,0.996,-0.036,-0.458,-1.129,0.763,73.333,808089.000,1.000
9.253,-0.651,-4.618,0.435,0.107,-6.838,-3.124,-4.829,-0.064,0.998,-0.035,-0.488,-1.190,0.793,73.333,808090.000,1.000
8.149,0.333,-4.558,-0.531,-1.546,-7.218,-7.940,-6.382,-0.064,1.000,-0.038,-0.488,-1.099,0.793,73.333,808091.000,1.000
6.032,0.619,-4.979,-2.283,-4.762,-9.304,-15.898,-10.611,-0.066,0.999,-0.041,-0.366,-1.190,0.793,73.333,808092.000,1.000
3.655,0.726,-5.226,-3.989,-7.745,-10.708,-22.164,-15.341,-0.066,0.997,-0.043,-0.427,-1.221,0.763,73.333,808093.000,1.000
1.741,1.268,-4.702,-4.737,-8.649,-8.502,-22.019,-18.232,-0.064,0.999,-0.044,-0.397,-1.221,0.854,73.333,808094.000,1.000
0.512,2.016,-3.650,-4.348,-7.509,-3.343,-15.826,-18.707,-0.064,0.999,-0.041,-0.366,-1.190,0.854,73.333,808095.000,1.000
-0.329,2.001,-3.000,-3.462,-6.267,0.148,-9.147,-18.008,-0.063,0.998,-0.040,-0.397,-1.190,0.732,73.333,808096.000,1.000
-1.070,0.723,-3.428,-2.723,-6.580,-1.757,-7.080,-17.536,-0.062,0.997,-0.041,-0.427,-1.099,0.793,73.333,808097.000,1.000
-1.525,-1.145,-4.540,-2.081,-8.160,-8.071,-9.715,-17.420,-0.062,0.997,-0.042,-0.519,-1.068,0.702,73.333,808098.000,1.000
-1.082,-2.230,-5.106,-0.873,-9.160,-14.023,-12.950,-16.585,-0.062,0.998,-0.042,-0.519,-1.007,0.732,73.333,808099.000,1.000
0.796,-1.426,-3.958,1.594,-7.572,-14.325,-12.019,-13.668,-0.065,0.997,-0.039,-0.549,-1.068,0.702,73.333,808100.000,1.000
3.887,1.097,-0.963,5.337,-2.854,-7.097,-5.262,-8.181,-0.067,0.997,-0.040,-0.488,-1.038,0.671,73.333,808101.000,1.000
6.924,3.460,2.435,9.184,3.002,3.416,3.886,-1.580,-0.065,0.995,-0.041,-0.549,-0.916,0.580,73.333,808102.000,1.000
8.210,3.229,4.114,11.237,6.474,9.453,9.359,2.989,-0.067,0.996,-0.041,-0.427,-0.916,0.580,73.333,808103.000,1.000
6.762,-0.641,2.779,10.111,4.994,6.012,6.859,2.427,-0.069,0.994,-0.040,-0.458,-0.916,0.580,73.333,808104.000,1.000
2.945,-7.125,-1.297,5.812,-1.520,-6.133,-3.933,-4.373,-0.066,0.994,-0.037,-0.458,-0.916,0.488,73.333,808105.000,1.000
-1.796,-13.860,-6.443,-0.163,-10.608,-21.752,-19.016,-15.241,-0.067,0.995,-0.040,-0.397,-0.977,0.397,73.333,808106.000,1.000
-5.592,-18.156,-10.425,-5.442,-18.197,-33.577,-31.242,-25.278,-0.067,0.996,-0.043,-0.366,-1.038,0.458,73.333,808107.000,1.000
-6.838,-18.020,-11.386,-7.896,-20.580,-35.551,-33.995,-29.581,-0.068,0.997,-0.042,-0.336,-1.068,0.366,73.333,808108.000,1.000
-4.812,-13.159,-8.732,-6.704,-16.538,-26.415,-25.368,-26.032,-0.066,0.997,-0.038,-0.275,-1.160,0.275,73.333,808109.000,1.000
-0.028,-5.224,-3.404,-2.622,-7.895,-10.416,-9.111,-16.022,-0.066,0.999,-0.039,-0.305,-1.221,0.153,73.333,808110.000,1.000
5.978,3.080,2.680,2.586,1.819,5.892,8.176,-3.273,-0.068,1.000,-0.039,-0.427,-1.099,0.122,73.333,808111.000,1.000
11.311,9.319,7.411,6.995,9.313,17.483,20.798,8.002,-0.072,1.000,-0.036,-0.397,-1.160,0.183,73.333,808112.000,1.000
14.400,12.086,9.304,9.115,12.555,22.013,25.720,14.456,-0.072,0.998,-0.035,-0.458,-1.221,0.214,73.333,808113.000,1.000
14.517,11.115,7.893,8.175,10.839,19.109,22.160,14.233,-0.070,0.995,-0.039,-0.519,-1.251,0.305,73.333,808114.000,1.000
12.063,7.361,3.874,4.428,4.947,10.391,11.580,7.530,-0.069,0.994,-0.040,-0.397,-1.282,0.336,73.333,808115.000,1.000
8.422,2.829,-1.066,-0.820,-2.863,-0.466,-2.190,-3.281,-0.068,0.992,-0.039,-0.397,-1.343,0.427,73.333,808116.000,1.000
5.225,-0.380,-5.087,-5.816,-9.809,-9.293,-14.624,-14.520,-0.067,0.992,-0.037,-0.397,-1.404,0.488,73.333,808117.000,1.000
3.522,-1.139,-6.892,-9.038,-13.727,-13.439,-22.543,-22.325,-0.069,0.992,-0.040,-0.366,-1.434,0.610,73.333,808118.000,1.000
3.481,0.513,-5.986,-9.473,-13.508,-12.435,-24.532,-23.628,-0.068,0.993,-0.041,-0.305,-1.526,0.641,73.333,808119.000,1.000
4.633,3.935,-2.565,-6.766,-9.034,-7.123,-20.132,-17.393,-0.068,0.995,-0.040,-0.366,-1.495,0.702,73.333,808120.000,1.000
6.227,8.241,2.557,-1.495,-1.333,1.260,-9.928,-5.808,-0.068,0.995,-0.040,-0.275,-1.526,0.824,73.333,808121.000,1.000
7.442,12.197,7.844,4.735,7.199,10.620,3.037,6.069,-0.067,0.997,-0.039,-0.214,-1.495,0.916,73.333,808122.000,1.000
7.608,14.304,11.545,9.911,13.432,17.327,13.290,13.046,-0.065,0.998,-0.039,-0.214,-1.556,0.946,73.333,808123.000,1.000
6.439,13.341,12.456,12.587,15.040,17.373,15.768,12.916,-0.065,0.997,-0.038,-0.244,-1.526,1.068,73.333,808124.000,1.000
4.103,9.039,10.451,12.377,11.734,9.123,9.105,7.105,-0.066,0.999,-0.039,-0.244,-1.465,0.946,73.333,808125.000,1.000
1.228,2.491,6.640,9.898,5.291,-4.761,-3.564,-1.179,-0.068,0.998,-0.041,-0.336,-1.434,0.916,73.333,808126.000,1.000
-1.091,-3.999,2.949,6.521,-1.327,-18.269,-16.453,-8.750,-0.069,0.998,-0.041,-0.427,-1.404,0.793,73.333,808127.000,1.000
-1.623,-7.835,1.384,3.930,-5.203,-25.374,-23.910,-13.065,-0.067,0.997,-0.037,-0.519,-1.434,0.763,73.333,808128.000,1.000
0.220,-7.538,2.956,3.245,-4.842,-23.343,-23.095,-12.905,-0.065,0.996,-0.038,-0.580,-1.434,0.763,73.333,808129.000,1.000
3.857,-3.629,7.058,4.341,-0.885,-14.053,-15.171,-8.889,-0.064,0.997,-0.043,-0.519,-1.312,0.702,73.333,808130.000,1.000
7.952,1.884,11.946,6.170,4.591,-2.417,-3.973,-2.749,-0.062,0.994,-0.043,-0.702,-1.221,0.580,73.333,808131.000,1.000
11.237,6.813,15.649,7.554,9.361,6.850,6.219,3.532,-0.057,0.994,-0.042,-0.641,-1.160,0.610,73.333,808132.000,1.000
12.911,9.714,16.802,7.638,11.761,11.392,11.990,7.815,-0.057,0.993,-0.042,-0.580,-0.916,0.702,73.333,808133.000,1.000
12.715,10.172,15.050,6.077,11.016,11.292,11.628,8.238,-0.059,0.991,-0.043,-0.488,-0.763,0.732,73.333,808134.000,1.000
10.966,8.769,11.170,3.187,7.518,8.200,5.944,4.380,-0.063,0.992,-0.042,-0.397,-0.702,0.763,73.333,808135.000,1.000
8.488,6.738,6.804,-0.152,2.732,4.480,-1.942,-2.199,-0.064,0.993,-0.041,-0.305,-0.641,0.702,73.333,808136.000,1.000
6.412,5.494,3.716,-2.805,-1.266,2.605,-7.766,-8.509,-0.064,0.993,-0.043,-0.305,-0.580,0.641,73.333,808137.000,1.000
5.867,6.094,3.166,-3.735,-2.565,4.172,-7.936,-11.384,-0.066,0.993,-0.043,-0.275,-0.519,0.610,73.333,808138.000,1.000
7.373,8.551,5.285,-2.614,-0.702,8.524,-2.240,-9.541,-0.067,0.994,-0.040,-0.244,-0.519,0.610,73.333,808139.000,1.000
10.380,11.730,8.939,-0.174,2.785,12.984,5.425,-4.849,-0.067,0.997,-0.038,-0.275,-0.610,0.610,73.333,808140.000,1.000
13.593,14.201,12.505,2.366,5.577,15.190,10.177,-0.876,-0.067,0.998,-0.039,-0.214,-0.610,0.702,73.333,808141.000,1.000
15.775,15.103,14.746,4.222,6.221,14.531,9.558,-0.146,-0.067,0.994,-0.044,-0.214,-0.641,0.763,73.333,808142.000,1.000
16.294,14.275,15.264,5.309,4.680,11.371,4.331,-2.714,-0.066,0.994,-0.046,-0.183,-0.671,0.732,73.333,808143.000,1.000
15.229,12.158,14.371,5.944,2.088,6.643,-2.275,-6.505,-0.068,0.998,-0.044,-0.214,-0.671,0.824,73.333,808144.000,1.000
13.238,9.696,12.797,6.506,0.107,2.291,-6.317,-8.907,-0.071,1.000,-0.047,-0.214,-0.610,0.732,73.333,808145.000,1.000
11.080,7.689,11.228,7.047,-0.384,-0.140,-6.229,-8.859,-0.070,1.001,-0.043,-0.214,-0.732,0.641,73.333,808146.000,1.000
9.075,6.023,9.709,7.078,-0.154,-1.613,-4.281,-7.518,-0.072,1.004,-0.043,-0.122,-0.732,0.610,73.333,808147.000,1.000
7.137,4.007,7.887,6.064,-0.635,-4.443,-3.576,-6.615,-0.073,1.005,-0.040,-0.183,-0.793,0.488,73.333,808148.000,1.000
5.287,1.527,5.719,4.112,-2.245,-8.854,-4.309,-6.752,-0.075,1.006,-0.038,-0.397,-0.977,0.427,73.333,808149.000,1.000
3.869,-0.629,3.674,1.940,-4.174,-12.348,-4.271,-7.578,-0.078,1.006,-0.038,-0.641,-1.068,0.366,73.333,808150.000,1.000
3.158,-1.708,2.228,0.223,-5.617,-12.850,-2.430,-8.707,-0.076,1.008,-0.039,-0.824,-1.251,0.244,73.333,808151.000,1.000
3.060,-1.676,1.429,-0.779,-6.347,-10.647,-0.057,-9.583,-0.074,1.007,-0.040,-0.885,-1.495,0.244,73.333,808152.000,1.000
3.319,-0.806,1.259,-1.041,-6.091,-6.730,1.887,-9.039,-0.073,1.009,-0.037,-1.068,-1.495,0.214,73.333,808153.000,1.000
3.695,0.689,1.655,-0.743,-4.412,-1.269,4.371,-6.119,-0.071,1.006,-0.038,-1.190,-1.678,0.092,73.333,808154.000,1.000
3.816,2.250,2.074,-0.460,-1.620,5.183,8.522,-1.390,-0.069,1.005,-0.038,-1.282,-1.709,0.092,73.333,808155.000,1.000
3.192,2.750,1.566,-0.973,0.725,10.231,13.039,2.920,-0.066,1.006,-0.038,-1.373,-1.709,0.153,73.333,808156.000,1.000
1.567,1.236,-0.551,-2.680,0.780,11.001,14.483,4.203,-0.062,1.005,-0.039,-1.465,-1.617,0.244,73.333,808157.000,1.000
-0.794,-2.180,-3.967,-5.210,-2.100,6.795,10.323,1.053,-0.063,1.004,-0.039,-1.617,-1.709,0.305,73.333,808158.000,1.000
-3.213,-6.402,-7.587,-7.738,-7.013,-0.560,0.934,-6.039,-0.062,1.002,-0.041,-1.740,-1.617,0.366,73.333,808159.000,1.000
-4.897,-9.968,-10.133,-9.426,-12.029,-8.202,-10.375,-14.563,-0.065,1.000,-0.040,-1.648,-1.556,0.519,73.333,808160.000,1.000
-5.215,-11.466,-10.486,-9.595,-14.826,-13.178,-18.337,-20.648,-0.065,0.998,-0.038,-1.709,-1.495,0.549,73.333,808161.000,1.000
-4.024,-10.083,-8.252,-8.029,-13.804,-13.211,-18.433,-21.257,-0.064,0.995,-0.039,-1.648,-1.373,0.519,73.333,808162.000,1.000
-1.891,-6.293,-4.191,-5.289,-9.356,-8.398,-10.581,-16.426,-0.064,0.994,-0.041,-1.526,-1.282,0.702,73.333,808163.000,1.000
0.139,-1.854,-0.028,-2.517,-3.897,-2.072,0.037,-9.191,-0.065,0.991,-0.037,-1.587,-1.221,0.702,73.333,808164.000,1.000
1.119,1.264,2.606,-0.693,-0.123,1.485,7.016,-3.214,-0.067,0.990,-0.035,-1.282,-1.038,0.763,73.333,808165.000,1.000
0.671,2.112,3.227,-0.003,0.932,0.640,7.712,-0.424,-0.067,0.990,-0.039,-1.129,-1.099,0.763,73.333,808166.000,1.000
-0.929,1.171,2.534,0.129,0.327,-2.358,4.572,-0.430,-0.068,0.990,-0.035,-1.129,-1.129,0.824,73.333,808167.000,1.000
-2.984,-0.251,1.764,0.502,0.041,-3.576,2.439,-1.438,-0.068,0.990,-0.036,-0.885,-1.099,0.793,73.333,808168.000,1.000
-4.831,-1.212,1.699,1.494,1.211,-1.209,3.968,-1.761,-0.068,0.990,-0.036,-0.732,-1.007,0.793,73.333,808169.000,1.000
-6.143,-1.692,2.266,2.863,3.390,3.019,7.743,-0.914,-0.066,0.990,-0.033,-0.610,-0.977,0.793,73.333,808170.000,1.000
-6.746,-2.001,3.094,4.158,5.388,6.236,10.725,0.338,-0.067,0.990,-0.035,-0.519,-1.007,0.702,73.333,808171.000,1.000
-6.461,-2.232,3.950,5.073,6.284,6.711,10.763,0.804,-0.066,0.991,-0.037,-0.366,-1.007,0.702,73.333,808172.000,1.000
-5.285,-2.353,4.823,5.557,5.836,4.185,7.328,-0.024,-0.068,0.990,-0.041,-0.214,-0.946,0.641,73.333,808173.000,1.000
-3.541,-2.390,5.747,5.809,4.526,-0.092,1.928,-1.553,-0.067,0.991,-0.040,-0.122,-0.946,0.580,73.333,808174.000,1.000
-1.863,-2.566,6.550,6.014,3.076,-4.144,-2.755,-2.788,-0.067,0.991,-0.039,-0.031,-0.946,0.519,73.333,808175.000,1.000
-1.023,-3.417,6.670,5.945,1.629,-7.079,-5.339,-3.467,-0.067,0.992,-0.039,-0.031,-0.916,0.580,73.333,808176.000,1.000
-1.525,-5.417,5.392,5.041,-0.216,-9.361,-6.501,-4.252,-0.069,0.993,-0.038,-0.031,-0.916,0.641,73.333,808177.000,1.000
-3.160,-8.284,2.684,3.076,-2.475,-11.117,-6.928,-5.633,-0.069,0.994,-0.038,0.061,-0.854,0.671,73.333,808178.000,1.000
-5.052,-10.884,-0.535,0.566,-4.374,-11.261,-6.141,-7.171,-0.068,0.996,-0.038,-0.031,-0.885,0.549,73.333,808179.000,1.000
-6.218,-11.983,-3.040,-1.551,-5.035,-8.781,-3.722,-8.014,-0.065,0.994,-0.041,-0.061,-0.824,0.610,73.333,808180.000,1.000
-6.138,-11.194,-4.082,-2.570,-4.315,-4.341,-0.553,-7.775,-0.063,0.994,-0.039,-0.061,-0.885,0.580,73.333,808181.000,1.000
-5.001,-9.166,-3.743,-2.395,-2.760,0.114,1.965,-6.656,-0.064,0.995,-0.038,-0.031,-0.854,0.732,73.333,808182.000,1.000
-3.566,-6.907,-2.551,-1.388,-0.822,3.412,3.859,-4.805,-0.065,0.994,-0.038,-0.122,-0.885,0.763,73.333,808183.000,1.000
-2.759,-5.116,-1.179,-0.082,1.473,6.116,6.692,-2.069,-0.064,0.997,-0.040,-0.122,-0.854,0.824,73.333,808184.000,1.000
-3.138,-4.035,-0.309,0.990,4.103,9.267,11.500,1.613,-0.066,0.997,-0.039,-0.275,-0.702,0.824,73.333,808185.000,1.000
-4.548,-3.650,-0.407,1.411,6.562,12.630,17.077,5.766,-0.064,0.999,-0.039,-0.336,-0.702,0.854,73.333,808186.000,1.000
-6.466,-4.078,-1.808,0.777,7.631,13.982,20.019,8.964,-0.065,1.000,-0.043,-0.488,-0.702,0.946,73.333,808187.000,1.000
-8.582,-5.624,-4.653,-1.317,5.927,10.606,17.074,9.086,-0.067,0.998,-0.042,-0.549,-0.641,0.946,73.333,808188.000,1.000
-10.768,-8.014,-8.400,-4.704,1.509,3.022,8.907,4.974,-0.065,0.997,-0.044,-0.549,-0.671,1.007,73.333,808189.000,1.000
-12.731,-10.043,-11.678,-8.244,-3.478,-4.075,0.528,-2.076,-0.065,0.995,-0.047,-0.702,-0.702,0.946,73.333,808190.000,1.000
-14.228,-10.862,-13.363,-10.656,-6.899,-7.129,-4.240,-9.293,-0.067,0.996,-0.043,-0.793,-0.671,1.007,73.333,808191.000,1.000
-15.420,-11.121,-13.762,-11.632,-8.689,-7.940,-6.773,-14.681,-0.067,0.998,-0.044,-0.885,-0.641,0.946,73.333,808192.000,1.000
-16.562,-12.105,-14.045,-11.690,-10.014,-10.492,-10.253,-17.552,-0.067,0.998,-0.041,-1.007,-0.641,0.977,73.333,808193.000,1.000
-17.602,-14.379,-15.057,-11.375,-11.624,-16.448,-15.862,-17.948,-0.069,0.998,-0.039,-1.068,-0.671,0.946,73.333,808194.000,1.000
-18.302,-17.507,-16.831,-10.951,-13.586,-24.696,-23.060,-16.634,-0.067,0.997,-0.041,-1.099,-0.763,0.854,73.333,808195.000,1.000
-18.402,-20.275,-18.538,-10.376,-15.323,-31.996,-29.640,-14.889,-0.069,0.998,-0.040,-1.160,-0.977,0.793,73.333,808196.000,1.000
-17.592,-21.111,-18.942,-9.406,-15.670,-33.834,-31.886,-13.716,-0.068,0.996,-0.040,-1.129,-1.038,0.641,73.333,808197.000,1.000
-15.674,-19.164,-17.282,-7.927,-13.891,-27.893,-27.719,-13.413,-0.070,0.997,-0.044,-1.251,-0.977,0.610,73.333,808198.000,1.000
-12.905,-15.261,-14.049,-6.197,-10.688,-17.135,-19.309,-13.681,-0.072,0.998,-0.040,-1.160,-0.946,0.366,73.333,808199.000,1.000
-10.046,-11.419,-10.663,-4.661,-7.633,-7.658,-11.007,-13.720,-0.073,0.998,-0.039,-1.251,-1.129,0.244,73.333,808200.000,1.000
-7.906,-9.250,-8.304,-3.534,-5.680,-3.493,-5.407,-12.416,-0.071,0.994,-0.038,-1.343,-1.251,0.244,73.333,808201.000,1.000
-6.788,-8.848,-7.197,-2.592,-4.525,-4.164,-2.242,-8.932,-0.073,0.992,-0.039,-1.282,-1.312,0.244,73.333,808202.000,1.000
-6.314,-8.996,-6.673,-1.392,-3.283,-6.446,-0.277,-3.499,-0.070,0.991,-0.040,-1.312,-1.343,0.122,73.333,808203.000,1.000
-5.746,-8.230,-5.880,0.270,-1.427,-7.270,0.884,2.321,-0.069,0.992,-0.039,-1.312,-1.404,0.153,73.333,808204.000,1.000
-4.483,-5.818,-4.413,2.147,0.956,-5.254,1.146,6.570,-0.069,0.996,-0.039,-1.129,-1.434,0.244,73.333,808205.000,1.000
-2.453,-2.171,-2.482,3.672,3.398,-0.874,1.000,8.196,-0.066,0.996,-0.041,-1.160,-1.343,0.336,73.333,808206.000,1.000
-0.158,1.483,-0.789,4.331,5.361,4.221,1.525,7.545,-0.064,0.998,-0.042,-1.099,-1.373,0.488,73.333,808207.000,1.000
1.671,3.918,0.005,4.048,6.503,8.152,3.438,5.957,-0.066,0.998,-0.040,-1.099,-1.434,0.519,73.333,808208.000,1.000
2.429,4.450,-0.475,3.051,6.542,9.306,5.791,4.546,-0.063,0.997,-0.041,-1.190,-1.404,0.671,73.333,808209.000,1.000
1.859,3.121,-2.277,1.506,5.213,6.946,6.261,3.274,-0.065,0.995,-0.042,-1.068,-1.343,0.824,73.333,808210.000,1.000
0.223,0.859,-4.809,-0.335,2.913,2.308,3.754,1.766,-0.064,0.995,-0.046,-1.038,-1.282,0.885,73.333,808211.000,1.000
-1.769,-0.784,-6.895,-1.788,1.111,-1.485,0.218,0.750,-0.068,0.992,-0.042,-0.977,-1.221,1.038,73.333,808212.000,1.000
-3.306,-0.524,-7.372,-2.008,1.461,-1.486,-0.814,1.771,-0.071,0.993,-0.040,-0.885,-1.312,1.038,73.333,808213.000,1.000
-3.833,1.854,-5.929,-0.727,4.451,3.256,2.952,5.320,-0.074,0.994,-0.041,-0.854,-1.343,1.038,73.333,808214.000,1.000
-3.277,5.513,-3.257,1.478,9.125,11.721,11.254,10.069,-0.077,0.996,-0.039,-0.916,-1.495,1.007,73.333,808215.000,1.000
-2.159,8.933,-0.586,3.514,13.537,20.949,20.996,13.790,-0.077,0.996,-0.035,-0.946,-1.587,0.946,73.333,808216.000,1.000
-1.496,10.327,0.713,4.201,15.368,26.222,27.119,14.420,-0.076,0.996,-0.037,-0.946,-1.740,0.702,73.333,808217.000,1.000
-2.191,8.548,-0.120,2.932,13.186,23.828,25.803,11.038,-0.075,0.996,-0.038,-1.007,-1.801,0.641,73.333,808218.000,1.000
-4.316,3.954,-2.676,0.253,7.584,14.136,17.000,4.713,-0.073,0.996,-0.039,-1.038,-1.953,0.427,73.333,808219.000,1.000
-7.071,-1.818,-5.697,-2.434,0.803,1.051,4.144,-1.916,-0.070,0.996,-0.039,-1.068,-2.045,0.488,73.333,808220.000,1.000
-9.355,-6.826,-7.865,-3.801,-4.644,-10.565,-7.634,-6.241,-0.068,0.997,-0.041,-1.190,-2.136,0.366,73.333,808221.000,1.000
-10.377,-9.643,-8.493,-3.304,-7.115,-16.819,-14.265,-6.963,-0.066,0.997,-0.040,-1.160,-2.167,0.336,73.333,808222.000,1.000
-10.010,-9.884,-7.675,-1.387,-6.515,-16.495,-15.217,-4.452,-0.065,0.996,-0.040,-1.068,-2.075,0.244,73.333,808223.000,1.000
-8.806,-8.331,-6.181,0.777,-4.213,-11.932,-13.125,-0.380,-0.065,0.997,-0.042,-1.190,-1.953,0.214,73.333,808224.000,1.000
-7.593,-6.320,-4.967,2.035,-1.901,-7.126,-10.676,3.516,-0.063,0.995,-0.041,-1.160,-1.984,0.275,73.333,808225.000,1.000
-6.963,-4.919,-4.611,1.871,-0.522,-4.659,-8.556,6.347,-0.063,0.995,-0.042,-1.251,-1.801,0.275,73.333,808226.000,1.000
-7.107,-4.594,-5.292,0.364,-0.334,-4.560,-6.431,7.532,-0.063,0.995,-0.042,-1.160,-1.801,0.488,73.333,808227.000,1.000
-7.937,-5.315,-6.856,-2.098,-1.414,-5.387,-4.541,6.290,-0.064,0.995,-0.041,-1.068,-1.648,0.519,73.333,808228.000,1.000
-9.228,-6.746,-8.916,-4.935,-3.658,-5.809,-3.747,2.485,-0.064,0.996,-0.042,-0.916,-1.556,0.488,73.333,808229.000,1.000
-10.584,-8.299,-10.831,-7.406,-6.403,-5.251,-4.303,-2.333,-0.062,0.996,-0.041,-0.763,-1.434,0.519,73.333,808230.000,1.000
-11.432,-9.153,-11.704,-8.735,-8.391,-3.575,-5.075,-5.406,-0.064,0.997,-0.039,-0.763,-1.434,0.488,73.333,808231.000,1.000
-11.198,-8.504,-10.781,-8.447,-8.342,-0.619,-4.115,-4.673,-0.065,0.998,-0.041,-0.641,-1.312,0.519,73.333,808232.000,1.000
-9.561,-5.919,-7.778,-6.585,-5.678,3.894,0.013,-0.232,-0.066,0.996,-0.039,-0.732,-1.282,0.519,73.333,808233.000,1.000
-6.713,-1.719,-3.164,-3.727,-1.025,9.584,6.547,5.774,-0.067,0.997,-0.036,-0.641,-1.190,0.488,73.333,808234.000,1.000
-3.428,2.967,1.867,-0.829,3.835,14.606,12.215,10.461,-0.068,0.999,-0.040,-0.610,-1.099,0.580,73.333,808235.000,1.000
-0.658,6.893,6.079,1.331,7.126,16.895,14.067,12.034,-0.068,0.997,-0.040,-0.671,-1.038,0.519,73.333,808236.000,1.000
1.098,9.594,8.897,2.788,8.541,16.470,12.635,11.154,-0.068,0.999,-0.037,-0.671,-1.129,0.580,73.333,808237.000,1.000
1.962,11.409,10.537,4.210,9.200,15.325,11.252,10.389,-0.068,0.999,-0.037,-0.671,-1.068,0.519,73.333,808238.000,1.000
2.228,12.654,11.300,5.879,9.989,14.854,12.181,11.625,-0.070,0.998,-0.040,-0.763,-0.977,0.519,73.333,808239.000,1.000
1.978,13.052,11.034,7.103,10.376,14.251,14.264,14.036,-0.069,0.999,-0.038,-0.732,-1.038,0.610,73.333,808240.000,1.000
1.262,12.134,9.506,6.866,9.093,11.795,14.464,14.811,-0.069,0.995,-0.036,-0.732,-1.007,0.519,73.333,808241.000,1.000
0.405,9.980,6.946,4.889,5.622,7.081,11.000,11.639,-0.069,0.994,-0.041,-0.732,-0.977,0.488,73.333,808242.000,1.000
-0.083,7.387,4.226,1.962,0.892,1.655,5.165,4.640,-0.070,0.993,-0.039,-0.580,-0.946,0.397,73.333,808243.000,1.000
0.185,5.541,2.453,-0.540,-3.110,-1.841,0.682,-3.476,-0.071,0.994,-0.038,-0.519,-1.007,0.427,73.333,808244.000,1.000
1.246,5.328,2.284,-1.548,-4.602,-1.549,0.372,-9.089,-0.070,0.994,-0.037,-0.519,-0.946,0.458,73.333,808245.000,1.000
2.681,6.546,3.380,-0.996,-3.485,1.474,2.817,-10.073,-0.068,0.994,-0.036,-0.549,-0.854,0.458,73.333,808246.000,1.000
3.854,8.043,4.531,0.283,-1.295,3.830,3.901,-6.824,-0.070,0.993,-0.037,-0.458,-1.007,0.549,73.333,808247.000,1.000
4.391,8.885,4.725,1.379,0.447,3.264,1.656,-1.384,-0.070,0.995,-0.038,-0.580,-0.946,0.549,73.333,808248.000,1.000
4.451,9.171,3.920,2.002,1.483,0.826,-2.030,4.079,-0.071,0.996,-0.038,-0.610,-1.038,0.549,73.333,808249.000,1.000
4.596,9.822,3.040,2.614,2.798,-0.192,-3.419,8.516,-0.069,0.997,-0.037,-0.549,-1.007,0.580,73.333,808250.000,1.000
5.403,11.685,3.271,3.968,5.638,3.035,0.293,12.212,-0.071,0.999,-0.038,-0.427,-0.977,0.580,73.333,808251.000,1.000
6.959,14.553,4.922,6.172,10.062,10.167,8.566,15.496,-0.071,0.998,-0.037,-0.427,-1.038,0.641,73.333,808252.000,1.000
8.665,16.990,7.124,8.235,14.329,17.193,17.135,17.530,-0.070,0.998,-0.039,-0.549,-1.038,0.641,73.333,808253.000,1.000
9.738,17.426,8.650,8.798,16.125,19.376,20.819,16.864,-0.068,0.997,-0.042,-0.580,-1.099,0.671,73.333,808254.000,1.000
9.967,15.596,9.055,7.410,14.636,15.280,17.690,13.147,-0.067,0.997,-0.040,-0.671,-1.007,0.732,73.333,808255.000,1.000
9.909,12.914,9.112,5.052,11.411,8.001,10.825,8.070,-0.067,0.995,-0.040,-0.732,-0.977,0.793,73.333,808256.000,1.000
10.362,11.400,10.050,3.398,9.164,2.647,5.633,4.403,-0.067,0.995,-0.036,-0.671,-1.038,0.763,73.333,808257.000,1.000
11.704,12.155,12.496,3.583,9.641,2.482,5.351,4.022,-0.069,0.997,-0.040,-0.702,-1.068,0.763,73.333,808258.000,1.000
13.617,14.583,15.843,5.531,12.370,6.649,8.734,6.730,-0.069,0.997,-0.039,-0.702,-1.007,0.916,73.333,808259.000,1.000
15.240,16.831,18.551,8.096,15.090,10.969,11.450,10.411,-0.070,0.996,-0.042,-0.702,-1.038,0.946,73.333,808260.000,1.000
15.627,17.042,19.165,9.723,15.376,11.343,9.495,12.068,-0.069,0.997,-0.041,-0.641,-1.038,0.977,73.333,808261.000,1.000
14.287,14.587,17.184,9.413,12.425,6.974,2.300,9.810,-0.070,0.998,-0.044,-0.732,-1.038,0.885,73.333,808262.000,1.000
11.557,10.472,13.482,7.517,7.801,0.731,-6.333,4.799,-0.070,0.996,-0.042,-0.641,-1.038,0.977,73.333,808263.000,1.000
8.457,6.649,9.797,5.459,4.281,-3.204,-10.776,0.534,-0.068,0.998,-0.039,-0.580,-1.038,0.946,73.333,808264.000,1.000
6.135,4.785,7.714,4.572,3.763,-2.134,-7.629,-0.213,-0.069,0.997,-0.039,-0.641,-0.977,0.916,73.333,808265.000,1.000
5.302,5.463,7.912,5.279,6.139,3.994,2.175,2.541,-0.068,0.996,-0.038,-0.793,-1.038,1.038,73.333,808266.000,1.000
5.977,8.046,9.790,7.002,9.632,12.854,14.015,6.415,-0.067,0.996,-0.037,-0.824,-0.946,1.038,73.333,808267.000,1.000
7.564,10.948,11.803,8.531,11.833,20.333,21.906,8.552,-0.066,0.996,-0.037,-0.854,-0.946,1.007,73.333,808268.000,1.000
9.225,12.388,12.396,8.754,11.016,22.207,21.663,7.539,-0.064,0.997,-0.037,-0.885,-1.038,1.068,73.333,808269.000,1.000
10.368,11.496,11.063,7.445,7.283,17.022,13.692,4.247,-0.065,0.995,-0.040,-0.854,-0.977,1.160,73.333,808270.000,1.000
10.803,8.717,8.487,5.249,2.294,7.211,2.449,0.739,-0.064,0.994,-0.040,-0.885,-0.885,1.221,73.333,808271.000,1.000
10.416,5.108,5.591,2.846,-2.253,-3.034,-7.365,-1.662,-0.064,0.994,-0.039,-0.763,-0.854,1.129,73.333,808272.000,1.000
9.039,1.679,3.021,0.512,-5.472,-10.131,-13.115,-2.951,-0.065,0.995,-0.038,-0.763,-0.763,1.190,73.333,808273.000,1.000
6.876,-0.581,1.215,-1.533,-6.866,-11.664,-13.484,-3.561,-0.064,0.996,-0.039,-0.702,-0.854,1.190,73.333,808274.000,1.000
4.748,-0.828,0.433,-2.811,-6.103,-7.094,-8.170,-3.600,-0.064,0.996,-0.037,-0.732,-0.885,1.221,73.333,808275.000,1.000
3.519,0.871,0.539,-2.950,-3.727,0.705,0.377,-3.083,-0.064,0.996,-0.037,-0.702,-0.793,1.282,73.333,808276.000,1.000
3.380,3.281,0.954,-2.151,-1.355,6.342,6.914,-2.422,-0.065,0.997,-0.038,-0.671,-0.671,1.312,73.333,808277.000,1.000
3.904,4.993,1.255,-0.959,-0.404,6.018,7.391,-2.071,-0.063,0.995,-0.040,-0.763,-0.580,1.221,73.333,808278.000,1.000
4.567,5.488,1.493,0.239,-0.845,0.587,2.485,-1.987,-0.065,0.993,-0.040,-0.702,-0.580,1.221,73.333,808279.000,1.000
4.990,5.138,1.855,1.289,-1.501,-5.408,-3.306,-1.809,-0.066,0.993,-0.042,-0.580,-0.580,1.190,73.333,808280.000,1.000
4.928,4.544,2.371,2.101,-1.279,-7.462,-5.519,-1.338,-0.066,0.993,-0.038,-0.610,-0.549,1.221,73.333,808281.000,1.000
4.308,4.036,2.916,2.644,0.026,-4.375,-2.851,-0.566,-0.065,0.994,-0.037,-0.610,-0.610,1.221,73.333,808282.000,1.000
3.272,3.633,3.474,3.075,1.890,1.512,2.731,0.558,-0.065,0.993,-0.038,-0.641,-0.610,1.221,73.333,808283.000,1.000
2.043,3.255,4.078,3.623,3.686,6.879,8.252,2.080,-0.064,0.994,-0.038,-0.610,-0.641,1.190,73.333,808284.000,1.000
0.697,2.841,4.597,4.331,5.067,9.867,11.839,3.813,-0.064,0.996,-0.039,-0.580,-0.671,1.160,73.333,808285.000,1.000
-0.836,2.289,4.761,4.971,5.796,10.271,12.817,5.124,-0.064,0.997,-0.039,-0.549,-0.641,1.190,73.333,808286.000,1.000
-2.542,1.471,4.340,5.237,5.576,8.603,11.003,5.066,-0.065,0.997,-0.037,-0.610,-0.549,1.160,73.333,808287.000,1.000
-4.205,0.325,3.415,5.014,4.230,5.547,6.734,3.109,-0.065,0.996,-0.038,-0.610,-0.519,1.099,73.333,808288.000,1.000
-5.583,-1.172,2.220,4.371,1.888,1.784,0.996,-0.439,-0.065,0.996,-0.035,-0.641,-0.488,1.160,73.333,808289.000,1.000
-6.527,-2.818,0.967,3.505,-0.742,-1.374,-4.112,-4.458,-0.066,0.997,-0.040,-0.610,-0.549,1.068,73.333,808290.000,1.000
-6.779,-3.923,0.049,2.907,-2.191,-1.528,-5.302,-6.967,-0.069,0.997,-0.038,-0.580,-0.641,1.068,73.333,808291.000,1.000
-5.978,-3.719,-0.063,3.251,-1.041,2.860,-0.404,-5.602,-0.068,0.997,-0.033,-0.549,-0.732,1.068,73.333,808292.000,1.000
-4.137,-2.274,0.706,4.723,2.564,9.877,8.930,0.616,-0.069,0.995,-0.036,-0.610,-0.793,0.946,73.333,808293.000,1.000
-2.095,-0.830,1.500,6.374,6.362,14.626,17.434,9.336,-0.069,0.995,-0.036,-0.641,-0.824,0.916,73.333,808294.000,1.000
-1.273,-1.112,0.770,6.399,7.210,12.651,19.358,15.464,-0.068,0.995,-0.040,-0.763,-0.824,0.946,73.333,808295.000,1.000
-2.729,-4.084,-2.522,3.436,3.361,3.175,12.264,14.884,-0.067,0.995,-0.040,-0.580,-0.977,0.854,73.333,808296.000,1.000
-6.286,-9.142,-7.903,-2.252,-4.174,-10.274,-1.213,7.636,-0.067,0.994,-0.040,-0.610,-1.007,0.732,73.333,808297.000,1.000
-10.509,-14.358,-13.443,-8.804,-12.272,-21.937,-14.972,-2.607,-0.067,0.996,-0.038,-0.671,-0.977,0.763,73.333,808298.000,1.000
-13.603,-17.624,-16.993,-13.864,-17.638,-27.076,-23.322,-11.400,-0.068,0.996,-0.039,-0.641,-1.007,0.763,73.333,808299.000,1.000
-14.503,-17.894,-17.467,-15.889,-18.542,-24.587,-24.096,-15.746,-0.070,0.995,-0.038,-0.702,-1.038,0.702,73.333,808300.000,1.000
-13.293,-15.570,-15.179,-14.764,-15.357,-17.107,-18.622,-14.852,-0.069,0.995,-0.039,-0.732,-1.221,0.732,73.333,808301.000,1.000
-10.840,-11.923,-11.372,-11.558,-9.854,-8.559,-9.725,-9.964,-0.068,0.996,-0.037,-0.763,-1.282,0.732,73.333,808302.000,1.000
-8.141,-8.273,-7.425,-7.785,-4.143,-1.863,-0.613,-3.587,-0.068,0.994,-0.041,-0.763,-1.251,0.702,73.333,808303.000,1.000
-5.925,-5.558,-4.456,-4.739,0.019,1.464,5.383,1.656,-0.067,0.996,-0.040,-0.702,-1.343,0.580,73.333,808304.000,1.000
-4.566,-4.134,-3.042,-3.041,1.838,1.262,6.413,4.400,-0.067,0.996,-0.037,-0.671,-1.434,0.549,73.333,808305.000,1.000
-4.069,-3.674,-2.787,-2.408,1.904,-1.011,3.766,5.260,-0.070,0.995,-0.037,-0.610,-1.465,0.610,73.333,808306.000,1.000
-4.213,-3.484,-2.595,-2.058,1.580,-2.888,0.648,5.617,-0.069,0.996,-0.038,-0.580,-1.617,0.732,73.333,808307.000,1.000
-4.852,-3.141,-1.602,-1.598,1.640,-2.628,-0.881,5.645,-0.068,0.997,-0.037,-0.519,-1.770,0.610,73.333,808308.000,1.000
-5.974,-2.845,0.033,-1.349,1.657,-0.758,-1.584,4.261,-0.068,0.997,-0.035,-0.549,-1.831,0.610,73.333,808309.000,1.000
-7.423,-3.091,1.368,-1.778,0.778,0.356,-3.648,0.958,-0.069,0.996,-0.036,-0.488,-1.801,0.519,73.333,808310.000,1.000
-8.609,-3.884,1.749,-2.757,-0.949,-0.734,-7.531,-3.004,-0.069,0.995,-0.042,-0.427,-1.953,0.519,73.333,808311.000,1.000
-8.618,-4.372,1.479,-3.467,-2.173,-2.443,-10.645,-5.285,-0.068,0.994,-0.036,-0.366,-1.984,0.488,73.333,808312.000,1.000
-6.809,-3.624,1.437,-3.068,-1.468,-1.936,-9.966,-4.216,-0.069,0.996,-0.037,-0.366,-1.953,0.519,73.333,808313.000,1.000
-3.506,-1.849,1.931,-1.571,0.953,1.047,-5.771,-0.247,-0.069,0.997,-0.039,-0.275,-2.014,0.519,73.333,808314.000,1.000
0.095,-0.347,2.389,0.133,3.288,3.619,-1.436,4.481,-0.069,0.996,-0.039,-0.275,-2.106,0.519,73.333,808315.000,1.000
2.831,-0.127,2.263,1.169,3.998,3.176,0.367,8.031,-0.068,0.997,-0.038,-0.214,-2.197,0.519,73.333,808316.000,1.000
4.199,-1.103,1.467,1.194,2.872,0.009,-0.323,9.404,-0.067,0.996,-0.041,-0.305,-2.197,0.488,73.333,808317.000,1.000
4.166,-2.711,-0.013,0.030,0.249,-3.812,-2.385,7.698,-0.067,0.996,-0.041,-0.275,-2.075,0.519,73.333,808318.000,1.000
2.935,-4.680,-2.368,-2.512,-3.716,-6.895,-5.575,2.232,-0.069,0.996,-0.042,-0.244,-2.197,0.427,73.333,808319.000,1.000
1.093,-6.828,-5.375,-6.069,-8.509,-8.980,-9.953,-5.966,-0.069,0.998,-0.040,-0.214,-2.228,0.336,73.333,808320.000,1.000
-0.437,-8.584,-7.984,-9.390,-12.704,-9.986,-14.430,-13.819,-0.068,0.997,-0.042,-0.153,-2.289,0.488,73.333,808321.000,1.000
-0.926,-9.199,-9.026,-10.982,-14.584,-9.796,-16.945,-17.787,-0.067,0.996,-0.041,-0.153,-2.289,0.397,73.333,808322.000,1.000
-0.242,-8.262,-7.991,-10.062,-13.179,-8.298,-15.630,-15.850,-0.068,0.998,-0.040,-0.092,-2.136,0.305,73.333,808323.000,1.000
1.188,-6.001,-5.348,-7.093,-8.951,-5.586,-10.443,-8.916,-0.069,0.998,-0.039,-0.061,-2.136,0.275,73.333,808324.000,1.000
2.631,-3.252,-2.253,-3.551,-3.731,-2.607,-4.024,-0.503,-0.067,0.997,-0.039,-0.153,-2.228,0.275,73.333,808325.000,1.000
3.444,-0.878,0.240,-0.887,0.592,-0.488,0.655,5.894,-0.066,0.998,-0.042,-0.061,-2.228,0.366,73.333,808326.000,1.000
3.408,0.842,1.666,0.372,3.405,0.905,3.294,9.123,-0.067,0.997,-0.041,-0.061,-2.228,0.397,73.333,808327.000,1.000
2.683,2.083,2.141,0.534,5.133,2.579,5.602,10.030,-0.066,0.999,-0.040,-0.153,-2.258,0.427,73.333,808328.000,1.000
1.507,2.954,1.984,0.108,6.134,5.015,8.244,9.731,-0.064,0.999,-0.039,-0.183,-2.197,0.458,73.333,808329.000,1.000
-0.102,3.231,1.330,-0.718,6.046,7.621,9.423,8.277,-0.063,0.997,-0.037,-0.122,-2.106,0.397,73.333,808330.000,1.000
-2.375,2.363,-0.043,-2.222,3.900,8.649,6.174,4.550,-0.063,0.998,-0.039,-0.122,-2.014,0.275,73.333,808331.000,1.000
-5.386,0.003,-2.408,-4.651,-0.713,6.287,-2.373,-1.950,-0.066,0.997,-0.039,-0.305,-2.045,0.275,73.333,808332.000,1.000
-8.500,-3.099,-5.195,-7.365,-6.218,1.268,-12.289,-9.077,-0.066,0.997,-0.041,-0.275,-1.923,0.275,73.333,808333.000,1.000
-10.471,-5.258,-7.007,-8.912,-9.672,-2.998,-17.223,-12.940,-0.068,0.995,-0.039,-0.244,-1.862,0.275,73.333,808334.000,1.000
-10.355,-5.388,-6.871,-8.313,-9.407,-4.124,-14.475,-11.280,-0.068,0.995,-0.039,-0.183,-2.014,0.305,73.333,808335.000,1.000
-8.297,-4.009,-5.223,-6.100,-6.580,-3.121,-7.467,-5.622,-0.070,0.993,-0.040,-0.153,-1.953,0.244,73.333,808336.000,1.000
-5.449,-2.606,-3.644,-4.014,-4.024,-2.782,-2.373,-0.245,-0.069,0.994,-0.039,-0.092,-1.923,0.244,73.333,808337.000,1.000
-3.136,-2.349,-3.571,-3.670,-3.882,-4.801,-2.972,0.996,-0.068,0.995,-0.039,-0.061,-1.923,0.122,73.333,808338.000,1.000
-1.916,-3.244,-5.172,-5.258,-5.956,-8.094,-7.765,-2.451,-0.069,0.993,-0.039,-0.061,-1.984,0.183,73.333,808339.000,1.000
-1.309,-4.225,-7.225,-7.424,-8.009,-9.573,-11.415,-7.574,-0.069,0.995,-0.041,-0.153,-1.953,0.122,73.333,808340.000,1.000
-0.397,-4.168,-8.149,-8.545,-7.894,-7.133,-9.708,-10.541,-0.069,0.994,-0.042,-0.153,-1.923,0.153,73.333,808341.000,1.000
1.347,-2.872,-7.371,-8.074,-5.452,-1.858,-3.339,-9.825,-0.069,0.996,-0.040,-0.183,-1.892,0.153,73.333,808342.000,1.000
3.748,-1.019,-5.528,-6.610,-2.290,2.852,3.380,-6.581,-0.069,0.996,-0.041,-0.122,-1.984,0.031,73.333,808343.000,1.000
6.222,0.651,-3.602,-5.007,-0.002,4.327,7.073,-2.676,-0.068,0.994,-0.043,-0.031,-1.923,0.122,73.333,808344.000,1.000
8.281,1.988,-2.044,-3.643,1.099,2.953,8.024,0.762,-0.068,0.995,-0.042,0.031,-1.923,0.183,73.333,808345.000,1.000
9.668,3.049,-0.849,-2.598,1.381,0.713,7.909,2.921,-0.069,0.994,-0.042,0.000,-1.984,0.244,73.333,808346.000,1.000
10.073,3.285,-0.361,-2.230,0.577,-2.136,6.170,2.628,-0.067,0.995,-0.043,-0.092,-1.892,0.153,73.333,808347.000,1.000
9.135,1.906,-1.120,-3.004,-1.881,-6.611,1.131,-0.787,-0.067,0.994,-0.041,-0.092,-1.892,0.305,73.333,808348.000,1.000
6.908,-0.827,-2.935,-4.707,-5.292,-11.472,-6.128,-6.082,-0.069,0.994,-0.042,0.031,-1.862,0.366,73.333,808349.000,1.000
3.999,-3.478,-4.712,-6.320,-7.611,-13.225,-11.455,-10.242,-0.068,0.994,-0.040,0.000,-1.770,0.305,73.333,808350.000,1.000
1.115,-4.883,-5.405,-6.872,-7.333,-10.288,-11.450,-10.518,-0.066,0.994,-0.040,0.031,-1.831,0.336,73.333,808351.000,1.000
-1.339,-5.136,-4.941,-6.201,-4.915,-4.961,-6.618,-6.649,-0.066,0.994,-0.043,0.061,-1.892,0.366,73.333,808352.000,1.000
-3.192,-5.034,-3.952,-4.886,-2.232,-0.953,-0.631,-1.139,-0.068,0.996,-0.043,0.092,-1.770,0.427,73.333,808353.000,1.000
-4.264,-5.013,-2.997,-3.633,-0.883,-0.116,3.117,2.758,-0.069,0.998,-0.045,-0.061,-1.617,0.458,73.333,808354.000,1.000
-4.249,-4.679,-2.093,-2.740,-0.980,-1.254,4.225,3.395,-0.069,0.999,-0.044,-0.031,-1.648,0.427,73.333,808355.000,1.000
-2.884,-3.272,-0.871,-2.087,-1.552,-1.761,4.096,1.161,-0.069,0.997,-0.040,-0.031,-1.648,0.549,73.333,808356.000,1.000
-0.291,-0.588,0.790,-1.537,-1.894,-0.593,2.829,-2.585,-0.068,0.996,-0.042,-0.061,-1.587,0.549,73.333,808357.000,1.000
2.936,2.754,2.646,-1.071,-1.944,1.101,-0.340,-6.205,-0.069,0.998,-0.044,-0.122,-1.526,0.549,73.333,808358.000,1.000
6.030,5.848,4.378,-0.582,-1.593,2.130,-4.179,-8.095,-0.073,0.998,-0.041,-0.183,-1.617,0.549,73.333,808359.000,1.000
8.408,8.035,5.812,0.164,-0.473,2.683,-5.738,-7.395,-0.073,0.997,-0.042,-0.183,-1.678,0.549,73.333,808360.000,1.000
9.836,8.968,6.845,1.246,1.389,3.306,-3.742,-4.689,-0.072,0.998,-0.041,-0.183,-1.678,0.580,73.333,808361.000,1.000
10.408,8.530,7.224,2.435,3.305,3.694,-0.123,-1.651,-0.071,0.998,-0.043,-0.305,-1.801,0.549,73.333,808362.000,1.000
10.465,7.019,6.812,3.448,4.617,3.280,2.198,0.387,-0.072,1.000,-0.042,-0.305,-1.740,0.488,73.333,808363.000,1.000
10.376,5.217,5.841,4.120,5.271,2.332,1.900,1.178,-0.069,0.997,-0.039,-0.244,-1.801,0.519,73.333,808364.000,1.000
10.322,4.069,4.826,4.358,5.693,2.033,0.057,1.135,-0.070,0.997,-0.040,-0.275,-1.740,0.519,73.333,808365.000,1.000
10.288,4.170,4.311,4.203,6.388,3.539,-0.746,0.911,-0.068,0.999,-0.043,-0.336,-1.862,0.397,73.333,808366.000,1.000
10.070,5.247,4.355,3.756,7.335,6.538,0.993,1.012,-0.067,0.998,-0.041,-0.549,-1.831,0.366,73.333,808367.000,1.000
9.283,6.083,4.349,2.870,7.568,8.616,3.675,1.155,-0.070,0.997,-0.041,-0.549,-1.801,0.397,73.333,808368.000,1.000
7.667,5.363,3.547,1.269,5.901,6.952,4.196,0.443,-0.069,0.998,-0.041,-0.549,-1.770,0.488,73.333,808369.000,1.000
5.501,2.931,1.989,-0.825,2.400,1.251,1.590,-1.345,-0.066,0.996,-0.043,-0.488,-1.831,0.488,73.333,808370.000,1.000
3.523,0.013,0.649,-2.530,-1.357,-5.683,-2.247,-3.327,-0.066,0.996,-0.043,-0.458,-1.770,0.549,73.333,808371.000,1.000
2.282,-1.914,0.352,-3.007,-3.640,-10.337,-5.059,-4.522,-0.067,0.998,-0.038,-0.488,-1.740,0.671,73.333,808372.000,1.000
1.732,-2.141,1.104,-2.001,-3.619,-10.537,-5.441,-4.361,-0.066,0.998,-0.044,-0.580,-1.709,0.580,73.333,808373.000,1.000
1.498,-0.873,2.364,0.245,-1.485,-6.174,-2.790,-2.629,-0.067,0.997,-0.044,-0.610,-1.526,0.610,73.333,808374.000,1.000
1.242,0.982,3.483,3.110,1.525,0.387,1.744,-0.057,-0.066,0.997,-0.042,-0.610,-1.556,0.610,73.333,808375.000,1.000
0.807,2.276,3.961,5.733,3.591,5.499,5.303,1.542,-0.066,0.997,-0.043,-0.549,-1.526,0.610,73.333,808376.000,1.000
0.380,2.447,3.768,7.532,3.676,6.937,5.597,0.825,-0.066,0.997,-0.039,-0.610,-1.343,0.580,73.333,808377.000,1.000
0.518,1.873,3.638,8.649,2.300,4.813,2.534,-1.548,-0.066,0.998,-0.041,-0.580,-1.282,0.732,73.333,808378.000,1.000
1.659,1.268,4.460,9.607,0.704,0.085,-2.774,-3.547,-0.069,0.997,-0.041,-0.671,-1.312,0.671,73.333,808379.000,1.000
3.583,0.943,6.333,10.594,-0.341,-6.342,-9.391,-3.680,-0.069,0.995,-0.043,-0.641,-1.343,0.641,73.333,808380.000,1.000
5.603,0.845,8.519,11.339,-0.669,-12.761,-16.002,-2.029,-0.071,0.996,-0.041,-0.671,-1.190,0.671,73.333,808381.000,1.000
7.296,1.145,10.239,11.624,-0.063,-16.067,-19.727,0.357,-0.071,0.996,-0.042,-0.610,-1.312,0.580,73.333,808382.000,1.000
8.834,2.375,11.399,11.669,1.934,-13.366,-17.366,2.714,-0.072,0.996,-0.039,-0.519,-1.312,0.549,73.333,808383.000,1.000
10.542,4.717,12.228,11.808,5.242,-4.852,-8.833,4.878,-0.070,0.995,-0.038,-0.580,-1.465,0.519,73.333,808384.000,1.000
12.342,7.459,12.656,12.061,8.765,5.727,2.078,6.839,-0.071,0.995,-0.040,-0.580,-1.465,0.488,73.333,808385.000,1.000
13.700,9.499,12.407,12.190,11.237,14.224,11.302,8.679,-0.069,0.995,-0.040,-0.580,-1.373,0.610,73.333,808386.000,1.000
13.935,10.122,11.272,11.883,12.111,18.900,17.389,10.514,-0.069,0.995,-0.039,-0.580,-1.404,0.549,73.333,808387.000,1.000
12.547,9.099,9.148,10.739,11.238,19.685,20.223,11.845,-0.068,0.994,-0.041,-0.641,-1.434,0.549,73.333,808388.000,1.000
9.459,6.446,5.922,8.353,8.315,16.494,19.000,11.414,-0.067,0.995,-0.040,-0.488,-1.404,0.671,73.333,808389.000,1.000
5.196,2.673,1.806,4.800,3.508,10.023,13.581,8.551,-0.069,0.995,-0.039,-0.488,-1.404,0.671,73.333,808390.000,1.000
0.864,-0.869,-2.189,0.987,-1.628,3.196,6.755,4.502,-0.069,0.992,-0.042,-0.458,-1.373,0.671,73.333,808391.000,1.000
-2.287,-2.548,-4.663,-1.775,-4.717,-0.176,3.089,1.774,-0.068,0.994,-0.039,-0.488,-1.343,0.763,73.333,808392.000,1.000
-3.562,-1.610,-4.803,-2.695,-4.282,1.746,5.450,1.929,-0.070,0.993,-0.039,-0.549,-1.312,0.763,73.333,808393.000,1.000
-3.242,1.187,-3.076,-2.077,-0.907,7.333,12.280,4.181,-0.069,0.994,-0.041,-0.549,-1.343,0.854,73.333,808394.000,1.000
-2.387,3.914,-1.046,-1.121,2.939,11.889,17.515,6.071,-0.069,0.993,-0.041,-0.458,-1.373,0.916,73.333,808395.000,1.000
-2.183,4.576,-0.405,-1.200,4.241,10.169,14.329,5.031,-0.068,0.994,-0.046,-0.366,-1.312,0.854,73.333,808396.000,1.000
-3.203,2.516,-1.812,-2.909,1.493,0.684,0.874,-0.129,-0.068,0.994,-0.046,-0.244,-1.343,0.916,73.333,808397.000,1.000
-4.969,-0.917,-4.193,-5.338,-3.850,-11.960,-17.082,-7.916,-0.066,0.993,-0.046,-0.214,-1.404,0.916,73.333,808398.000,1.000
-6.363,-3.414,-5.558,-6.603,-8.369,-20.414,-30.123,-14.579,-0.067,0.996,-0.044,-0.275,-1.373,0.916,73.333,808399.000,1.000
-6.547,-3.534,-4.615,-5.381,-9.370,-20.455,-32.144,-16.674,-0.065,0.999,-0.040,-0.244,-1.343,0.885,73.333,808400.000,1.000
-5.460,-1.486,-1.547,-1.873,-6.550,-13.228,-23.871,-13.345,-0.068,0.998,-0.042,-0.275,-1.251,0.854,73.333,808401.000,1.000
-3.666,1.328,2.207,2.423,-1.743,-3.402,-11.348,-6.537,-0.068,1.000,-0.040,-0.427,-1.282,0.702,73.333,808402.000,1.000
-1.938,3.285,4.922,5.734,2.488,3.924,-1.477,0.648,-0.068,1.000,-0.041,-0.519,-1.282,0.641,73.333,808403.000,1.000
-0.735,3.552,5.651,7.100,4.463,6.096,2.254,5.865,-0.069,1.000,-0.038,-0.580,-1.251,0.519,73.333,808404.000,1.000
0.071,2.502,4.637,6.751,4.114,4.146,1.012,8.335,-0.067,1.000,-0.044,-0.671,-1.251,0.397,73.333,808405.000,1.000
0.877,1.169,2.872,5.645,2.525,1.319,-1.328,8.660,-0.065,0.999,-0.042,-0.763,-1.221,0.397,73.333,808406.000,1.000
1.884,0.441,1.291,4.701,0.990,0.495,-1.156,8.121,-0.063,0.998,-0.043,-0.824,-1.160,0.366,73.333,808407.000,1.000
3.011,0.609,0.379,4.273,0.242,2.509,2.588,7.639,-0.063,0.995,-0.042,-0.885,-1.038,0.427,73.333,808408.000,1.000
4.043,1.245,-0.009,4.040,0.015,5.864,7.585,6.968,-0.063,0.995,-0.040,-0.793,-0.916,0.366,73.333,808409.000,1.000
4.705,1.452,-0.508,3.309,-0.705,7.892,9.849,4.966,-0.065,0.990,-0.039,-0.916,-0.793,0.427,73.333,808410.000,1.000
4.715,0.424,-1.751,1.520,-2.867,6.478,6.711,0.754,-0.066,0.988,-0.038,-0.702,-0.824,0.366,73.333,808411.000,1.000
3.913,-2.040,-4.003,-1.343,-6.594,1.092,-1.630,-5.221,-0.066,0.990,-0.041,-0.610,-0.824,0.366,73.333,808412.000,1.000
2.454,-5.191,-6.837,-4.562,-10.680,-6.263,-11.638,-10.834,-0.068,0.990,-0.041,-0.549,-0.824,0.427,73.333,808413.000,1.000
0.887,-7.496,-9.172,-6.946,-12.888,-11.202,-17.388,-13.265,-0.070,0.993,-0.043,-0.427,-0.854,0.488,73.333,808414.000,1.000
-0.136,-7.708,-9.977,-7.637,-11.636,-10.416,-14.865,-11.053,-0.071,0.995,-0.042,-0.519,-0.885,0.519,73.333,808415.000,1.000
-0.347,-5.930,-9.057,-6.737,-7.546,-5.214,-6.045,-5.312,-0.072,0.996,-0.044,-0.610,-1.007,0.580,73.333,808416.000,1.000
0.074,-3.303,-7.045,-5.005,-2.783,0.001,2.953,1.274,-0.070,0.997,-0.044,-0.610,-0.977,0.671,73.333,808417.000,1.000
0.862,-0.815,-4.645,-3.143,0.817,2.072,7.206,6.218,-0.070,0.996,-0.047,-0.488,-1.068,0.671,73.333,808418.000,1.000
1.786,1.130,-2.410,-1.682,2.421,0.611,5.221,7.772,-0.070,0.996,-0.045,-0.580,-1.068,0.763,73.333,808419.000,1.000
2.427,2.319,-0.931,-1.232,1.840,-3.192,-1.905,4.961,-0.074,0.995,-0.047,-0.458,-1.282,0.732,73.333,808420.000,1.000
2.274,2.600,-0.575,-2.156,-0.468,-7.490,-11.164,-1.588,-0.076,0.997,-0.048,-0.427,-1.404,0.702,73.333,808421.000,1.000
1.210,2.152,-1.091,-3.956,-3.131,-10.041,-18.232,-9.012,-0.079,0.998,-0.043,-0.397,-1.404,0.610,73.333,808422.000,1.000
-0.356,1.496,-1.603,-5.341,-4.340,-9.045,-19.341,-13.314,-0.080,1.000,-0.042,-0.305,-1.587,0.549,73.333,808423.000,1.000
-1.871,1.118,-1.261,-5.105,-3.005,-4.376,-13.647,-11.865,-0.081,1.003,-0.042,-0.397,-1.770,0.366,73.333,808424.000,1.000
-2.964,1.251,0.156,-2.954,0.560,2.272,-3.548,-5.263,-0.082,1.005,-0.042,-0.610,-1.862,0.244,73.333,808425.000,1.000
-3.508,1.818,2.140,0.348,4.858,8.415,6.940,2.990,-0.080,1.006,-0.041,-0.702,-1.953,0.122,73.333,808426.000,1.000
-3.650,2.389,3.694,3.497,7.972,11.902,13.905,8.781,-0.079,1.008,-0.041,-0.793,-2.289,0.000,73.333,808427.000,1.000
-3.720,2.396,4.028,5.410,8.604,11.823,15.127,9.918,-0.077,1.009,-0.043,-0.793,-2.319,-0.061,73.333,808428.000,1.000
-4.022,1.511,3.023,5.708,6.770,8.869,11.064,7.018,-0.073,1.009,-0.042,-1.038,-2.411,-0.153,73.333,808429.000,1.000
-4.706,-0.169,1.147,4.742,3.716,4.844,4.574,2.682,-0.068,1.009,-0.040,-1.160,-2.533,-0.092,73.333,808430.000,1.000
-5.699,-2.187,-0.874,3.354,1.177,1.746,-0.414,-0.014,-0.064,1.009,-0.041,-1.190,-2.533,-0.031,73.333,808431.000,1.000
-6.776,-4.001,-2.540,2.324,0.340,0.755,-1.010,0.754,-0.064,1.007,-0.042,-1.312,-2.472,0.000,73.333,808432.000,1.000
-7.788,-5.390,-3.902,1.771,1.000,1.502,2.705,4.310,-0.061,1.005,-0.041,-1.434,-2.380,0.153,73.333,808433.000,1.000
-8.731,-6.578,-5.493,1.147,1.737,2.310,7.614,7.997,-0.060,1.004,-0.041,-1.373,-2.228,0.183,73.333,808434.000,1.000
-9.475,-7.695,-7.619,0.009,1.317,1.776,10.225,9.529,-0.059,1.002,-0.042,-1.526,-2.106,0.214,73.333,808435.000,1.000
-9.578,-8.267,-9.727,-1.315,-0.065,0.279,9.717,8.833,-0.059,0.999,-0.046,-1.404,-1.923,0.366,73.333,808436.000,1.000
-8.669,-7.706,-10.887,-2.130,-1.332,-0.838,7.524,7.269,-0.060,0.996,-0.040,-1.312,-1.770,0.427,73.333,808437.000,1.000
-6.939,-6.143,-10.674,-2.233,-2.015,-1.289,4.652,5.635,-0.061,0.997,-0.040,-1.373,-1.648,0.519,73.333,808438.000,1.000
-4.987,-4.238,-9.320,-2.010,-2.426,-1.634,1.464,3.809,-0.063,0.994,-0.041,-1.282,-1.587,0.458,73.333,808439.000,1.000
-3.240,-2.347,-7.161,-1.776,-2.612,-1.426,-0.557,1.930,-0.065,0.992,-0.044,-1.190,-1.465,0.549,73.333,808440.000,1.000
-1.736,-0.406,-4.368,-1.463,-2.098,0.534,0.497,0.817,-0.063,0.991,-0.043,-1.007,-1.404,0.488,73.333,808441.000,1.000
-0.448,1.482,-1.321,-0.997,-0.731,3.978,4.374,1.034,-0.067,0.990,-0.042,-0.946,-1.251,0.549,73.333,808442.000,1.000
0.499,3.008,1.405,-0.522,1.040,7.071,8.792,2.253,-0.069,0.991,-0.040,-0.763,-1.282,0.549,73.333,808443.000,1.000
1.032,4.227,3.431,-0.092,2.829,8.856,11.961,3.784,-0.070,0.990,-0.037,-0.610,-1.190,0.519,73.333,808444.000,1.000
1.211,5.478,4.658,0.450,4.486,9.979,13.441,5.001,-0.071,0.989,-0.036,-0.519,-1.160,0.366,73.333,808445.000,1.000
0.990,6.641,4.970,1.105,5.563,10.824,13.150,5.046,-0.070,0.990,-0.039,-0.427,-1.038,0.214,73.333,808446.000,1.000
0.268,7.127,4.221,1.639,5.527,10.825,11.166,3.237,-0.072,0.989,-0.039,-0.336,-1.038,0.092,73.333,808447.000,1.000
-0.786,6.600,2.666,1.938,4.489,9.422,8.065,0.146,-0.073,0.988,-0.039,-0.214,-1.129,0.000,73.333,808448.000,1.000
-1.788,5.224,0.893,2.074,3.032,6.453,4.338,-2.721,-0.073,0.987,-0.037,0.000,-1.099,-0.031,73.333,808449.000,1.000
-2.439,3.474,-0.520,2.112,1.695,2.373,0.466,-4.240,-0.071,0.988,-0.040,0.122,-1.129,-0.153,73.333,808450.000,1.000
-2.555,2.064,-1.054,2.198,1.062,-1.120,-2.015,-4.043,-0.073,0.988,-0.034,0.244,-1.221,-0.153,73.333,808451.000,1.000
-2.014,1.686,-0.415,2.634,1.702,-1.809,-1.183,-2.215,-0.072,0.986,-0.042,0.244,-1.251,-0.122,73.333,808452.000,1.000
-0.942,2.415,1.208,3.585,3.479,0.749,2.989,0.641,-0.073,0.987,-0.041,0.366,-1.282,-0.153,73.333,808453.000,1.000
0.141,3.362,2.985,4.699,5.159,3.940,7.730,3.222,-0.073,0.988,-0.039,0.610,-1.282,0.000,73.333,808454.000,1.000
0.577,3.201,3.847,5.222,5.155,3.881,9.420,4.199,-0.073,0.990,-0.039,0.549,-1.343,0.000,73.333,808455.000,1.000
0.080,1.342,3.309,4.674,2.979,-0.943,6.791,3.466,-0.072,0.990,-0.039,0.702,-1.404,-0.031,73.333,808456.000,1.000
-1.058,-1.459,1.771,3.243,-0.194,-7.918,2.136,2.277,-0.071,0.992,-0.042,0.702,-1.434,0.000,73.333,808457.000,1.000
-2.277,-3.825,0.085,1.403,-2.623,-12.495,-0.801,1.700,-0.073,0.993,-0.042,0.702,-1.495,0.183,73.333,808458.000,1.000
-3.231,-5.026,-1.235,-0.613,-3.528,-12.029,0.071,1.315,-0.073,0.993,-0.043,0.641,-1.495,0.275,73.333,808459.000,1.000
-4.022,-5.512,-2.403,-2.856,-3.575,-7.712,3.725,-0.251,-0.073,0.994,-0.042,0.763,-1.617,0.305,73.333,808460.000,1.000
-5.024,-6.346,-4.050,-5.403,-4.168,-3.399,6.750,-3.875,-0.073,0.993,-0.042,0.671,-1.648,0.427,73.333,808461.000,1.000
-6.411,-8.143,-6.559,-8.076,-6.189,-2.492,5.939,-8.989,-0.071,0.994,-0.042,0.641,-1.587,0.549,73.333,808462.000,1.000
-7.868,-10.500,-9.476,-10.363,-9.183,-5.374,0.954,-13.653,-0.071,0.997,-0.046,0.641,-1.617,0.641,73.333,808463.000,1.000
-8.778,-12.317,-11.747,-11.702,-11.790,-9.428,-5.661,-15.873,-0.072,0.996,-0.045,0.549,-1.617,0.732,73.333,808464.000,1.000
-8.649,-12.593,-12.463,-11.852,-12.797,-11.424,-10.716,-15.023,-0.072,0.998,-0.044,0.488,-1.648,0.763,73.333,808465.000,1.000
-7.419,-10.988,-11.348,-10.918,-11.711,-9.919,-12.036,-11.788,-0.070,0.998,-0.047,0.336,-1.770,0.824,73.333,808466.000,1.000
-5.578,-8.009,-8.936,-9.250,-8.869,-5.971,-9.023,-7.333,-0.071,0.999,-0.047,0.305,-1.770,0.854,73.333,808467.000,1.000
-3.993,-4.838,-6.311,-7.356,-5.400,-2.296,-3.020,-2.945,-0.070,0.998,-0.044,0.153,-1.740,0.916,73.333,808468.000,1.000
-3.356,-2.635,-4.450,-5.642,-2.610,-1.211,3.197,0.272,-0.073,1.000,-0.046,0.000,-1.801,1.007,73.333,808469.000,1.000
-3.678,-1.744,-3.513,-4.171,-1.107,-2.614,7.296,1.861,-0.073,1.003,-0.045,-0.244,-1.831,0.916,73.333,808470.000,1.000
-4.401,-1.763,-2.972,-2.871,-0.791,-4.530,8.411,1.802,-0.073,1.004,-0.047,-0.366,-1.801,0.916,73.333,808471.000,1.000
-5.027,-2.353,-2.541,-1.913,-1.557,-5.709,6.411,0.043,-0.073,1.004,-0.046,-0.549,-1.801,0.946,73.333,808472.000,1.000
-5.467,-3.505,-2.421,-1.606,-3.346,-6.616,1.624,-3.181,-0.073,1.005,-0.046,-0.641,-1.770,0.916,73.333,808473.000,1.000
-5.781,-4.984,-2.748,-1.886,-5.500,-7.612,-4.313,-6.671,-0.073,1.006,-0.048,-0.946,-1.923,0.824,73.333,808474.000,1.000
-5.807,-5.977,-3.134,-2.118,-6.593,-7.471,-8.344,-8.467,-0.072,1.006,-0.049,-1.068,-1.892,0.793,73.333,808475.000,1.000
-5.257,-5.744,-2.957,-1.571,-5.554,-5.078,-8.206,-7.268,-0.072,1.006,-0.047,-1.190,-1.953,0.763,73.333,808476.000,1.000
-4.112,-4.451,-2.076,-0.134,-2.910,-1.752,-4.806,-3.816,-0.071,1.005,-0.044,-1.373,-2.014,0.732,73.333,808477.000,1.000
-2.731,-2.967,-0.949,1.594,-0.395,-0.184,-1.211,-0.375,-0.072,1.005,-0.042,-1.465,-2.106,0.671,73.333,808478.000,1.000
-1.569,-2.048,-0.220,2.877,0.619,-1.602,0.348,1.280,-0.070,1.001,-0.042,-1.709,-2.136,0.610,73.333,808479.000,1.000
-0.833,-1.880,-0.168,3.387,0.073,-4.866,-0.258,1.096,-0.069,0.996,-0.044,-1.953,-2.075,0.732,73.333,808480.000,1.000
-0.362,-2.211,-0.526,3.237,-1.243,-7.832,-2.212,0.086,-0.069,0.991,-0.044,-1.892,-1.953,0.671,73.333,808481.000,1.000
0.170,-2.713,-0.873,2.682,-2.628,-9.112,-4.981,-0.908,-0.066,0.988,-0.044,-1.831,-1.923,0.610,73.333,808482.000,1.000
1.036,-3.068,-0.813,2.036,-3.644,-8.477,-7.788,-1.466,-0.065,0.985,-0.042,-1.495,-1.831,0.580,73.333,808483.000,1.000
2.305,-2.993,-0.099,1.638,-4.037,-6.734,-9.509,-1.373,-0.065,0.986,-0.041,-1.495,-1.648,0.641,73.333,808484.000,1.000
3.728,-2.426,1.158,1.629,-3.976,-5.678,-9.915,-0.685,-0.064,0.986,-0.044,-1.343,-1.617,0.763,73.333,808485.000,1.000
4.964,-1.400,2.664,1.936,-3.825,-6.573,-9.538,0.234,-0.063,0.988,-0.046,-1.221,-1.495,0.793,73.333,808486.000,1.000
5.908,0.191,4.254,2.461,-3.565,-8.275,-8.399,0.856,-0.063,0.989,-0.043,-1.160,-1.434,0.977,73.333,808487.000,1.000
6.579,2.290,5.822,3.030,-2.981,-8.328,-6.374,0.644,-0.063,0.990,-0.046,-1.068,-1.251,1.038,73.333,808488.000,1.000
6.825,4.257,6.918,3.270,-2.260,-5.966,-4.350,-0.593,-0.066,0.991,-0.046,-1.038,-1.068,0.946,73.333,808489.000,1.000
6.389,5.244,6.944,2.867,-1.804,-2.808,-3.355,-2.188,-0.070,0.991,-0.045,-0.854,-1.099,1.038,73.333,808490.000,1.000
5.215,5.003,5.848,1.923,-1.516,-0.490,-2.813,-2.696,-0.074,0.993,-0.042,-0.885,-1.099,0.946,73.333,808491.000,1.000
3.567,4.088,4.206,0.874,-0.817,1.164,-1.062,-1.034,-0.077,0.993,-0.041,-0.763,-1.129,0.763,73.333,808492.000,1.000
1.921,3.253,2.680,0.055,0.468,3.000,2.263,2.186,-0.079,0.994,-0.041,-0.885,-1.190,0.610,73.333,808493.000,1.000
0.800,2.865,1.583,-0.539,1.659,4.734,5.367,4.735,-0.078,0.996,-0.042,-0.977,-1.221,0.488,73.333,808494.000,1.000
0.642,3.012,1.098,-0.951,2.113,5.687,6.586,4.782,-0.079,0.999,-0.043,-1.007,-1.312,0.397,73.333,808495.000,1.000
1.609,3.807,1.551,-0.945,2.143,6.409,6.532,2.649,-0.075,0.999,-0.043,-1.007,-1.373,0.244,73.333,808496.000,1.000
3.347,5.231,3.041,-0.194,2.647,8.095,7.114,0.367,-0.072,1.002,-0.043,-1.129,-1.434,0.153,73.333,808497.000,1.000
5.176,7.049,5.274,1.507,4.381,11.347,10.011,0.257,-0.070,1.003,-0.040,-1.221,-1.465,0.183,73.333,808498.000,1.000
6.629,9.090,7.844,4.227,7.704,16.112,16.212,3.737,-0.069,1.003,-0.042,-1.221,-1.465,0.244,73.333,808499.000,1.000
7.515,11.029,10.171,7.473,11.840,21.020,24.128,9.772,-0.071,1.005,-0.041,-1.434,-1.526,0.244,73.333,808500.000,1.000
7.530,11.880,11.192,9.805,14.276,22.673,28.123,14.153,-0.070,1.003,-0.041,-1.556,-1.495,0.305,73.333,808501.000,1.000
6.385,10.618,9.885,9.707,12.438,18.054,22.702,12.269,-0.070,0.999,-0.045,-1.556,-1.404,0.336,73.333,808502.000,1.000
4.322,7.340,6.400,7.034,6.265,7.777,8.442,3.396,-0.072,0.996,-0.046,-1.465,-1.434,0.427,73.333,808503.000,1.000
2.032,3.226,2.021,3.100,-1.684,-4.296,-8.580,-8.527,-0.072,0.994,-0.045,-1.434,-1.282,0.397,73.333,808504.000,1.000
0.193,-0.225,-1.665,-0.351,-8.039,-13.481,-21.262,-17.802,-0.074,0.995,-0.048,-1.404,-1.373,0.458,73.333,808505.000,1.000
-0.572,-1.576,-3.255,-1.904,-10.094,-15.883,-24.285,-20.171,-0.074,0.993,-0.048,-1.282,-1.373,0.427,73.333,808506.000,1.000
0.254,0.017,-2.082,-0.993,-6.988,-10.161,-16.406,-14.913,-0.076,0.995,-0.050,-1.160,-1.465,0.488,73.333,808507.000,1.000
2.606,3.898,1.223,1.645,-0.606,0.500,-2.441,-5.376,-0.074,0.995,-0.046,-1.007,-1.373,0.549,73.333,808508.000,1.000
5.520,7.926,4.859,4.213,5.177,9.264,8.771,2.925,-0.072,0.993,-0.045,-0.977,-1.434,0.641,73.333,808509.000,1.000
7.600,9.980,7.011,5.030,7.193,10.600,10.832,5.946,-0.072,0.993,-0.041,-0.824,-1.434,0.671,73.333,808510.000,1.000
7.878,9.415,6.986,3.609,5.121,4.555,4.352,3.527,-0.074,0.992,-0.044,-0.702,-1.434,0.641,73.333,808511.000,1.000
6.215,6.963,5.140,0.604,0.846,-4.511,-5.356,-1.625,-0.074,0.992,-0.048,-0.580,-1.556,0.610,73.333,808512.000,1.000
3.155,3.797,2.275,-2.903,-3.524,-12.003,-13.214,-6.631,-0.073,0.992,-0.045,-0.488,-1.526,0.671,73.333,808513.000,1.000
-0.352,0.967,-0.688,-5.856,-6.621,-15.229,-16.472,-9.779,-0.074,0.991,-0.045,-0.458,-1.617,0.702,73.333,808514.000,1.000
-3.278,-0.790,-2.819,-7.397,-7.799,-13.564,-14.395,-10.395,-0.074,0.993,-0.045,-0.366,-1.495,0.580,73.333,808515.000,1.000
-4.833,-1.116,-3.414,-7.027,-6.938,-8.003,-7.821,-8.439,-0.073,0.992,-0.044,-0.244,-1.648,0.549,73.333,808516.000,1.000
-4.637,0.048,-2.389,-4.746,-4.225,-0.353,1.049,-4.237,-0.072,0.992,-0.046,-0.244,-1.648,0.580,73.333,808517.000,1.000
-2.774,2.512,-0.257,-1.112,-0.085,7.638,9.420,1.519,-0.071,0.994,-0.044,-0.153,-1.648,0.580,73.333,808518.000,1.000
0.195,5.825,2.242,2.925,4.837,14.816,15.533,7.736,-0.073,0.994,-0.046,-0.336,-1.709,0.549,73.333,808519.000,1.000
3.378,9.339,4.573,6.476,9.786,20.596,19.663,13.211,-0.073,0.994,-0.045,-0.214,-1.740,0.458,73.333,808520.000,1.000
5.796,12.233,6.405,8.911,13.769,24.274,22.480,16.686,-0.075,0.993,-0.043,-0.275,-1.709,0.519,73.333,808521.000,1.000
6.602,13.508,7.172,9.676,15.444,24.541,22.712,16.817,-0.074,0.994,-0.046,-0.275,-1.648,0.549,73.333,808522.000,1.000
5.421,12.439,6.305,8.474,13.913,20.535,18.448,13.134,-0.072,0.995,-0.042,-0.366,-1.678,0.549,73.333,808523.000,1.000
2.710,9.305,3.987,5.780,9.867,13.605,10.666,7.057,-0.073,0.994,-0.043,-0.580,-1.678,0.458,73.333,808524.000,1.000
-0.483,5.314,1.194,2.698,5.287,6.914,3.217,1.074,-0.075,0.994,-0.043,-0.641,-1.648,0.427,73.333,808525.000,1.000
-3.256,1.583,-1.198,0.123,1.785,2.629,-1.146,-3.062,-0.075,0.995,-0.046,-0.641,-1.617,0.336,73.333,808526.000,1.000
-5.175,-1.441,-3.029,-1.631,-0.334,0.192,-3.066,-4.950,-0.074,0.995,-0.048,-0.824,-1.648,0.397,73.333,808527.000,1.000
-6.046,-3.622,-4.387,-2.518,-1.498,-2.263,-4.432,-4.946,-0.076,0.994,-0.044,-0.824,-1.709,0.397,73.333,808528.000,1.000
-5.778,-4.791,-5.155,-2.569,-1.977,-5.469,-5.650,-3.558,-0.075,0.993,-0.043,-0.793,-1.740,0.427,73.333,808529.000,1.000
-4.600,-4.981,-5.212,-2.091,-1.935,-8.712,-6.173,-1.478,-0.075,0.992,-0.046,-0.824,-1.770,0.458,73.333,808530.000,1.000
-3.228,-4.695,-4.857,-1.779,-1.931,-11.311,-6.397,0.186,-0.074,0.992,-0.046,-0.885,-1.770,0.458,73.333,808531.000,1.000
-2.475,-4.502,-4.696,-2.206,-2.485,-12.882,-7.076,0.521,-0.074,0.991,-0.042,-0.885,-1.678,0.427,73.333,808532.000,1.000
-2.599,-4.477,-5.018,-3.273,-3.383,-12.759,-7.798,-0.505,-0.073,0.991,-0.044,-0.763,-1.740,0.427,73.333,808533.000,1.000
-3.233,-4.467,-5.655,-4.443,-4.160,-10.835,-7.899,-2.460,-0.072,0.992,-0.043,-0.793,-1.740,0.519,73.333,808534.000,1.000
-3.784,-4.512,-6.143,-5.226,-4.679,-8.162,-7.611,-4.843,-0.071,0.991,-0.041,-0.763,-1.678,0.519,73.333,808535.000,1.000
-3.655,-4.552,-5.788,-5.221,-4.689,-5.704,-6.953,-6.584,-0.073,0.994,-0.042,-0.763,-1.709,0.549,73.333,808536.000,1.000
-2.372,-4.012,-3.996,-4.053,-3.373,-3.123,-4.557,-5.991,-0.072,0.993,-0.044,-0.671,-1.617,0.549,73.333,808537.000,1.000
0.141,-2.120,-0.606,-1.588,0.051,0.793,1.301,-1.981,-0.073,0.994,-0.043,-0.641,-1.648,0.580,73.333,808538.000,1.000
3.360,1.225,3.859,1.701,5.124,6.340,10.049,4.355,-0.073,0.994,-0.042,-0.671,-1.617,0.549,73.333,808539.000,1.000
6.334,4.964,8.230,4.715,9.820,11.682,17.821,9.799,-0.071,0.995,-0.044,-0.671,-1.434,0.610,73.333,808540.000,1.000
8.190,7.473,11.218,6.318,11.861,14.072,20.203,11.162,-0.072,0.995,-0.045,-0.671,-1.434,0.671,73.333,808541.000,1.000
8.543,7.619,11.967,6.036,10.407,12.136,15.834,7.667,-0.069,0.995,-0.047,-0.519,-1.373,0.671,73.333,808542.000,1.000
7.529,5.284,10.417,4.252,6.391,6.586,7.105,1.469,-0.068,0.994,-0.045,-0.549,-1.312,0.610,73.333,808543.000,1.000
5.602,1.218,7.230,1.853,1.565,-0.588,-2.031,-4.033,-0.068,0.998,-0.042,-0.610,-1.068,0.610,73.333,808544.000,1.000
3.385,-3.276,3.473,-0.301,-2.590,-7.105,-8.654,-6.653,-0.067,0.997,-0.041,-0.549,-1.099,0.702,73.333,808545.000,1.000
1.516,-6.812,0.232,-1.730,-5.378,-11.265,-11.941,-6.576,-0.069,0.997,-0.045,-0.641,-0.977,0.641,73.333,808546.000,1.000
0.310,-8.635,-1.917,-2.464,-6.923,-12.735,-12.729,-5.509,-0.069,0.997,-0.045,-0.702,-0.916,0.732,73.333,808547.000,1.000
-0.434,-9.051,-3.052,-2.957,-7.947,-12.666,-12.737,-5.091,-0.069,0.997,-0.046,-0.641,-0.793,0.702,73.333,808548.000,1.000
-1.136,-9.018,-3.644,-3.677,-9.192,-12.786,-13.753,-5.851,-0.068,0.996,-0.045,-0.641,-0.671,0.580,73.333,808549.000,1.000
-1.905,-9.278,-4.047,-4.583,-10.653,-14.022,-16.155,-6.809,-0.068,0.997,-0.042,-0.702,-0.549,0.549,73.333,808550.000,1.000
-2.381,-9.848,-4.135,-5.011,-11.387,-15.665,-18.054,-5.976,-0.070,0.999,-0.041,-0.732,-0.519,0.580,73.333,808551.000,1.000
-2.174,-10.264,-3.602,-4.362,-10.414,-15.815,-16.865,-2.235,-0.070,1.000,-0.042,-0.763,-0.336,0.458,73.333,808552.000,1.000
-1.449,-10.246,-2.576,-3.037,-8.018,-13.134,-12.188,2.749,-0.071,1.003,-0.043,-0.793,-0.244,0.610,73.333,808553.000,1.000
-0.883,-10.025,-1.883,-2.399,-5.854,-8.296,-6.665,5.276,-0.071,1.002,-0.044,-0.793,-0.275,0.488,73.333,808554.000,1.000
-0.928,-9.864,-2.352,-3.478,-5.312,-3.177,-3.180,3.107,-0.072,1.001,-0.040,-0.854,-0.214,0.549,73.333,808555.000,1.000
-1.306,-9.552,-3.913,-5.912,-6.113,0.940,-1.988,-2.250,-0.069,1.002,-0.042,-0.946,-0.122,0.641,73.333,808556.000,1.000
-1.388,-8.717,-5.708,-8.399,-6.960,3.496,-1.616,-7.205,-0.068,1.000,-0.043,-1.099,-0.092,0.610,73.333,808557.000,1.000
-0.816,-7.288,-6.762,-9.792,-6.958,4.130,-1.196,-9.371,-0.071,0.999,-0.041,-1.099,-0.092,0.702,73.333,808558.000,1.000
0.346,-5.389,-6.509,-9.604,-5.905,3.144,-0.807,-8.692,-0.072,0.998,-0.041,-1.068,0.061,0.702,73.333,808559.000,1.000
1.747,-3.227,-5.044,-7.959,-3.902,1.561,-0.415,-6.041,-0.073,0.997,-0.040,-1.129,0.031,0.732,73.333,808560.000,1.000
2.875,-1.272,-3.045,-5.511,-1.337,0.281,0.476,-2.109,-0.071,0.996,-0.042,-1.068,0.092,0.732,73.333,808561.000,1.000
3.281,-0.131,-1.439,-3.280,1.022,-0.230,2.139,2.159,-0.071,0.998,-0.042,-1.129,0.214,0.671,73.333,808562.000,1.000
2.898,0.011,-0.795,-2.096,2.491,0.519,4.391,5.376,-0.070,0.996,-0.042,-1.068,0.183,0.763,73.333,808563.000,1.000
2.124,-0.353,-1.009,-2.035,3.097,3.174,7.063,6.730,-0.071,0.995,-0.042,-1.129,0.153,0.824,73.333,808564.000,1.000
1.445,-0.567,-1.555,-2.506,3.342,7.580,9.754,6.541,-0.072,0.994,-0.044,-1.068,0.092,0.824,73.333,808565.000,1.000
0.996,-0.574,-2.074,-2.944,3.255,11.565,10.861,5.333,-0.071,0.993,-0.043,-1.007,0.244,0.977,73.333,808566.000,1.000
0.618,-0.869,-2.598,-3.202,2.275,11.956,8.312,3.113,-0.070,0.992,-0.041,-0.946,0.122,1.038,73.333,808567.000,1.000
0.336,-1.603,-3.012,-3.178,0.443,7.959,2.590,0.328,-0.069,0.992,-0.043,-0.885,0.153,1.068,73.333,808568.000,1.000
0.530,-2.184,-2.882,-2.541,-1.053,2.345,-2.776,-1.521,-0.070,0.992,-0.043,-0.763,0.214,1.068,73.333,808569.000,1.000
1.558,-1.953,-2.006,-1.188,-1.148,-1.694,-5.267,-1.391,-0.073,0.990,-0.041,-0.702,0.214,1.129,73.333,808570.000,1.000
3.425,-0.741,-0.604,0.447,0.065,-3.044,-5.620,0.021,-0.073,0.990,-0.039,-0.610,0.183,1.068,73.333,808571.000,1.000
5.874,1.428,1.160,1.899,2.063,-1.654,-5.098,1.423,-0.072,0.991,-0.041,-0.458,0.153,1.038,73.333,808572.000,1.000
8.484,4.447,3.419,3.084,4.609,2.251,-3.348,2.420,-0.073,0.990,-0.039,-0.336,0.092,0.977,73.333,808573.000,1.000
10.653,7.768,6.021,4.016,7.402,7.399,0.179,3.342,-0.076,0.990,-0.041,-0.153,0.092,0.916,73.333,808574.000,1.000
11.862,10.531,8.279,4.576,9.847,11.805,4.565,4.444,-0.073,0.992,-0.043,-0.122,0.061,0.977,73.333,808575.000,1.000
12.022,12.163,9.561,4.703,11.392,14.244,7.832,5.514,-0.071,0.994,-0.040,-0.214,0.031,0.854,73.333,808576.000,1.000
11.472,12.649,9.830,4.580,11.965,14.963,8.754,6.216,-0.072,0.996,-0.041,-0.122,0.000,0.824,73.333,808577.000,1.000
10.677,12.288,9.614,4.501,11.950,14.866,7.901,6.662,-0.071,0.996,-0.043,0.000,-0.031,0.824,73.333,808578.000,1.000
9.887,11.289,9.244,4.512,11.591,14.111,6.571,7.156,-0.074,0.997,-0.041,0.031,-0.061,0.763,73.333,808579.000,1.000
8.980,9.709,8.393,4.300,10.709,12.094,5.580,7.613,-0.073,0.999,-0.038,0.000,-0.153,0.793,73.333,808580.000,1.000
7.633,7.730,6.616,3.498,9.136,8.845,5.306,7.670,-0.075,0.998,-0.036,0.031,-0.153,0.702,73.333,808581.000,1.000
5.574,5.622,3.910,1.935,6.955,5.288,5.612,7.062,-0.072,0.997,-0.040,-0.061,-0.244,0.671,73.333,808582.000,1.000
2.732,3.505,0.762,-0.231,4.455,2.293,5.903,6.001,-0.073,0.999,-0.042,-0.092,-0.305,0.732,73.333,808583.000,1.000
-0.571,1.559,-2.096,-2.338,2.399,0.833,6.254,5.329,-0.073,0.998,-0.042,-0.122,-0.366,0.580,73.333,808584.000,1.000
-3.659,0.218,-3.981,-3.510,1.742,2.159,7.444,5.506,-0.074,0.998,-0.042,-0.092,-0.336,0.580,73.333,808585.000,1.000
-6.071,-0.495,-4.797,-3.541,2.346,5.795,8.977,5.325,-0.073,0.998,-0.039,-0.092,-0.458,0.488,73.333,808586.000,1.000
-7.971,-1.433,-5.258,-3.130,2.697,8.544,8.792,2.904,-0.072,0.997,-0.039,-0.244,-0.580,0.488,73.333,808587.000,1.000
-9.692,-3.387,-5.972,-2.899,1.670,7.483,5.860,-1.728,-0.071,0.997,-0.044,-0.183,-0.641,0.519,73.333,808588.000,1.000
-11.184,-6.018,-6.686,-2.657,-0.136,3.039,1.614,-6.078,-0.070,0.997,-0.044,-0.061,-0.702,0.580,73.333,808589.000,1.000
-12.246,-8.226,-6.748,-1.921,-1.258,-1.899,-1.545,-7.477,-0.072,0.997,-0.042,-0.061,-0.671,0.519,73.333,808590.000,1.000
-12.934,-9.205,-5.880,-0.664,-0.871,-4.844,-2.200,-5.218,-0.072,0.993,-0.042,-0.153,-0.610,0.580,73.333,808591.000,1.000
-13.456,-8.870,-4.329,0.737,0.892,-5.112,-0.517,-0.457,-0.069,0.994,-0.043,-0.031,-0.671,0.580,73.333,808592.000,1.000
-13.893,-7.663,-2.500,1.897,3.362,-3.472,1.995,4.970,-0.070,0.992,-0.046,0.061,-0.641,0.488,73.333,808593.000,1.000
-14.215,-6.377,-0.927,2.496,5.514,-1.553,2.946,9.131,-0.070,0.993,-0.045,0.000,-0.549,0.610,73.333,808594.000,1.000
-14.397,-5.914,-0.287,2.220,6.223,-1.126,0.502,10.266,-0.071,0.994,-0.045,0.122,-0.641,0.580,73.333,808595.000,1.000
-14.293,-6.630,-0.915,1.047,5.121,-2.581,-4.629,7.724,-0.068,0.995,-0.045,0.244,-0.549,0.519,73.333,808596.000,1.000
-13.553,-7.876,-2.387,-0.487,3.126,-4.274,-9.239,2.747,-0.069,0.995,-0.044,0.214,-0.458,0.397,73.333,808597.000,1.000
-12.000,-8.666,-3.890,-1.669,1.541,-4.595,-10.427,-2.340,-0.068,0.995,-0.044,0.183,-0.366,0.488,73.333,808598.000,1.000
-10.095,-8.648,-5.070,-2.275,0.793,-3.910,-8.220,-5.795,-0.069,0.997,-0.044,0.153,-0.275,0.488,73.333,808599.000,1.000
-8.696,-8.105,-6.116,-2.575,0.538,-3.301,-4.768,-7.089,-0.071,0.998,-0.042,0.305,-0.305,0.458,73.333,808600.000,1.000
-8.288,-7.286,-7.107,-2.718,0.609,-2.558,-1.618,-6.301,-0.071,0.996,-0.042,0.244,-0.305,0.458,73.333,808601.000,1.000
-8.592,-6.180,-7.747,-2.462,1.120,-0.794,0.889,-3.725,-0.070,0.995,-0.041,0.244,-0.275,0.458,73.333,808602.000,1.000
-8.947,-4.876,-7.693,-1.616,1.796,1.710,2.255,-0.234,-0.071,0.997,-0.045,0.183,-0.244,0.488,73.333,808603.000,1.000
-8.922,-3.843,-7.093,-0.516,1.857,3.472,1.855,2.633,-0.072,0.995,-0.044,0.092,-0.305,0.458,73.333,808604.000,1.000
-8.555,-3.701,-6.602,0.079,0.684,3.279,0.244,3.454,-0.071,0.997,-0.045,0.214,-0.366,0.549,73.333,808605.000,1.000
-8.076,-4.649,-6.717,-0.414,-1.573,1.264,-0.937,1.879,-0.071,0.996,-0.042,0.214,-0.336,0.458,73.333,808606.000,1.000
-7.628,-6.210,-7.325,-1.944,-4.138,-1.321,-0.779,-1.274,-0.074,0.996,-0.042,0.153,-0.275,0.458,73.333,808607.000,1.000
-7.320,-7.663,-7.938,-3.945,-6.342,-3.352,-0.296,-4.805,-0.073,0.996,-0.045,0.183,-0.336,0.519,73.333,808608.000,1.000
-7.308,-8.491,-8.161,-5.644,-7.866,-4.413,-0.872,-7.590,-0.073,0.996,-0.044,0.214,-0.488,0.427,73.333,808609.000,1.000
-7.678,-8.331,-7.705,-6.171,-8.205,-3.898,-1.507,-8.259,-0.073,0.997,-0.043,0.183,-0.427,0.458,73.333,808610.000,1.000
-8.421,-6.963,-6.371,-4.893,-6.746,-0.840,0.571,-5.671,-0.072,0.997,-0.043,0.092,-0.519,0.427,73.333,808611.000,1.000
-9.565,-4.722,-4.489,-2.077,-3.861,4.410,5.745,-0.514,-0.073,0.996,-0.046,0.153,-0.458,0.427,73.333,808612.000,1.000
-11.154,-2.584,-2.982,1.000,-1.234,9.470,10.358,4.382,-0.075,0.996,-0.047,0.031,-0.458,0.427,73.333,808613.000,1.000
-13.073,-1.572,-2.808,2.851,-0.654,11.474,9.902,5.977,-0.073,0.994,-0.048,0.061,-0.580,0.458,73.333,808614.000,1.000
-14.933,-2.136,-4.259,2.821,-2.632,8.712,2.898,3.409,-0.073,0.992,-0.046,0.153,-0.641,0.519,73.333,808615.000,1.000
-16.058,-3.914,-6.598,1.530,-5.961,1.487,-7.787,-1.208,-0.072,0.994,-0.048,0.092,-0.610,0.427,73.333,808616.000,1.000
-15.694,-5.938,-8.480,0.315,-8.505,-7.653,-16.776,-4.438,-0.070,0.994,-0.049,-0.122,-0.580,0.488,73.333,808617.000,1.000
-13.498,-7.300,-8.856,0.047,-8.808,-15.164,-20.160,-4.463,-0.073,0.993,-0.047,-0.061,-0.610,0.488,73.333,808618.000,1.000
-9.903,-7.817,-7.760,0.437,-7.248,-18.869,-18.504,-2.545,-0.074,0.994,-0.048,-0.031,-0.641,0.519,73.333,808619.000,1.000
-5.955,-7.971,-6.156,0.488,-5.576,-19.125,-15.867,-1.603,-0.072,0.994,-0.049,0.000,-0.702,0.641,73.333,808620.000,1.000
-2.650,-8.045,-4.848,-0.343,-5.047,-17.248,-15.335,-3.283,-0.071,0.995,-0.050,0.061,-0.549,0.610,73.333,808621.000,1.000
-0.402,-7.506,-3.719,-1.486,-5.015,-13.301,-15.651,-6.297,-0.068,0.996,-0.047,0.000,-0.610,0.641,73.333,808622.000,1.000
0.817,-5.686,-2.121,-1.899,-3.896,-6.838,-13.238,-7.795,-0.071,0.995,-0.047,-0.061,-0.702,0.580,73.333,808623.000,1.000
1.093,-2.861,0.087,-1.232,-1.312,0.724,-7.193,-6.317,-0.070,0.995,-0.048,-0.092,-0.641,0.641,73.333,808624.000,1.000
0.505,-0.220,2.205,-0.146,1.336,6.210,-0.764,-3.108,-0.072,0.994,-0.047,-0.183,-0.610,0.610,73.333,808625.000,1.000
-0.788,0.888,3.190,0.231,2.064,6.858,1.607,-0.933,-0.073,0.993,-0.049,-0.153,-0.519,0.732,73.333,808626.000,1.000
-2.581,-0.370,2.319,-0.962,-0.268,1.872,-2.264,-1.904,-0.072,0.996,-0.050,-0.092,-0.549,0.793,73.333,808627.000,1.000
-4.514,-3.761,-0.149,-3.644,-5.073,-6.918,-10.651,-5.907,-0.073,0.997,-0.050,-0.122,-0.519,0.793,73.333,808628.000,1.000
-5.972,-7.909,-2.950,-6.652,-10.196,-15.553,-18.845,-10.541,-0.072,0.996,-0.052,-0.122,-0.427,0.763,73.333,808629.000,1.000
-6.361,-11.022,-4.590,-8.482,-13.215,-20.113,-22.400,-12.634,-0.071,0.998,-0.049,-0.153,-0.397,0.671,73.333,808630.000,1.000
-5.580,-11.832,-4.188,-8.261,-12.823,-18.662,-19.706,-10.331,-0.070,0.997,-0.048,-0.183,-0.427,0.732,73.333,808631.000,1.000
-4.134,-9.966,-1.797,-6.085,-9.099,-11.307,-11.484,-4.181,-0.071,0.997,-0.049,-0.153,-0.336,0.702,73.333,808632.000,1.000
-2.806,-5.917,1.877,-2.723,-3.096,0.108,0.514,3.498,-0.069,0.999,-0.048,-0.183,-0.427,0.671,73.333,808633.000,1.000
-2.253,-1.038,5.684,0.687,3.251,11.640,12.864,9.837,-0.072,0.997,-0.045,-0.153,-0.366,0.580,73.333,808634.000,1.000
-2.761,2.809,8.263,2.909,7.412,18.210,20.312,12.353,-0.072,0.998,-0.045,-0.244,-0.214,0.610,73.333,808635.000,1.000
-4.146,4.157,8.627,3.142,7.502,16.491,18.695,10.009,-0.074,0.999,-0.046,-0.366,-0.153,0.580,73.333,808636.000,1.000
-5.829,2.773,6.659,1.574,3.607,7.038,8.386,4.082,-0.072,1.000,-0.047,-0.366,-0.122,0.488,73.333,808637.000,1.000
-7.068,-0.233,3.230,-0.596,-2.044,-5.832,-5.206,-2.287,-0.073,0.998,-0.047,-0.488,-0.153,0.519,73.333,808638.000,1.000
-7.358,-3.119,-0.302,-1.859,-6.280,-15.992,-14.560,-5.727,-0.074,0.997,-0.043,-0.610,-0.153,0.458,73.333,808639.000,1.000
-6.821,-4.698,-2.918,-1.464,-6.998,-18.912,-14.823,-4.504,-0.074,0.997,-0.047,-0.610,-0.275,0.427,73.333,808640.000,1.000
-6.143,-5.022,-4.463,-0.008,-4.509,-14.374,-6.897,0.450,-0.073,0.997,-0.047,-0.671,-0.275,0.427,73.333,808641.000,1.000
-6.030,-5.020,-5.532,1.019,-1.126,-6.064,3.699,6.064,-0.072,0.999,-0.050,-0.732,-0.336,0.427,73.333,808642.000,1.000
-6.710,-5.663,-6.882,0.231,0.364,0.839,10.543,8.749,-0.073,0.999,-0.047,-0.885,-0.305,0.427,73.333,808643.000,1.000
-7.837,-7.226,-8.833,-2.753,-1.562,2.556,10.133,6.463,-0.073,1.000,-0.048,-0.946,-0.366,0.488,73.333,808644.000,1.000
-8.595,-8.807,-10.761,-6.796,-5.866,-0.630,4.360,0.447,-0.074,1.000,-0.046,-1.007,-0.427,0.458,73.333,808645.000,1.000
-8.036,-8.807,-11.305,-9.751,-9.569,-4.835,-1.115,-5.399,-0.073,0.998,-0.045,-1.038,-0.427,0.519,73.333,808646.000,1.000
-5.667,-6.334,-9.547,-9.996,-10.317,-6.545,-2.080,-7.752,-0.075,1.000,-0.046,-1.129,-0.458,0.488,73.333,808647.000,1.000
-1.794,-1.906,-5.731,-7.483,-7.994,-5.085,1.340,-6.193,-0.075,0.999,-0.044,-1.251,-0.336,0.641,73.333,808648.000,1.000
2.793,3.309,-0.832,-3.284,-3.793,-1.117,6.776,-2.259,-0.074,1.000,-0.047,-1.404,-0.366,0.671,73.333,808649.000,1.000
7.354,8.398,4.218,1.498,1.302,4.958,12.614,2.763,-0.073,0.999,-0.046,-1.434,-0.397,0.763,73.333,808650.000,1.000
11.319,12.652,8.683,6.130,6.569,11.963,18.126,8.445,-0.075,0.997,-0.043,-1.495,-0.427,0.824,73.333,808651.000,1.000
13.983,15.047,11.585,9.717,10.733,16.905,21.978,14.052,-0.076,0.994,-0.046,-1.587,-0.519,0.763,73.333,808652.000,1.000
14.455,14.420,11.770,10.894,11.982,16.805,22.210,17.658,-0.075,0.993,-0.047,-1.648,-0.549,0.824,73.333,808653.000,1.000
12.339,10.552,8.817,8.692,9.371,11.593,18.105,17.094,-0.073,0.993,-0.048,-1.678,-0.458,0.977,73.333,808654.000,1.000
8.439,4.932,3.875,3.799,4.091,4.520,11.617,12.086,-0.074,0.990,-0.045,-1.434,-0.458,0.946,73.333,808655.000,1.000
4.385,-0.071,-0.894,-1.550,-1.226,-0.749,5.756,4.993,-0.075,0.990,-0.043,-1.465,-0.580,1.007,73.333,808656.000,1.000
1.478,-2.894,-3.897,-5.123,-4.615,-3.354,1.362,-1.031,-0.075,0.988,-0.041,-1.312,-0.580,1.068,73.333,808657.000,1.000
0.145,-3.349,-4.782,-5.898,-5.691,-4.949,-2.666,-4.182,-0.075,0.988,-0.044,-1.282,-0.610,1.129,73.333,808658.000,1.000
0.267,-1.836,-3.884,-3.972,-4.743,-6.626,-6.233,-4.171,-0.074,0.987,-0.044,-1.251,-0.641,1.160,73.333,808659.000,1.000
1.444,1.173,-1.715,-0.114,-2.094,-7.653,-7.576,-1.542,-0.072,0.989,-0.047,-1.007,-0.610,1.221,73.333,808660.000,1.000
2.959,4.885,0.958,4.384,1.455,-7.005,-5.941,2.208,-0.072,0.992,-0.047,-0.977,-0.641,1.190,73.333,808661.000,1.000
4.051,8.175,3.136,8.090,4.573,-4.614,-2.788,4.926,-0.071,0.995,-0.045,-0.824,-0.671,1.160,73.333,808662.000,1.000
4.442,10.201,4.281,10.254,6.375,-1.076,0.147,5.572,-0.072,0.995,-0.047,-0.854,-0.671,1.282,73.333,808663.000,1.000
4.500,10.899,4.705,11.149,7.065,2.808,2.644,5.173,-0.074,0.995,-0.045,-0.854,-0.641,1.160,73.333,808664.000,1.000
4.837,10.761,5.075,11.438,7.291,6.006,5.109,5.333,-0.074,0.998,-0.044,-0.793,-0.610,1.129,73.333,808665.000,1.000
5.811,10.323,5.770,11.441,7.316,7.576,7.050,6.470,-0.073,1.001,-0.046,-0.854,-0.519,1.129,73.333,808666.000,1.000
7.419,10.049,6.766,11.218,7.217,7.679,7.849,7.995,-0.073,1.002,-0.044,-0.916,-0.519,0.977,73.333,808667.000,1.000
9.451,10.396,7.966,10.994,7.345,7.694,8.080,9.359,-0.073,1.004,-0.047,-1.068,-0.580,0.916,73.333,808668.000,1.000
11.549,11.493,9.262,11.055,8.021,8.599,8.703,10.333,-0.069,1.002,-0.049,-1.160,-0.519,0.916,73.333,808669.000,1.000
13.352,12.906,10.494,11.405,9.147,9.740,9.766,10.832,-0.067,0.998,-0.043,-1.373,-0.458,0.946,73.333,808670.000,1.000
14.769,13.970,11.542,11.734,10.294,9.661,10.441,10.690,-0.066,0.997,-0.044,-1.373,-0.488,0.854,73.333,808671.000,1.000
15.980,14.303,12.295,11.675,11.004,7.825,9.836,9.577,-0.066,0.997,-0.042,-1.373,-0.427,0.916,73.333,808672.000,1.000
17.155,13.984,12.710,11.146,11.149,5.349,7.873,7.594,-0.067,0.995,-0.048,-1.404,-0.366,1.038,73.333,808673.000,1.000
18.224,13.259,12.785,10.358,10.902,3.958,5.353,5.487,-0.067,0.992,-0.044,-1.404,-0.214,1.221,73.333,808674.000,1.000
18.848,12.169,12.420,9.409,10.358,4.438,3.303,3.865,-0.067,0.994,-0.044,-1.343,-0.122,1.251,73.333,808675.000,1.000
18.594,10.586,11.448,8.104,9.455,6.173,2.302,2.752,-0.070,0.993,-0.042,-1.373,-0.031,1.190,73.333,808676.000,1.000
17.256,8.485,9.791,6.224,8.177,7.542,1.962,2.004,-0.072,0.994,-0.042,-1.312,0.000,1.251,73.333,808677.000,1.000
15.126,6.179,7.789,3.967,6.842,7.047,1.603,1.882,-0.070,0.995,-0.044,-1.312,-0.031,1.282,73.333,808678.000,1.000
12.899,4.354,6.220,1.989,6.221,5.000,1.664,2.892,-0.069,0.996,-0.046,-1.404,0.000,1.373,73.333,808679.000,1.000
11.080,3.596,5.655,0.804,6.914,3.578,3.335,4.823,-0.068,0.996,-0.049,-1.404,-0.031,1.495,73.333,808680.000,1.000
9.518,3.711,5.804,0.311,8.462,4.202,6.345,6.391,-0.070,0.995,-0.047,-1.373,0.061,1.495,73.333,808681.000,1.000
7.686,3.825,5.720,0.125,9.585,5.659,8.454,6.457,-0.068,0.995,-0.047,-1.373,0.000,1.617,73.333,808682.000,1.000
5.396,3.372,4.810,0.164,9.526,5.910,8.109,5.317,-0.069,0.996,-0.051,-1.404,0.000,1.678,73.333,808683.000,1.000
3.033,2.510,3.212,0.546,8.447,4.126,5.594,4.018,-0.069,0.993,-0.047,-1.404,-0.031,1.770,73.333,808684.000,1.000
1.091,1.454,1.314,1.048,6.474,-0.052,1.046,2.769,-0.070,0.991,-0.044,-1.221,0.092,1.740,73.333,808685.000,1.000
-0.187,0.227,-0.504,1.202,3.561,-6.602,-5.546,1.001,-0.074,0.992,-0.050,-1.129,0.122,1.678,73.333,808686.000,1.000
-0.728,-0.764,-1.707,0.935,0.497,-13.218,-11.870,-1.213,-0.075,0.993,-0.047,-1.007,0.031,1.556,73.333,808687.000,1.000
-0.492,-0.573,-1.614,0.782,-0.964,-15.522,-13.582,-2.643,-0.076,0.992,-0.045,-0.977,-0.061,1.465,73.333,808688.000,1.000
0.458,1.445,0.078,1.381,0.465,-10.682,-8.319,-2.006,-0.079,0.995,-0.044,-0.946,-0.214,1.373,73.333,808689.000,1.000
1.718,4.636,2.727,2.680,4.027,-0.581,1.179,0.369,-0.079,0.997,-0.042,-1.038,-0.305,1.190,73.333,808690.000,1.000
2.555,7.167,4.980,3.761,7.175,9.265,8.984,2.287,-0.079,0.998,-0.041,-1.129,-0.397,0.977,73.333,808691.000,1.000
2.515,7.524,5.832,3.709,7.764,14.231,11.126,1.730,-0.076,0.998,-0.043,-1.221,-0.549,0.885,73.333,808692.000,1.000
1.970,5.720,5.409,2.451,5.589,13.340,7.667,-1.300,-0.074,0.999,-0.042,-1.312,-0.763,0.702,73.333,808693.000,1.000
1.766,2.873,4.448,0.512,1.681,7.892,0.332,-5.371,-0.072,1.001,-0.042,-1.404,-0.793,0.641,73.333,808694.000,1.000
2.502,0.258,3.536,-1.482,-2.651,-0.082,-8.782,-8.864,-0.069,1.002,-0.041,-1.587,-0.702,0.519,73.333,808695.000,1.000
4.338,-0.938,3.234,-2.762,-5.745,-7.292,-16.109,-10.222,-0.068,1.004,-0.042,-1.678,-0.702,0.549,73.333,808696.000,1.000
7.171,0.206,4.177,-2.505,-5.930,-9.913,-17.724,-8.278,-0.066,1.004,-0.041,-1.678,-0.671,0.580,73.333,808697.000,1.000
10.681,3.734,6.630,-0.399,-2.710,-6.423,-12.585,-3.008,-0.064,1.004,-0.045,-1.831,-0.732,0.732,73.333,808698.000,1.000
14.303,8.571,10.030,2.972,2.688,1.163,-3.493,4.098,-0.062,1.004,-0.044,-1.953,-0.549,0.732,73.333,808699.000,1.000
17.305,13.055,13.132,6.285,7.896,8.884,4.925,10.276,-0.063,1.004,-0.043,-1.892,-0.488,0.793,73.333,808700.000,1.000
19.024,15.791,14.689,8.053,10.495,13.045,8.594,12.431,-0.064,1.004,-0.040,-2.014,-0.366,0.793,73.333,808701.000,1.000
19.153,16.198,14.081,7.392,9.155,11.757,5.655,8.787,-0.067,1.002,-0.040,-2.106,-0.336,0.916,73.333,808702.000,1.000
17.865,14.604,11.636,4.629,4.484,5.849,-2.460,0.379,-0.067,1.000,-0.041,-2.136,-0.336,0.977,73.333,808703.000,1.000
15.684,11.999,8.428,1.289,-1.183,-1.567,-11.734,-9.079,-0.070,0.999,-0.040,-2.075,-0.244,0.977,73.333,808704.000,1.000
13.218,9.476,5.663,-0.772,-5.267,-7.332,-18.350,-15.390,-0.070,0.994,-0.042,-2.075,-0.214,1.068,73.333,808705.000,1.000
11.021,7.716,4.162,-0.406,-6.324,-9.961,-20.493,-16.149,-0.070,0.993,-0.044,-2.136,-0.244,1.038,73.333,808706.000,1.000
9.515,6.945,4.111,2.359,-4.264,-9.212,-17.934,-11.529,-0.070,0.990,-0.042,-1.953,-0.214,1.007,73.333,808707.000,1.000
8.712,6.902,4.985,6.311,-0.374,-5.877,-12.168,-4.272,-0.069,0.989,-0.040,-1.801,-0.214,1.007,73.333,808708.000,1.000
8.056,6.809,5.683,9.506,2.900,-2.275,-6.650,1.337,-0.073,0.987,-0.036,-1.678,-0.275,0.977,73.333,808709.000,1.000
6.963,6.068,5.381,10.512,3.672,-0.444,-3.931,2.522,-0.074,0.988,-0.042,-1.648,-0.275,0.824,73.333,808710.000,1.000
5.403,4.895,4.230,9.336,2.185,0.014,-3.157,0.310,-0.073,0.989,-0.041,-1.465,-0.214,0.793,73.333,808711.000,1.000
3.620,3.604,2.704,6.817,-0.276,-0.013,-2.750,-2.290,-0.071,0.989,-0.043,-1.373,-0.244,0.732,73.333,808712.000,1.000
1.652,1.859,0.826,3.576,-3.161,-1.569,-3.357,-3.567,-0.072,0.990,-0.042,-1.099,-0.336,0.732,73.333,808713.000,1.000
-0.473,-0.680,-1.511,0.028,-6.309,-5.680,-5.671,-3.558,-0.071,0.989,-0.043,-1.038,-0.336,0.702,73.333,808714.000,1.000
-2.419,-3.623,-3.971,-3.203,-9.083,-10.903,-8.076,-2.828,-0.071,0.990,-0.040,-0.916,-0.336,0.793,73.333,808715.000,1.000
-3.800,-6.251,-5.990,-5.551,-10.893,-14.651,-8.742,-2.306,-0.071,0.991,-0.044,-0.977,-0.397,0.885,73.333,808716.000,1.000
-4.432,-8.063,-7.186,-6.806,-11.715,-15.511,-7.931,-3.056,-0.071,0.991,-0.041,-0.854,-0.366,0.885,73.333,808717.000,1.000
-4.299,-8.832,-7.361,-7.017,-11.707,-13.715,-7.055,-5.190,-0.070,0.992,-0.041,-0.732,-0.366,0.793,73.333,808718.000,1.000
-3.679,-8.774,-6.711,-6.578,-11.189,-10.802,-7.466,-7.926,-0.069,0.990,-0.045,-0.580,-0.366,0.854,73.333,808719.000,1.000
-3.249,-8.609,-5.950,-6.282,-10.886,-9.069,-10.291,-10.627,-0.069,0.990,-0.045,-0.580,-0.427,0.885,73.333,808720.000,1.000
-3.643,-8.955,-5.732,-6.744,-11.331,-9.971,-15.266,-12.834,-0.070,0.992,-0.042,-0.427,-0.427,0.946,73.333,808721.000,1.000
-4.924,-9.791,-6.168,-7.857,-12.161,-12.661,-19.694,-13.839,-0.070,0.992,-0.039,-0.427,-0.488,0.946,73.333,808722.000,1.000
-6.649,-10.726,-7.019,-9.108,-12.636,-14.790,-20.389,-13.306,-0.071,0.992,-0.038,-0.275,-0.488,1.007,73.333,808723.000,1.000
-8.263,-11.425,-8.070,-10.166,-12.515,-14.711,-16.755,-11.949,-0.070,0.995,-0.044,-0.336,-0.397,1.099,73.333,808724.000,1.000
-9.278,-11.548,-9.032,-10.953,-11.926,-12.420,-10.903,-10.704,-0.069,0.995,-0.045,-0.275,-0.427,1.129,73.333,808725.000,1.000
-9.317,-10.663,-9.401,-11.398,-10.800,-8.713,-5.213,-9.549,-0.070,0.996,-0.044,-0.305,-0.488,1.221,73.333,808726.000,1.000
-8.301,-8.592,-8.775,-11.441,-8.963,-4.203,-0.661,-7.747,-0.070,0.997,-0.040,-0.275,-0.427,1.282,73.333,808727.000,1.000
-6.611,-5.784,-7.196,-11.143,-6.689,0.509,2.780,-5.093,-0.070,0.998,-0.042,-0.336,-0.427,1.312,73.333,808728.000,1.000
-4.924,-3.217,-5.223,-10.605,-4.801,4.371,5.070,-2.377,-0.069,1.000,-0.044,-0.519,-0.458,1.404,73.333,808729.000,1.000
-3.819,-1.909,-3.681,-9.824,-4.139,6.277,5.761,-0.753,-0.070,1.000,-0.045,-0.458,-0.397,1.343,73.333,808730.000,1.000
-3.554,-2.456,-3.307,-8.803,-5.168,5.569,4.059,-1.103,-0.070,0.999,-0.043,-0.488,-0.427,1.343,73.333,808731.000,1.000
-4.128,-4.800,-4.463,-7.744,-7.853,2.243,-0.551,-3.644,-0.069,0.999,-0.042,-0.671,-0.458,1.343,73.333,808732.000,1.000
-5.475,-8.220,-6.929,-7.033,-11.560,-2.799,-7.173,-7.662,-0.068,1.000,-0.041,-0.732,-0.549,1.373,73.333,808733.000,1.000
-7.529,-11.676,-10.069,-7.049,-15.279,-7.980,-13.556,-11.802,-0.068,1.002,-0.044,-0.854,-0.610,1.404,73.333,808734.000,1.000
-10.050,-14.188,-13.129,-7.858,-18.006,-11.729,-17.336,-14.747,-0.067,1.001,-0.046,-0.854,-0.641,1.282,73.333,808735.000,1.000
-12.503,-15.105,-15.392,-9.091,-19.024,-13.055,-17.076,-15.773,-0.069,1.001,-0.045,-1.038,-0.641,1.190,73.333,808736.000,1.000
-14.235,-14.290,-16.358,-10.181,-18.065,-11.650,-12.553,-14.911,-0.070,1.002,-0.042,-1.068,-0.732,1.129,73.333,808737.000,1.000
-14.736,-12.093,-15.803,-10.599,-15.318,-7.687,-4.625,-12.561,-0.070,1.001,-0.042,-1.251,-0.702,1.068,73.333,808738.000,1.000
-13.811,-9.252,-13.847,-10.041,-11.520,-2.200,4.444,-9.277,-0.069,1.000,-0.039,-1.251,-0.824,1.007,73.333,808739.000,1.000
-11.731,-6.769,-11.093,-8.756,-8.058,2.459,10.928,-6.170,-0.070,1.001,-0.041,-1.343,-0.793,0.977,73.333,808740.000,1.000
-9.203,-5.551,-8.518,-7.557,-6.514,3.477,11.199,-4.866,-0.068,0.999,-0.042,-1.373,-0.732,0.885,73.333,808741.000,1.000
-6.965,-5.860,-6.963,-7.176,-7.603,-0.389,4.359,-6.308,-0.069,0.994,-0.042,-1.465,-0.824,0.793,73.333,808742.000,1.000
-5.308,-7.045,-6.506,-7.559,-10.385,-7.297,-6.325,-9.654,-0.068,0.990,-0.042,-1.465,-0.763,0.641,73.333,808743.000,1.000
-4.003,-7.974,-6.443,-7.856,-12.678,-13.216,-15.109,-12.498,-0.067,0.989,-0.039,-1.434,-0.793,0.610,73.333,808744.000,1.000
-2.747,-7.873,-5.993,-7.158,-12.581,-14.798,-17.636,-12.412,-0.065,0.990,-0.040,-1.343,-0.824,0.580,73.333,808745.000,1.000
-1.689,-6.899,-5.088,-5.425,-9.975,-11.604,-13.922,-9.023,-0.065,0.991,-0.044,-1.221,-0.671,0.610,73.333,808746.000,1.000
-1.395,-6.054,-4.564,-3.725,-6.785,-6.469,-8.295,-4.767,-0.065,0.995,-0.046,-1.129,-0.702,0.732,73.333,808747.000,1.000
-2.238,-6.428,-5.398,-3.412,-5.536,-3.665,-6.009,-2.961,-0.064,0.995,-0.044,-1.099,-0.763,0.671,73.333,808748.000,1.000
-3.867,-8.176,-7.698,-4.967,-7.162,-5.283,-8.834,-4.843,-0.064,0.995,-0.045,-1.007,-0.763,0.702,73.333,808749.000,1.000
-5.291,-10.190,-10.370,-7.538,-10.084,-9.119,-13.413,-8.443,-0.065,0.996,-0.045,-1.007,-0.641,0.824,73.333,808750.000,1.000
-5.552,-10.994,-11.890,-9.599,-11.591,-10.928,-14.288,-10.305,-0.066,0.994,-0.045,-0.977,-0.610,0.885,73.333,808751.000,1.000
-4.449,-10.049,-11.615,-10.158,-10.333,-8.722,-9.155,-8.652,-0.064,0.992,-0.043,-0.946,-0.549,0.977,73.333,808752.000,1.000
-2.623,-8.041,-10.159,-9.302,-7.306,-4.190,-0.828,-4.921,-0.067,0.991,-0.043,-0.885,-0.549,1.007,73.333,808753.000,1.000
-0.895,-5.929,-8.525,-7.649,-4.399,-0.062,6.072,-2.019,-0.073,0.989,-0.042,-0.793,-0.549,1.007,73.333,808754.000,1.000
0.345,-4.028,-7.131,-5.642,-2.615,2.625,9.134,-1.650,-0.076,0.990,-0.042,-0.824,-0.732,0.977,73.333,808755.000,1.000
1.136,-2.184,-5.766,-3.508,-1.881,4.342,8.714,-3.437,-0.079,0.993,-0.040,-0.732,-0.793,0.854,73.333,808756.000,1.000
1.706,-0.330,-4.106,-1.436,-1.650,5.739,6.520,-5.656,-0.078,0.994,-0.042,-0.885,-0.977,0.732,73.333,808757.000,1.000
2.354,1.473,-1.931,0.497,-1.201,7.413,4.665,-6.385,-0.074,0.994,-0.044,-0.732,-1.007,0.580,73.333,808758.000,1.000
3.249,3.058,0.690,2.244,-0.078,9.547,4.668,-4.726,-0.075,0.995,-0.042,-0.854,-1.190,0.549,73.333,808759.000,1.000
4.195,3.933,3.122,3.496,1.301,10.798,6.316,-1.449,-0.074,0.997,-0.045,-0.946,-1.312,0.397,73.333,808760.000,1.000
4.833,3.626,4.551,3.883,2.049,9.129,8.252,1.802,-0.073,0.997,-0.043,-1.038,-1.434,0.275,73.333,808761.000,1.000
5.147,2.461,4.792,3.546,1.922,4.439,9.445,3.935,-0.070,0.997,-0.043,-1.068,-1.434,0.183,73.333,808762.000,1.000
5.443,1.327,4.368,3.026,1.256,-1.418,8.895,4.639,-0.068,0.996,-0.042,-1.251,-1.465,0.244,73.333,808763.000,1.000
5.851,0.643,3.768,2.506,0.000,-7.159,5.036,3.569,-0.069,0.997,-0.045,-1.221,-1.556,0.305,73.333,808764.000,1.000
6.211,0.205,3.211,1.704,-2.070,-12.412,-2.240,0.472,-0.068,0.996,-0.046,-1.160,-1.526,0.336,73.333,808765.000,1.000
6.486,0.059,3.199,0.672,-4.093,-15.669,-9.283,-3.538,-0.068,0.999,-0.049,-1.099,-1.495,0.336,73.333,808766.000,1.000
6.951,0.787,4.511,0.082,-4.240,-14.472,-10.746,-6.078,-0.068,0.996,-0.050,-1.160,-1.434,0.336,73.333,808767.000,1.000
7.762,2.623,7.269,0.344,-1.703,-8.650,-5.067,-5.803,-0.066,0.997,-0.047,-1.068,-1.495,0.458,73.333,808768.000,1.000
8.593,4.837,10.431,0.996,2.220,-1.568,3.521,-3.689,-0.066,0.998,-0.046,-0.977,-1.434,0.366,73.333,808769.000,1.000
8.957,6.512,12.686,1.470,5.697,3.336,9.945,-1.315,-0.065,0.998,-0.043,-1.099,-1.343,0.458,73.333,808770.000,1.000
8.701,7.494,13.573,1.944,8.220,5.838,13.351,1.124,-0.067,0.997,-0.043,-1.068,-1.312,0.488,73.333,808771.000,1.000
7.955,8.106,13.366,2.975,10.282,7.559,15.670,4.466,-0.067,0.996,-0.044,-1.038,-1.343,0.641,73.333,808772.000,1.000
6.808,8.411,12.434,4.613,12.063,9.166,17.808,8.907,-0.068,1.000,-0.044,-1.129,-1.251,0.732,73.333,808773.000,1.000
5.342,8.246,11.023,6.232,13.127,10.135,19.114,13.099,-0.068,0.998,-0.049,-1.129,-1.221,0.702,73.333,808774.000,1.000
3.793,7.568,9.329,7.036,12.929,9.886,18.760,14.896,-0.068,0.999,-0.046,-1.007,-1.221,0.824,73.333,808775.000,1.000
2.449,6.510,7.527,6.598,11.263,8.425,16.430,12.900,-0.069,1.000,-0.045,-1.160,-1.251,0.793,73.333,808776.000,1.000
1.419,5.359,5.757,5.171,8.593,6.605,12.786,7.671,-0.070,1.000,-0.046,-1.221,-1.221,0.763,73.333,808777.000,1.000
0.557,4.470,4.218,3.630,6.054,5.619,9.687,1.809,-0.072,0.999,-0.042,-1.312,-1.190,0.793,73.333,808778.000,1.000
-0.463,3.995,3.078,2.880,4.800,5.945,9.055,-1.505,-0.070,0.999,-0.041,-1.343,-1.282,0.854,73.333,808779.000,1.000
-1.915,3.817,2.403,3.288,5.322,7.274,11.424,-0.503,-0.069,1.000,-0.044,-1.312,-1.282,0.763,73.333,808780.000,1.000
-3.725,3.830,2.270,4.682,7.364,9.436,15.800,4.191,-0.069,1.001,-0.043,-1.434,-1.312,0.793,73.333,808781.000,1.000
-5.411,4.116,2.801,6.645,10.218,12.521,20.462,10.183,-0.070,0.997,-0.043,-1.465,-1.312,0.916,73.333,808782.000,1.000
-6.505,4.610,3.895,8.541,12.778,15.530,23.304,14.586,-0.069,0.996,-0.044,-1.404,-1.343,0.916,73.333,808783.000,1.000
-7.093,4.664,4.843,9.378,13.478,15.632,21.875,14.902,-0.071,0.994,-0.044,-1.465,-1.282,0.946,73.333,808784.000,1.000
-7.673,3.523,4.702,8.348,11.189,10.400,14.902,10.050,-0.070,0.991,-0.046,-1.465,-1.160,0.763,73.333,808785.000,1.000
-8.400,1.337,3.320,5.765,6.575,0.773,4.287,1.635,-0.072,0.991,-0.043,-1.434,-1.160,0.824,73.333,808786.000,1.000
-8.777,-0.754,1.609,3.013,1.931,-9.191,-5.493,-6.484,-0.071,0.991,-0.042,-1.221,-1.160,0.763,73.333,808787.000,1.000
-8.179,-1.456,0.837,1.485,-0.373,-14.865,-9.904,-10.632,-0.072,0.991,-0.041,-1.129,-1.190,0.763,73.333,808788.000,1.000
-6.367,-0.036,1.855,1.817,0.921,-13.035,-6.358,-9.321,-0.071,0.993,-0.041,-1.068,-1.251,0.732,73.333,808789.000,1.000
-3.508,3.368,4.804,3.835,5.602,-3.392,4.494,-3.438,-0.071,0.992,-0.040,-1.038,-1.221,0.641,73.333,808790.000,1.000
-0.055,7.704,9.110,6.687,11.996,10.634,18.341,4.411,-0.071,0.992,-0.040,-1.038,-1.221,0.641,73.333,808791.000,1.000
3.301,11.364,13.555,9.086,17.491,23.096,28.833,10.869,-0.069,0.992,-0.043,-1.007,-1.221,0.580,73.333,808792.000,1.000
5.831,12.953,16.712,9.921,19.788,28.673,30.971,13.441,-0.072,0.992,-0.042,-0.854,-1.221,0.580,73.333,808793.000,1.000
7.185,12.097,17.674,8.941,18.236,25.807,24.107,11.864,-0.070,0.994,-0.039,-0.885,-1.160,0.702,73.333,808794.000,1.000
7.629,9.665,16.503,6.897,14.099,17.423,12.182,7.911,-0.070,0.995,-0.039,-0.793,-1.221,0.671,73.333,808795.000,1.000
7.694,7.004,13.902,4.802,9.388,8.313,0.856,3.741,-0.069,0.997,-0.040,-0.763,-1.282,0.763,73.333,808796.000,1.000
7.606,5.028,10.562,3.049,5.513,1.959,-5.870,0.459,-0.069,0.996,-0.044,-0.824,-1.190,0.885,73.333,808797.000,1.000
7.305,4.124,7.147,1.446,3.144,-0.227,-6.756,-1.610,-0.068,0.996,-0.040,-0.793,-1.221,0.793,73.333,808798.000,1.000
6.883,4.515,4.543,-0.088,2.724,1.838,-2.531,-1.909,-0.069,0.998,-0.044,-0.854,-1.251,0.854,73.333,808799.000,1.000
6.571,6.083,3.468,-1.340,4.192,6.887,4.475,-0.016,-0.068,0.999,-0.042,-0.885,-1.282,0.854,73.333,808800.000,1.000
6.299,7.988,3.787,-2.154,6.397,12.101,10.488,3.166,-0.069,0.999,-0.045,-0.854,-1.373,0.824,73.333,808801.000,1.000
5.716,9.067,4.590,-2.437,7.770,14.667,12.426,5.761,-0.071,0.999,-0.043,-0.885,-1.373,0.824,73.333,808802.000,1.000
4.702,8.741,5.096,-1.916,7.708,13.922,10.331,6.550,-0.072,0.998,-0.044,-0.946,-1.343,0.824,73.333,808803.000,1.000
3.604,7.309,5.193,-0.308,6.768,11.214,6.518,5.728,-0.073,0.997,-0.044,-0.977,-1.251,0.885,73.333,808804.000,1.000
2.945,5.498,5.181,2.214,5.724,7.865,2.837,4.293,-0.071,0.998,-0.040,-1.038,-1.221,0.824,73.333,808805.000,1.000
2.955,3.824,5.269,4.818,4.769,3.936,-0.601,2.994,-0.069,0.999,-0.042,-1.099,-1.221,0.854,73.333,808806.000,1.000
3.351,2.398,5.354,6.385,3.633,-0.837,-4.457,1.808,-0.069,0.998,-0.045,-1.129,-1.282,0.854,73.333,808807.000,1.000
3.669,1.367,5.384,6.423,2.482,-5.188,-7.995,0.690,-0.067,0.994,-0.044,-1.099,-1.404,0.763,73.333,808808.000,1.000
3.747,1.190,5.641,5.589,2.325,-6.335,-8.560,0.456,-0.069,0.996,-0.045,-1.099,-1.312,0.702,73.333,808809.000,1.000
3.760,2.162,6.428,5.050,4.048,-2.425,-4.180,2.076,-0.068,0.997,-0.045,-1.190,-1.251,0.702,73.333,808810.000,1.000
3.895,3.822,7.577,5.369,7.134,4.960,3.607,5.266,-0.067,0.998,-0.041,-1.160,-1.190,0.671,73.333,808811.000,1.000
4.145,5.082,8.386,6.209,9.836,11.191,10.415,8.632,-0.068,0.998,-0.040,-1.221,-1.160,0.641,73.333,808812.000,1.000
4.378,5.178,8.306,7.053,10.860,12.489,12.942,11.356,-0.069,0.999,-0.039,-1.221,-1.251,0.671,73.333,808813.000,1.000
4.527,4.350,7.477,7.809,10.475,9.314,11.658,13.738,-0.069,0.997,-0.039,-1.404,-1.221,0.641,73.333,808814.000,1.000
4.606,3.409,6.424,8.519,9.732,5.146,9.154,15.878,-0.068,0.996,-0.040,-1.312,-1.160,0.641,73.333,808815.000,1.000
4.563,2.867,5.471,8.906,9.182,2.670,6.978,16.986,-0.066,0.995,-0.040,-1.373,-1.190,0.702,73.333,808816.000,1.000
4.219,2.630,4.558,8.427,8.545,1.956,4.690,15.970,-0.066,0.995,-0.040,-1.434,-1.068,0.549,73.333,808817.000,1.000
3.347,2.259,3.390,6.544,7.062,1.452,0.878,11.813,-0.067,0.995,-0.039,-1.404,-1.129,0.580,73.333,808818.000,1.000
1.858,1.396,1.716,3.112,4.219,-0.149,-5.161,4.370,-0.066,0.996,-0.042,-1.465,-0.916,0.610,73.333,808819.000,1.000
-0.010,0.203,-0.309,-1.188,0.626,-2.517,-12.011,-4.339,-0.066,0.996,-0.039,-1.343,-0.946,0.671,73.333,808820.000,1.000
-1.793,-0.688,-2.113,-5.052,-2.140,-3.841,-16.700,-10.812,-0.065,0.993,-0.043,-1.251,-1.007,0.610,73.333,808821.000,1.000
-3.216,-0.810,-3.252,-7.382,-2.856,-2.641,-16.949,-12.590,-0.067,0.994,-0.043,-1.312,-0.854,0.641,73.333,808822.000,1.000
-4.411,-0.290,-3.769,-7.748,-1.416,1.069,-12.202,-9.484,-0.066,0.994,-0.042,-1.221,-0.824,0.641,73.333,808823.000,1.000
-5.732,0.369,-4.066,-6.262,1.499,6.236,-3.373,-2.854,-0.068,0.995,-0.042,-1.251,-0.793,0.610,73.333,808824.000,1.000
-7.477,0.572,-4.670,-3.560,4.668,10.917,6.717,4.992,-0.068,0.998,-0.041,-1.160,-0.793,0.610,73.333,808825.000,1.000
-9.616,-0.132,-5.892,-0.765,6.521,12.695,13.723,11.058,-0.068,0.999,-0.039,-1.251,-0.793,0.549,73.333,808826.000,1.000
-11.592,-1.649,-7.446,1.128,6.106,10.488,14.406,12.980,-0.068,0.999,-0.040,-1.190,-0.671,0.549,73.333,808827.000,1.000
-12.535,-3.266,-8.449,1.905,3.869,5.364,8.888,10.692,-0.068,0.999,-0.040,-1.282,-0.732,0.580,73.333,808828.000,1.000
-11.887,-4.109,-7.968,2.128,1.360,-0.306,0.596,6.533,-0.066,1.000,-0.041,-1.373,-0.671,0.641,73.333,808829.000,1.000
-9.773,-3.630,-5.607,2.606,0.257,-3.950,-5.699,3.552,-0.065,0.998,-0.038,-1.343,-0.763,0.671,73.333,808830.000,1.000
-6.873,-1.947,-1.822,3.689,1.191,-4.266,-6.922,3.297,-0.066,0.999,-0.042,-1.282,-0.793,0.671,73.333,808831.000,1.000
-4.013,0.131,2.157,4.970,3.305,-2.126,-3.574,5.068,-0.067,0.999,-0.042,-1.251,-0.763,0.702,73.333,808832.000,1.000
-1.714,1.648,5.043,5.748,5.109,0.440,1.335,7.104,-0.066,0.998,-0.041,-1.251,-0.824,0.763,73.333,808833.000,1.000
0.031,2.184,6.243,5.682,5.648,2.107,4.833,7.939,-0.067,0.998,-0.041,-1.343,-0.641,0.732,73.333,808834.000,1.000
1.563,2.094,6.051,5.013,5.032,3.125,5.871,7.118,-0.070,0.997,-0.040,-1.312,-0.702,0.885,73.333,808835.000,1.000
3.127,2.086,5.261,4.327,4.141,4.514,5.437,5.429,-0.071,0.996,-0.036,-1.282,-0.671,0.916,73.333,808836.000,1.000
4.539,2.486,4.493,4.004,3.687,6.384,5.015,4.138,-0.068,0.995,-0.037,-1.404,-0.702,0.916,73.333,808837.000,1.000
5.269,2.964,3.862,3.869,3.599,7.511,5.358,3.865,-0.068,0.995,-0.034,-1.373,-0.763,0.885,73.333,808838.000,1.000
4.873,3.001,3.141,3.498,3.400,6.688,6.508,4.419,-0.068,0.993,-0.038,-1.373,-0.824,0.977,73.333,808839.000,1.000
3.339,2.395,2.033,2.679,2.751,3.878,7.714,5.230,-0.070,0.996,-0.037,-1.434,-0.793,0.946,73.333,808840.000,1.000
1.096,1.384,0.371,1.553,1.579,0.262,7.400,5.554,-0.071,0.995,-0.040,-1.373,-0.793,1.007,73.333,808841.000,1.000
-1.077,0.615,-1.667,0.463,0.177,-2.020,4.581,4.637,-0.072,0.995,-0.040,-1.465,-0.885,0.977,73.333,808842.000,1.000
-2.369,0.764,-3.600,-0.397,-1.019,-1.200,-0.092,1.981,-0.072,0.996,-0.035,-1.373,-0.946,0.916,73.333,808843.000,1.000
-2.488,1.802,-5.171,-1.266,-2.087,2.022,-5.352,-2.434,-0.072,0.995,-0.036,-1.282,-0.946,0.916,73.333,808844.000,1.000
-1.788,2.967,-6.502,-2.428,-3.452,4.920,-9.869,-7.676,-0.072,0.995,-0.038,-1.282,-1.190,0.916,73.333,808845.000,1.000
-0.796,3.517,-7.587,-3.564,-5.027,5.181,-12.151,-11.704,-0.071,0.995,-0.037,-1.343,-1.099,0.885,73.333,808846.000,1.000
0.150,3.102,-8.161,-3.960,-6.295,1.961,-11.919,-12.604,-0.072,0.993,-0.040,-1.373,-1.190,0.824,73.333,808847.000,1.000
0.975,1.774,-7.962,-3.243,-6.944,-4.146,-10.841,-10.160,-0.070,0.991,-0.041,-1.282,-1.221,0.824,73.333,808848.000,1.000
1.818,-0.023,-6.893,-1.697,-7.076,-11.328,-11.138,-6.065,-0.072,0.991,-0.039,-1.190,-1.343,0.793,73.333,808849.000,1.000
2.801,-1.661,-5.106,-0.036,-7.055,-17.452,-13.978,-2.697,-0.068,0.992,-0.040,-1.129,-1.404,0.854,73.333,808850.000,1.000
3.919,-2.467,-2.799,1.258,-6.880,-20.481,-18.020,-1.163,-0.069,0.991,-0.040,-0.946,-1.495,0.824,73.333,808851.000,1.000
5.253,-1.679,0.122,2.535,-5.551,-18.143,-18.938,-0.221,-0.070,0.994,-0.040,-0.824,-1.556,0.854,73.333,808852.000,1.000
6.954,1.120,3.903,4.587,-1.872,-9.136,-12.572,2.187,-0.072,0.995,-0.042,-0.793,-1.648,0.824,73.333,808853.000,1.000
8.822,5.151,8.206,7.513,3.740,4.214,0.138,6.286,-0.071,0.997,-0.036,-0.702,-1.556,0.763,73.333,808854.000,1.000
10.180,8.427,11.827,10.277,8.885,15.685,12.632,10.050,-0.071,0.995,-0.038,-0.732,-1.648,0.610,73.333,808855.000,1.000
10.339,9.041,13.421,11.515,10.999,19.152,18.007,11.244,-0.072,0.995,-0.036,-0.732,-1.770,0.671,73.333,808856.000,1.000
9.141,6.563,12.497,10.617,9.365,13.379,14.511,9.388,-0.070,0.996,-0.036,-0.732,-1.831,0.671,73.333,808857.000,1.000
7.139,2.397,9.858,8.125,5.522,3.023,6.274,5.966,-0.069,0.995,-0.040,-0.763,-1.770,0.671,73.333,808858.000,1.000
5.319,-1.138,7.073,5.265,2.031,-4.901,-0.515,3.158,-0.068,0.995,-0.038,-0.732,-1.831,0.763,73.333,808859.000,1.000
4.397,-2.511,5.284,2.964,0.549,-6.195,-2.518,2.126,-0.070,0.997,-0.040,-0.641,-1.923,0.641,73.333,808860.000,1.000
4.222,-2.105,4.355,1.155,0.673,-2.122,-1.052,2.127,-0.071,0.995,-0.039,-0.610,-1.953,0.610,73.333,808861.000,1.000
3.990,-1.509,3.226,-0.863,0.832,2.925,0.834,1.505,-0.069,0.997,-0.039,-0.519,-1.923,0.519,73.333,808862.000,1.000
2.974,-1.911,1.022,-3.492,-0.005,5.585,1.629,-0.509,-0.071,0.999,-0.036,-0.580,-2.014,0.519,73.333,808863.000,1.000
0.955,-3.441,-2.347,-6.529,-1.909,4.757,0.838,-3.357,-0.069,0.997,-0.036,-0.702,-2.106,0.488,73.333,808864.000,1.000
-1.744,-5.415,-6.216,-9.447,-4.396,0.841,-1.945,-5.896,-0.070,0.996,-0.041,-0.641,-2.136,0.580,73.333,808865.000,1.000
-4.401,-6.689,-9.456,-11.608,-6.481,-4.285,-5.745,-6.809,-0.070,0.995,-0.042,-0.458,-2.167,0.641,73.333,808866.000,1.000
-6.281,-6.204,-11.126,-12.513,-7.051,-7.753,-8.253,-5.135,-0.070,0.997,-0.040,-0.397,-2.167,0.488,73.333,808867.000,1.000
-7.173,-3.823,-11.159,-12.242,-5.928,-7.690,-8.279,-1.428,-0.068,0.995,-0.040,-0.427,-2.228,0.549,73.333,808868.000,1.000
-7.549,-0.682,-10.432,-11.473,-4.291,-4.748,-6.913,2.052,-0.068,0.993,-0.039,-0.488,-2.258,0.458,73.333,808869.000,1.000
-8.123,1.519,-10.022,-10.806,-3.651,-1.362,-5.875,3.135,-0.070,0.997,-0.041,-0.488,-2.167,0.458,73.333,808870.000,1.000
-9.327,1.638,-10.416,-10.233,-4.613,0.246,-5.868,1.525,-0.069,0.996,-0.041,-0.366,-2.197,0.397,73.333,808871.000,1.000
-11.079,-0.360,-11.398,-9.291,-6.665,-0.837,-6.664,-1.303,-0.068,0.998,-0.042,-0.519,-2.228,0.397,73.333,808872.000,1.000
-12.791,-3.554,-12.366,-7.542,-8.710,-4.144,-7.618,-3.461,-0.070,0.999,-0.042,-0.458,-2.258,0.427,73.333,808873.000,1.000
-13.587,-6.526,-12.634,-4.904,-9.706,-8.061,-8.014,-3.890,-0.072,0.999,-0.042,-0.458,-2.258,0.397,73.333,808874.000,1.000
-12.720,-7.885,-11.603,-1.699,-9.050,-10.384,-7.369,-2.698,-0.072,0.998,-0.042,-0.549,-2.350,0.336,73.333,808875.000,1.000
-10.003,-6.846,-9.000,1.518,-6.707,-9.352,-5.446,-0.720,-0.068,0.997,-0.042,-0.549,-2.258,0.214,73.333,808876.000,1.000
-6.047,-3.814,-5.249,4.141,-3.316,-4.951,-2.432,1.128,-0.068,0.997,-0.044,-0.519,-2.258,0.183,73.333,808877.000,1.000
-2.100,-0.403,-1.481,5.683,-0.120,0.484,0.655,2.306,-0.069,1.000,-0.042,-0.580,-2.228,0.244,73.333,808878.000,1.000
0.546,1.532,1.033,5.897,1.604,3.692,2.443,2.750,-0.069,0.999,-0.038,-0.580,-2.167,0.244,73.333,808879.000,1.000
1.267,1.223,1.687,4.886,1.463,3.384,2.761,2.753,-0.071,0.997,-0.041,-0.488,-2.167,0.244,73.333,808880.000,1.000
0.358,-0.584,0.914,3.120,0.255,1.438,3.160,2.805,-0.068,0.999,-0.038,-0.641,-2.167,0.275,73.333,808881.000,1.000
-1.441,-2.500,-0.343,1.185,-0.864,0.657,4.947,3.259,-0.068,1.000,-0.040,-0.610,-2.167,0.305,73.333,808882.000,1.000
-3.583,-3.668,-1.424,-0.552,-1.393,1.834,7.312,3.998,-0.067,0.999,-0.038,-0.763,-2.045,0.427,73.333,808883.000,1.000
-5.900,-4.079,-2.225,-2.009,-1.495,3.681,8.280,4.633,-0.067,0.998,-0.040,-0.824,-1.953,0.336,73.333,808884.000,1.000
-8.344,-4.062,-2.927,-3.189,-1.368,5.070,7.025,4.936,-0.065,0.997,-0.040,-0.854,-1.953,0.366,73.333,808885.000,1.000
-10.724,-3.956,-3.751,-4.196,-1.302,5.626,4.019,4.490,-0.067,0.997,-0.042,-0.702,-1.862,0.366,73.333,808886.000,1.000
-12.695,-4.185,-4.982,-5.391,-2.116,4.242,-0.624,2.435,-0.065,0.996,-0.042,-0.671,-1.831,0.458,73.333,808887.000,1.000
-13.829,-4.910,-6.667,-7.027,-4.371,-0.230,-6.592,-1.215,-0.067,0.995,-0.043,-0.793,-1.770,0.397,73.333,808888.000,1.000
-13.718,-5.626,-8.250,-8.714,-7.239,-6.615,-11.651,-4.649,-0.068,0.995,-0.038,-0.732,-1.770,0.488,73.333,808889.000,1.000
-12.255,-5.562,-8.915,-9.655,-9.080,-11.796,-13.167,-5.849,-0.069,0.995,-0.037,-0.793,-1.709,0.458,73.333,808890.000,1.000
-9.877,-4.438,-8.296,-9.327,-8.980,-13.337,-11.198,-4.531,-0.072,0.996,-0.038,-0.732,-1.709,0.397,73.333,808891.000,1.000
-7.414,-2.702,-6.746,-7.731,-7.325,-11.251,-8.410,-1.950,-0.071,0.997,-0.040,-0.763,-1.801,0.336,73.333,808892.000,1.000
-5.557,-1.088,-4.938,-5.137,-5.089,-7.411,-6.878,0.567,-0.071,0.996,-0.041,-0.702,-1.801,0.336,73.333,808893.000,1.000
-4.474,-0.027,-3.360,-1.890,-2.971,-3.571,-6.193,2.330,-0.071,0.994,-0.041,-0.610,-1.862,0.275,73.333,808894.000,1.000
-3.966,0.436,-2.259,1.510,-1.293,-0.552,-5.032,3.065,-0.073,0.993,-0.039,-0.641,-1.770,0.244,73.333,808895.000,1.000
-3.764,0.464,-1.671,4.520,-0.150,1.372,-3.073,2.836,-0.073,0.993,-0.041,-0.641,-1.617,0.214,73.333,808896.000,1.000
-3.571,0.428,-1.283,7.005,0.830,2.575,-0.573,2.460,-0.071,0.993,-0.039,-0.580,-1.740,0.214,73.333,808897.000,1.000
-3.078,0.716,-0.525,9.320,2.350,3.773,2.371,3.409,-0.071,0.993,-0.041,-0.610,-1.770,0.305,73.333,808898.000,1.000
-2.223,1.223,0.830,11.658,4.497,4.750,5.113,6.394,-0.073,0.992,-0.042,-0.549,-1.831,0.244,73.333,808899.000,1.000
-1.320,1.358,2.316,13.513,6.336,4.581,6.539,10.131,-0.074,0.994,-0.045,-0.549,-1.801,0.214,73.333,808900.000,1.000
-0.755,0.831,3.293,14.069,6.915,3.608,6.574,12.221,-0.072,0.993,-0.040,-0.458,-1.892,0.305,73.333,808901.000,1.000
-0.583,0.008,3.559,12.984,6.182,3.527,6.165,11.260,-0.071,0.993,-0.041,-0.488,-1.862,0.427,73.333,808902.000,1.000
-0.546,-0.714,3.300,10.643,4.615,4.939,5.467,7.696,-0.072,0.993,-0.041,-0.397,-1.923,0.427,73.333,808903.000,1.000
-0.390,-1.444,2.718,7.814,2.598,6.436,3.744,3.011,-0.071,0.992,-0.039,-0.397,-2.045,0.366,73.333,808904.000,1.000
-0.040,-2.484,1.955,5.320,0.570,6.421,1.430,-1.108,-0.071,0.993,-0.039,-0.580,-2.014,0.366,73.333,808905.000,1.000
0.435,-3.826,1.229,3.836,-0.750,4.653,0.584,-3.113,-0.072,0.995,-0.041,-0.519,-1.984,0.427,73.333,808906.000,1.000
0.835,-5.195,0.650,3.539,-0.942,1.796,2.164,-2.451,-0.073,0.997,-0.040,-0.397,-2.014,0.397,73.333,808907.000,1.000
0.790,-6.434,-0.062,3.741,-0.587,-1.727,4.082,-0.381,-0.071,0.997,-0.042,-0.397,-2.075,0.488,73.333,808908.000,1.000
0.020,-7.426,-1.298,3.319,-0.712,-5.663,3.490,1.063,-0.070,0.997,-0.042,-0.458,-2.045,0.519,73.333,808909.000,1.000
-1.231,-7.760,-2.896,1.712,-1.642,-9.310,-0.224,0.985,-0.072,0.998,-0.040,-0.549,-2.075,0.580,73.333,808910.000,1.000
-2.292,-7.035,-4.142,-0.773,-2.976,-11.991,-5.714,-0.176,-0.072,0.998,-0.043,-0.641,-1.892,0.549,73.333,808911.000,1.000
-2.615,-5.310,-4.487,-3.454,-4.181,-13.319,-10.965,-1.713,-0.071,0.999,-0.039,-0.671,-2.045,0.641,73.333,808912.000,1.000
-2.101,-2.962,-3.937,-5.653,-4.648,-12.450,-13.486,-2.967,-0.070,1.001,-0.041,-0.732,-2.014,0.549,73.333,808913.000,1.000
-1.117,-0.476,-2.957,-6.832,-3.841,-8.493,-11.307,-3.132,-0.071,1.002,-0.041,-0.854,-1.953,0.610,73.333,808914.000,1.000
-0.330,1.385,-2.291,-6.778,-1.922,-2.115,-4.788,-1.660,-0.071,1.001,-0.040,-0.946,-1.953,0.671,73.333,808915.000,1.000
-0.324,1.748,-2.603,-5.720,0.139,4.431,3.385,1.144,-0.071,1.001,-0.040,-1.129,-2.014,0.671,73.333,808916.000,1.000
-1.203,0.289,-4.061,-4.196,1.251,9.055,10.018,4.146,-0.072,1.002,-0.040,-1.099,-1.984,0.763,73.333,808917.000,1.000
-2.594,-2.499,-6.307,-2.795,0.756,10.604,12.843,5.895,-0.072,1.000,-0.041,-1.099,-1.953,0.763,73.333,808918.000,1.000
-4.040,-5.833,-8.851,-2.002,-1.501,8.406,10.979,5.287,-0.073,0.998,-0.042,-1.129,-1.923,0.763,73.333,808919.000,1.000
-5.363,-9.227,-11.447,-2.162,-5.265,2.370,4.809,2.014,-0.073,0.998,-0.040,-1.190,-1.923,0.763,73.333,808920.000,1.000
-6.693,-12.501,-14.016,-3.370,-9.862,-6.294,-4.206,-3.292,-0.071,0.998,-0.041,-1.282,-1.892,0.763,73.333,808921.000,1.000
-8.052,-15.236,-16.155,-5.140,-13.944,-14.464,-13.028,-8.920,-0.070,0.997,-0.040,-1.343,-1.831,0.824,73.333,808922.000,1.000
-9.001,-16.474,-16.923,-6.412,-15.615,-17.726,-17.278,-12.525,-0.071,0.997,-0.040,-1.373,-1.862,0.854,73.333,808923.000,1.000
-8.907,-15.391,-15.531,-6.293,-13.711,-13.389,-14.159,-12.617,-0.071,0.997,-0.040,-1.373,-1.892,0.916,73.333,808924.000,1.000
-7.473,-12.211,-12.176,-4.710,-8.911,-3.423,-5.137,-9.300,-0.071,0.997,-0.037,-1.526,-1.862,0.916,73.333,808925.000,1.000
-4.993,-8.207,-8.005,-2.289,-3.177,6.597,5.435,-3.413,-0.070,0.996,-0.038,-1.495,-1.740,0.946,73.333,808926.000,1.000
-2.310,-4.975,-4.537,0.007,1.494,11.445,13.571,3.812,-0.070,0.996,-0.040,-1.648,-1.740,1.038,73.333,808927.000,1.000
-0.441,-3.658,-2.995,1.116,3.706,9.464,17.076,9.988,-0.070,0.996,-0.039,-1.526,-1.587,1.068,73.333,808928.000,1.000
0.061,-4.352,-3.687,0.299,2.980,3.163,15.440,12.000,-0.069,0.993,-0.039,-1.587,-1.587,1.038,73.333,808929.000,1.000
-0.598,-6.212,-5.902,-2.406,-0.189,-3.509,9.316,8.100,-0.069,0.994,-0.039,-1.495,-1.587,1.007,73.333,808930.000,1.000
-1.843,-8.332,-8.558,-6.269,-4.875,-9.002,-0.376,-0.752,-0.071,0.994,-0.037,-1.495,-1.434,0.946,73.333,808931.000,1.000
-3.170,-10.230,-10.843,-10.227,-10.018,-14.316,-12.293,-11.366,-0.070,0.994,-0.038,-1.343,-1.526,0.916,73.333,808932.000,1.000
-4.128,-11.346,-12.098,-12.995,-13.910,-19.413,-22.919,-19.446,-0.071,0.994,-0.036,-1.282,-1.373,0.916,73.333,808933.000,1.000
-4.236,-10.716,-11.629,-13.349,-14.347,-21.509,-26.960,-21.214,-0.071,0.994,-0.038,-1.282,-1.282,0.946,73.333,808934.000,1.000
-3.151,-7.627,-9.112,-10.872,-10.120,-17.501,-21.218,-15.512,-0.072,0.995,-0.038,-1.221,-1.312,0.946,73.333,808935.000,1.000
-0.835,-2.373,-5.000,-6.322,-2.155,-6.946,-7.175,-4.601,-0.071,0.993,-0.039,-1.221,-1.190,0.885,73.333,808936.000,1.000
2.295,3.571,-0.542,-1.342,6.695,6.910,9.803,7.024,-0.070,0.993,-0.038,-1.221,-1.190,0.916,73.333,808937.000,1.000
5.177,7.930,2.511,2.072,12.729,18.137,22.619,14.579,-0.069,0.992,-0.039,-1.251,-1.129,0.916,73.333,808938.000,1.000
