EEG 1,EEG 2,EEG 3,EEG 4,EEG 5,EEG 6,EEG 7,EEG 8,Accelerometer X,Accelerometer Y,Accelerometer Z,Gyroscope X,Gyroscope Y,Gyroscope Z,Battery Level,Counter,Validation Indicator
-23.208,-12.919,-13.847,-12.859,-9.496,-9.439,-7.480,-8.911,-0.115,0.966,-0.180,2.258,0.763,1.465,73.333,565249.000,1.000
-22.970,-12.455,-12.885,-11.004,-6.545,-4.612,-2.870,-4.344,-0.114,0.966,-0.180,2.258,0.977,1.495,73.333,565250.000,1.000
-22.876,-12.412,-11.932,-9.798,-5.129,-3.679,-3.335,-2.548,-0.112,0.966,-0.179,2.228,1.160,1.617,73.333,565251.000,1.000
-23.039,-13.129,-11.505,-9.676,-5.515,-7.082,-7.676,-3.527,-0.113,0.965,-0.176,2.197,1.404,1.678,73.333,565252.000,1.000
-23.402,-14.377,-11.886,-10.438,-6.797,-12.382,-11.832,-5.558,-0.114,0.966,-0.177,2.228,1.556,1.617,73.333,565253.000,1.000
-23.880,-15.633,-13.013,-11.591,-7.766,-15.979,-12.246,-6.823,-0.114,0.966,-0.182,2.228,1.740,1.648,73.333,565254.000,1.000
-24.489,-16.377,-14.559,-12.798,-7.798,-15.275,-8.265,-6.918,-0.115,0.963,-0.184,2.258,1.953,1.587,73.333,565255.000,1.000
-25.341,-16.385,-16.064,-13.965,-7.113,-10.435,-2.064,-6.598,-0.114,0.965,-0.181,2.197,2.014,1.617,73.333,565256.000,1.000
-26.428,-15.811,-17.238,-15.042,-6.348,-4.330,2.896,-6.514,-0.112,0.966,-0.184,2.258,2.197,1.648,73.333,565257.000,1.000
-27.527,-15.032,-18.015,-15.962,-6.068,-0.319,3.826,-6.805,-0.115,0.966,-0.186,2.228,2.350,1.526,73.333,565258.000,1.000
-28.441,-14.532,-18.554,-16.809,-6.632,-0.030,0.171,-7.529,-0.114,0.967,-0.184,2.319,2.502,1.648,73.333,565259.000,1.000
-29.146,-14.624,-19.072,-17.685,-7.933,-2.699,-5.861,-8.538,-0.114,0.968,-0.184,2.289,2.747,1.556,73.333,565260.000,1.000
-29.600,-15.137,-19.446,-18.381,-9.201,-6.034,-10.560,-9.112,-0.114,0.967,-0.183,2.380,2.838,1.465,73.333,565261.000,1.000
-29.665,-15.609,-19.495,-18.579,-9.654,-8.029,-11.551,-8.690,-0.111,0.965,-0.180,2.441,3.113,1.404,73.333,565262.000,1.000
-29.221,-15.751,-19.290,-18.292,-9.328,-8.205,-9.360,-7.692,-0.110,0.966,-0.179,2.350,3.174,1.434,73.333,565263.000,1.000
-28.133,-15.474,-18.904,-17.753,-8.827,-6.979,-5.937,-6.928,-0.110,0.964,-0.181,2.258,3.448,1.495,73.333,565264.000,1.000
-26.137,-14.551,-18.033,-16.889,-8.339,-4.289,-2.177,-6.322,-0.112,0.966,-0.180,2.197,3.723,1.373,73.333,565265.000,1.000
-23.042,-12.766,-16.180,-15.317,-7.476,0.118,2.206,-4.826,-0.115,0.966,-0.182,2.258,4.028,1.343,73.333,565266.000,1.000
-19.183,-10.519,-13.538,-12.999,-6.166,5.101,6.716,-1.827,-0.118,0.966,-0.183,2.167,4.028,1.160,73.333,565267.000,1.000
-15.473,-8.812,-11.073,-10.566,-5.050,8.398,9.898,1.879,-0.121,0.964,-0.183,2.136,4.150,1.007,73.333,565268.000,1.000
-12.796,-8.334,-9.661,-8.864,-4.821,8.802,10.873,4.602,-0.124,0.964,-0.183,2.045,4.028,0.854,73.333,565269.000,1.000
-11.395,-8.812,-9.417,-8.332,-5.574,7.053,9.851,4.964,-0.126,0.964,-0.183,2.106,4.028,0.702,73.333,565270.000,1.000
-10.847,-9.277,-9.657,-8.747,-6.700,4.932,7.924,2.895,-0.126,0.967,-0.185,2.136,3.937,0.580,73.333,565271.000,1.000
-10.462,-8.782,-9.549,-9.361,-7.156,4.182,6.669,-0.082,-0.125,0.970,-0.183,1.923,3.784,0.305,73.333,565272.000,1.000
-9.738,-7.018,-8.658,-9.336,-6.182,5.419,6.832,-1.745,-0.124,0.970,-0.182,1.923,3.723,0.122,73.333,565273.000,1.000
-8.579,-4.462,-7.060,-8.266,-3.974,7.610,7.371,-0.875,-0.126,0.971,-0.181,1.648,3.693,0.061,73.333,565274.000,1.000
-7.082,-1.813,-5.020,-6.301,-1.343,9.238,6.854,1.973,-0.123,0.972,-0.181,1.648,3.632,0.061,73.333,565275.000,1.000
-5.227,0.568,-2.636,-3.835,1.076,9.701,5.223,5.295,-0.124,0.971,-0.185,1.587,3.693,0.031,73.333,565276.000,1.000
-2.941,2.577,-0.190,-1.256,3.032,9.207,3.386,7.975,-0.123,0.969,-0.184,1.434,3.601,0.061,73.333,565277.000,1.000
-0.348,4.149,1.848,1.205,4.614,8.476,2.629,10.049,-0.122,0.967,-0.185,1.404,3.540,0.031,73.333,565278.000,1.000
2.163,5.263,3.227,3.435,6.070,8.488,4.072,11.975,-0.120,0.964,-0.186,1.404,3.418,0.092,73.333,565279.000,1.000
3.950,5.738,3.774,5.059,7.078,8.955,6.768,13.163,-0.117,0.958,-0.186,1.526,3.510,0.061,73.333,565280.000,1.000
4.333,5.130,3.176,5.408,6.597,7.765,7.527,12.237,-0.117,0.956,-0.186,1.617,3.510,0.031,73.333,565281.000,1.000
3.089,3.192,1.166,4.053,3.936,3.306,3.856,8.537,-0.114,0.952,-0.188,1.770,3.448,-0.061,73.333,565282.000,1.000
0.739,0.204,-2.066,1.195,-0.537,-3.698,-3.821,2.561,-0.117,0.951,-0.191,1.953,3.387,-0.183,73.333,565283.000,1.000
-1.734,-3.215,-5.873,-2.398,-5.675,-10.913,-12.656,-4.372,-0.116,0.948,-0.189,2.350,3.448,-0.305,73.333,565284.000,1.000
-3.397,-6.367,-9.444,-5.641,-10.060,-15.902,-19.063,-10.328,-0.116,0.948,-0.188,2.625,3.540,-0.488,73.333,565285.000,1.000
-3.753,-8.639,-12.009,-7.541,-12.487,-17.186,-20.528,-13.349,-0.117,0.952,-0.188,3.082,3.754,-0.702,73.333,565286.000,1.000
-2.842,-9.600,-13.147,-7.546,-12.340,-14.655,-16.808,-12.404,-0.118,0.952,-0.186,3.113,3.754,-0.916,73.333,565287.000,1.000
-1.064,-9.010,-12.723,-5.632,-9.714,-9.254,-9.577,-7.933,-0.118,0.952,-0.183,3.052,3.662,-1.068,73.333,565288.000,1.000
1.045,-6.936,-10.800,-2.355,-5.428,-2.609,-1.357,-1.827,-0.119,0.954,-0.186,3.174,3.693,-1.251,73.333,565289.000,1.000
3.017,-3.816,-7.748,1.286,-0.762,3.400,5.435,3.420,-0.122,0.954,-0.184,3.387,3.632,-1.465,73.333,565290.000,1.000
4.679,-0.212,-4.046,4.408,3.185,7.460,9.362,5.991,-0.122,0.956,-0.184,3.418,3.662,-1.587,73.333,565291.000,1.000
6.176,3.430,-0.202,6.643,5.918,9.300,10.287,5.433,-0.124,0.955,-0.186,3.387,3.662,-1.831,73.333,565292.000,1.000
7.769,6.744,3.380,8.147,7.590,9.553,9.433,2.822,-0.123,0.958,-0.186,3.479,3.662,-2.106,73.333,565293.000,1.000
9.670,9.444,6.529,9.389,8.844,9.424,8.761,0.435,-0.121,0.959,-0.183,3.510,3.601,-2.228,73.333,565294.000,1.000
11.888,11.350,9.167,10.740,10.232,9.838,9.293,0.357,-0.119,0.960,-0.183,3.418,3.601,-2.472,73.333,565295.000,1.000
14.040,12.265,11.138,12.053,11.544,10.567,10.299,2.769,-0.118,0.962,-0.185,3.357,3.632,-2.533,73.333,565296.000,1.000
15.448,11.942,12.044,12.694,11.889,10.411,10.177,5.823,-0.116,0.966,-0.186,3.082,3.632,-2.502,73.333,565297.000,1.000
15.587,10.260,11.567,12.097,10.477,8.078,7.685,7.505,-0.116,0.969,-0.183,2.960,3.632,-2.625,73.333,565298.000,1.000
14.490,7.474,9.831,10.256,7.327,3.215,2.834,7.304,-0.116,0.971,-0.187,2.655,3.632,-2.655,73.333,565299.000,1.000
12.747,4.339,7.383,7.711,3.404,-2.679,-2.377,5.971,-0.113,0.969,-0.185,2.441,3.754,-2.655,73.333,565300.000,1.000
11.123,1.799,4.996,5.158,-0.010,-6.903,-4.906,4.261,-0.109,0.967,-0.186,2.106,3.876,-2.777,73.333,565301.000,1.000
10.113,0.286,3.084,3.001,-2.321,-7.998,-3.676,2.212,-0.107,0.967,-0.186,1.862,4.181,-2.899,73.333,565302.000,1.000
9.772,-0.588,1.485,1.279,-4.022,-7.164,-0.997,-0.693,-0.107,0.968,-0.187,1.709,4.211,-3.082,73.333,565303.000,1.000
9.904,-1.537,-0.182,-0.022,-6.010,-6.955,-0.584,-4.811,-0.107,0.968,-0.189,1.617,4.517,-3.265,73.333,565304.000,1.000
10.393,-2.870,-2.033,-0.667,-8.576,-9.068,-4.481,-9.618,-0.112,0.968,-0.191,1.495,4.822,-3.143,73.333,565305.000,1.000
11.332,-4.232,-3.643,-0.297,-11.127,-13.198,-11.541,-13.881,-0.115,0.969,-0.191,1.312,4.883,-3.052,73.333,565306.000,1.000
12.851,-4.909,-4.488,1.128,-12.744,-17.414,-18.480,-16.591,-0.115,0.969,-0.190,1.099,5.035,-3.052,73.333,565307.000,1.000
14.865,-4.362,-4.362,3.167,-12.778,-19.563,-21.957,-17.264,-0.117,0.968,-0.188,0.885,5.157,-2.960,73.333,565308.000,1.000
17.072,-2.511,-3.402,5.211,-10.988,-18.471,-20.031,-15.535,-0.118,0.969,-0.190,0.732,5.127,-3.082,73.333,565309.000,1.000
19.132,0.280,-1.903,6.903,-7.531,-14.325,-12.867,-11.149,-0.120,0.972,-0.189,0.610,5.249,-2.960,73.333,565310.000,1.000
20.809,3.372,-0.003,8.303,-3.020,-8.435,-2.601,-4.562,-0.119,0.970,-0.188,0.427,5.310,-2.777,73.333,565311.000,1.000
21.933,6.101,2.166,9.618,1.530,-2.575,7.504,2.617,-0.121,0.970,-0.189,0.305,5.432,-2.686,73.333,565312.000,1.000
22.314,7.978,4.280,10.722,4.899,1.658,14.241,7.817,-0.122,0.969,-0.190,0.153,5.493,-2.686,73.333,565313.000,1.000
21.821,8.803,5.911,11.122,6.130,3.415,15.792,8.677,-0.122,0.971,-0.191,0.000,5.432,-2.655,73.333,565314.000,1.000
20.630,8.807,6.850,10.576,5.292,3.143,12.711,5.046,-0.124,0.972,-0.191,-0.214,5.371,-2.563,73.333,565315.000,1.000
19.244,8.487,7.264,9.425,3.488,2.174,7.252,-0.508,-0.129,0.972,-0.188,-0.366,5.341,-2.502,73.333,565316.000,1.000
18.214,8.194,7.227,8.180,1.941,1.566,1.657,-4.727,-0.129,0.971,-0.192,-0.458,5.127,-2.411,73.333,565317.000,1.000
17.977,8.055,6.789,7.315,1.440,1.595,-2.267,-5.451,-0.131,0.971,-0.188,-0.458,5.096,-2.319,73.333,565318.000,1.000
18.815,8.110,6.418,7.426,2.380,1.916,-3.129,-1.847,-0.133,0.969,-0.188,-0.732,5.096,-2.289,73.333,565319.000,1.000
20.690,8.284,6.697,8.792,4.392,1.740,-1.269,4.849,-0.132,0.968,-0.190,-0.885,4.913,-2.228,73.333,565320.000,1.000
23.076,8.345,7.700,10.648,5.956,0.224,0.393,10.543,-0.133,0.965,-0.193,-1.038,4.822,-2.075,73.333,565321.000,1.000
25.196,8.218,8.833,11.589,5.462,-2.604,-1.343,10.773,-0.131,0.963,-0.191,-0.977,4.608,-2.014,73.333,565322.000,1.000
26.586,8.345,9.644,11.010,3.008,-5.268,-6.385,5.048,-0.132,0.960,-0.196,-1.160,4.425,-1.892,73.333,565323.000,1.000
27.340,9.353,10.270,9.625,0.352,-6.015,-11.565,-2.865,-0.131,0.958,-0.196,-1.038,4.333,-1.862,73.333,565324.000,1.000
27.784,11.268,10.880,8.478,-1.026,-4.649,-14.330,-9.071,-0.132,0.958,-0.197,-0.854,4.211,-1.709,73.333,565325.000,1.000
28.143,13.341,11.407,8.001,-1.154,-2.657,-14.786,-12.396,-0.130,0.959,-0.200,-0.702,4.059,-1.648,73.333,565326.000,1.000
28.548,14.656,11.661,8.056,-0.984,-1.792,-14.603,-13.525,-0.127,0.958,-0.198,-0.458,3.967,-1.526,73.333,565327.000,1.000
29.030,14.722,11.522,8.332,-1.301,-2.768,-14.917,-13.311,-0.125,0.959,-0.198,-0.458,3.906,-1.404,73.333,565328.000,1.000
29.399,13.592,10.879,8.496,-2.272,-4.929,-15.373,-12.275,-0.123,0.960,-0.196,-0.366,3.845,-1.251,73.333,565329.000,1.000
29.340,11.781,9.671,8.363,-3.393,-6.686,-14.432,-10.388,-0.119,0.958,-0.193,-0.305,3.876,-1.129,73.333,565330.000,1.000
28.684,10.092,8.261,8.127,-3.726,-6.339,-10.356,-7.010,-0.121,0.956,-0.192,-0.244,4.028,-1.007,73.333,565331.000,1.000
27.460,9.158,7.212,8.140,-2.672,-3.112,-3.108,-1.920,-0.121,0.957,-0.190,-0.061,4.089,-0.793,73.333,565332.000,1.000
25.728,8.951,6.770,8.440,-0.690,2.012,4.546,3.665,-0.123,0.957,-0.192,-0.061,4.028,-0.671,73.333,565333.000,1.000
23.595,8.858,6.731,8.679,0.989,6.487,8.664,7.705,-0.128,0.956,-0.194,0.092,3.967,-0.641,73.333,565334.000,1.000
21.410,8.394,6.771,8.569,1.529,7.966,7.395,9.093,-0.129,0.958,-0.191,0.153,3.937,-0.641,73.333,565335.000,1.000
19.742,7.768,6.973,8.235,1.288,6.422,2.809,8.607,-0.130,0.960,-0.188,0.244,3.876,-0.824,73.333,565336.000,1.000
19.034,7.745,7.695,8.083,1.456,4.419,-0.660,7.994,-0.131,0.963,-0.192,0.244,3.754,-0.702,73.333,565337.000,1.000
19.458,9.179,9.343,8.560,3.078,5.128,0.456,8.327,-0.133,0.964,-0.188,0.244,3.693,-0.702,73.333,565338.000,1.000
20.994,12.494,12.090,9.939,6.313,9.735,6.238,9.294,-0.132,0.968,-0.189,0.153,3.601,-0.641,73.333,565339.000,1.000
23.381,17.270,15.542,12.130,10.389,16.572,13.774,10.121,-0.135,0.967,-0.188,0.153,3.357,-0.671,73.333,565340.000,1.000
26.058,22.318,19.071,14.799,14.294,22.526,19.960,11.015,-0.135,0.966,-0.186,0.000,3.265,-0.732,73.333,565341.000,1.000
28.313,26.261,22.152,17.511,17.350,24.973,23.332,12.915,-0.136,0.966,-0.185,-0.183,3.052,-0.702,73.333,565342.000,1.000
29.564,28.213,24.456,19.737,19.209,23.036,23.777,15.860,-0.133,0.963,-0.187,-0.183,2.930,-0.732,73.333,565343.000,1.000
29.566,28.153,25.758,20.942,19.699,17.984,21.672,18.381,-0.133,0.960,-0.189,-0.275,2.777,-0.702,73.333,565344.000,1.000
28.376,26.683,25.808,20.840,18.819,12.373,17.483,18.577,-0.134,0.960,-0.192,-0.275,2.747,-0.702,73.333,565345.000,1.000
26.180,24.349,24.488,19.528,16.618,8.135,11.604,15.306,-0.131,0.958,-0.193,-0.214,2.655,-0.641,73.333,565346.000,1.000
23.198,21.220,21.825,17.369,13.074,5.230,4.261,8.579,-0.128,0.955,-0.195,-0.031,2.533,-0.702,73.333,565347.000,1.000
19.721,17.253,18.212,14.872,8.462,2.468,-3.664,-0.137,-0.127,0.955,-0.192,0.031,2.502,-0.610,73.333,565348.000,1.000
16.131,12.898,14.408,12.572,3.752,-0.479,-9.978,-8.026,-0.123,0.957,-0.191,0.122,2.411,-0.549,73.333,565349.000,1.000
12.811,9.116,11.008,10.858,0.291,-2.527,-12.305,-12.115,-0.123,0.957,-0.190,0.183,2.472,-0.519,73.333,565350.000,1.000
10.108,6.822,8.218,9.905,-0.941,-2.388,-9.692,-10.809,-0.124,0.958,-0.188,0.183,2.655,-0.427,73.333,565351.000,1.000
8.302,6.345,5.898,9.635,0.132,0.212,-3.252,-4.838,-0.125,0.959,-0.190,0.153,2.625,-0.366,73.333,565352.000,1.000
7.579,7.270,3.910,9.722,2.627,4.256,4.314,3.013,-0.125,0.963,-0.193,0.305,2.625,-0.244,73.333,565353.000,1.000
7.936,8.676,2.321,9.775,5.198,8.071,10.080,9.494,-0.129,0.960,-0.195,0.244,2.655,-0.305,73.333,565354.000,1.000
9.028,9.641,1.284,9.632,6.908,10.407,12.522,12.848,-0.130,0.963,-0.193,0.183,2.594,-0.336,73.333,565355.000,1.000
10.169,9.660,1.009,9.406,7.592,10.899,11.922,13.343,-0.130,0.963,-0.192,0.122,2.533,-0.305,73.333,565356.000,1.000
10.580,8.779,1.487,9.141,7.436,9.709,9.330,11.935,-0.127,0.963,-0.190,-0.092,2.441,-0.153,73.333,565357.000,1.000
9.824,7.540,2.486,8.733,6.674,7.332,5.962,9.282,-0.128,0.965,-0.190,-0.122,2.380,-0.275,73.333,565358.000,1.000
8.062,6.745,3.808,8.214,5.677,4.591,2.951,5.991,-0.129,0.966,-0.191,-0.092,2.289,-0.366,73.333,565359.000,1.000
5.957,7.001,5.359,7.875,5.002,2.350,0.966,2.978,-0.131,0.965,-0.194,-0.305,2.289,-0.336,73.333,565360.000,1.000
4.387,8.438,7.275,8.170,5.321,1.387,0.563,1.526,-0.130,0.964,-0.195,-0.336,2.167,-0.336,73.333,565361.000,1.000
4.053,10.702,9.651,9.362,7.073,2.303,2.246,2.590,-0.130,0.964,-0.192,-0.397,2.106,-0.336,73.333,565362.000,1.000
4.955,12.933,12.174,11.046,9.793,4.911,5.571,5.621,-0.128,0.963,-0.191,-0.488,2.075,-0.275,73.333,565363.000,1.000
6.212,13.916,14.021,12.197,12.047,7.753,8.746,8.575,-0.130,0.964,-0.191,-0.671,1.862,-0.244,73.333,565364.000,1.000
6.677,12.800,14.300,11.902,12.455,8.894,9.705,9.401,-0.129,0.963,-0.192,-0.641,1.862,-0.275,73.333,565365.000,1.000
5.853,9.940,12.958,10.147,10.897,7.687,8.001,7.671,-0.129,0.963,-0.191,-0.732,1.831,-0.336,73.333,565366.000,1.000
4.147,6.797,10.866,7.862,8.725,5.644,5.640,4.989,-0.131,0.963,-0.190,-0.763,1.678,-0.336,73.333,565367.000,1.000
2.274,4.755,9.037,6.151,7.603,5.028,5.602,3.724,-0.134,0.963,-0.188,-0.854,1.556,-0.305,73.333,565368.000,1.000
0.562,4.036,7.784,5.367,7.971,6.501,8.846,4.979,-0.134,0.961,-0.190,-0.885,1.465,-0.275,73.333,565369.000,1.000
-1.134,3.834,6.647,4.965,8.826,8.770,13.334,7.893,-0.134,0.963,-0.189,-1.068,1.282,-0.214,73.333,565370.000,1.000
-2.868,3.410,5.314,4.340,9.041,10.476,16.511,10.884,-0.133,0.963,-0.195,-1.160,1.129,-0.153,73.333,565371.000,1.000
-4.220,2.699,4.015,3.535,8.358,11.158,17.085,12.974,-0.133,0.962,-0.194,-1.160,1.007,-0.122,73.333,565372.000,1.000
-4.579,1.927,3.178,3.004,7.054,10.258,14.432,13.886,-0.134,0.962,-0.193,-1.312,0.916,-0.092,73.333,565373.000,1.000
-3.660,1.219,2.999,3.064,5.488,7.160,8.771,13.749,-0.134,0.962,-0.193,-1.434,0.702,0.092,73.333,565374.000,1.000
-1.712,0.682,3.303,3.746,4.255,2.881,2.436,13.144,-0.134,0.962,-0.190,-1.465,0.488,0.214,73.333,565375.000,1.000
0.534,0.363,3.761,4.807,3.991,-0.075,-1.023,12.868,-0.135,0.962,-0.191,-1.556,0.244,0.366,73.333,565376.000,1.000
2.066,-0.043,3.848,5.618,4.534,-0.427,-0.287,13.016,-0.136,0.962,-0.194,-1.617,-0.061,0.458,73.333,565377.000,1.000
1.959,-1.224,2.922,5.200,4.441,0.112,1.934,12.203,-0.136,0.961,-0.194,-1.709,-0.275,0.610,73.333,565378.000,1.000
-0.129,-3.788,0.598,2.760,1.881,-1.632,1.313,8.336,-0.135,0.962,-0.196,-1.770,-0.427,0.732,73.333,565379.000,1.000
-3.476,-7.491,-2.727,-1.430,-3.503,-7.042,-4.016,0.943,-0.135,0.962,-0.194,-1.862,-0.580,0.854,73.333,565380.000,1.000
-6.413,-10.997,-5.643,-5.797,-9.774,-14.153,-11.941,-7.626,-0.133,0.963,-0.191,-1.953,-0.641,1.007,73.333,565381.000,1.000
-7.318,-12.663,-6.644,-8.482,-14.030,-19.206,-18.563,-13.988,-0.134,0.964,-0.192,-2.045,-0.824,1.221,73.333,565382.000,1.000
-5.749,-11.671,-5.171,-8.629,-14.536,-19.620,-21.316,-16.424,-0.136,0.962,-0.192,-1.984,-0.977,1.434,73.333,565383.000,1.000
-2.660,-8.495,-1.917,-6.781,-11.669,-15.512,-20.263,-15.736,-0.135,0.961,-0.193,-2.014,-1.129,1.556,73.333,565384.000,1.000
0.328,-4.583,1.538,-4.370,-7.365,-9.306,-17.485,-14.147,-0.134,0.962,-0.196,-2.075,-1.129,1.709,73.333,565385.000,1.000
1.889,-1.637,3.657,-2.854,-3.935,-4.486,-15.703,-13.698,-0.133,0.961,-0.196,-1.984,-1.282,1.801,73.333,565386.000,1.000
1.682,-0.574,3.843,-2.827,-2.523,-3.158,-15.997,-14.720,-0.132,0.961,-0.195,-1.984,-1.343,1.953,73.333,565387.000,1.000
0.510,-0.824,2.965,-3.534,-2.079,-3.983,-16.040,-15.069,-0.132,0.961,-0.193,-1.953,-1.434,2.014,73.333,565388.000,1.000
-0.347,-0.996,2.596,-3.606,-0.548,-3.792,-12.573,-11.995,-0.132,0.962,-0.193,-1.892,-1.495,2.075,73.333,565389.000,1.000
-0.102,-0.234,3.474,-2.437,2.732,-1.211,-5.766,-5.422,-0.131,0.962,-0.191,-2.045,-1.648,2.106,73.333,565390.000,1.000
1.113,1.239,5.145,-0.564,6.419,2.263,0.665,1.634,-0.131,0.962,-0.194,-2.045,-1.678,2.228,73.333,565391.000,1.000
2.478,2.545,6.561,1.065,8.731,4.256,3.160,6.011,-0.132,0.961,-0.197,-1.923,-1.709,2.197,73.333,565392.000,1.000
3.027,2.970,6.986,1.962,9.196,4.172,1.858,7.109,-0.130,0.960,-0.195,-1.892,-1.709,2.167,73.333,565393.000,1.000
2.191,2.458,6.425,2.262,8.863,3.788,0.466,6.657,-0.131,0.959,-0.196,-1.801,-1.801,2.197,73.333,565394.000,1.000
-0.156,1.095,5.003,2.003,8.525,4.266,1.392,5.996,-0.129,0.961,-0.195,-1.770,-1.953,2.136,73.333,565395.000,1.000
-3.977,-1.595,2.457,0.577,7.216,3.618,2.230,4.211,-0.126,0.961,-0.192,-1.801,-1.953,2.197,73.333,565396.000,1.000
-8.940,-6.044,-1.493,-2.531,3.491,-0.810,-0.911,-0.161,-0.123,0.961,-0.193,-1.678,-1.862,2.167,73.333,565397.000,1.000
-14.105,-11.587,-6.277,-6.717,-2.333,-8.528,-8.252,-6.406,-0.123,0.960,-0.195,-1.678,-1.831,2.136,73.333,565398.000,1.000
-18.190,-16.639,-10.605,-10.577,-8.212,-16.195,-16.334,-11.970,-0.121,0.962,-0.195,-1.495,-1.801,2.075,73.333,565399.000,1.000
-20.196,-19.730,-13.385,-13.002,-12.062,-20.593,-21.345,-14.774,-0.120,0.962,-0.194,-1.587,-1.709,2.014,73.333,565400.000,1.000
-19.821,-20.131,-14.013,-13.584,-12.805,-20.478,-21.199,-14.214,-0.120,0.961,-0.192,-1.465,-1.617,2.045,73.333,565401.000,1.000
-17.611,-17.984,-12.567,-12.451,-10.523,-16.605,-16.187,-10.777,-0.120,0.961,-0.191,-1.465,-1.556,1.984,73.333,565402.000,1.000
-14.770,-14.269,-9.865,-10.182,-6.364,-10.963,-8.849,-5.679,-0.122,0.962,-0.194,-1.373,-1.434,1.953,73.333,565403.000,1.000
-12.535,-10.411,-7.078,-7.694,-2.046,-5.605,-2.519,-0.616,-0.120,0.962,-0.191,-1.465,-1.312,1.984,73.333,565404.000,1.000
-11.537,-7.581,-5.134,-5.857,1.061,-1.570,0.839,2.810,-0.120,0.962,-0.192,-1.465,-1.251,1.923,73.333,565405.000,1.000
-11.698,-6.356,-4.297,-5.180,2.378,0.954,1.327,3.677,-0.121,0.962,-0.192,-1.373,-1.251,1.923,73.333,565406.000,1.000
-12.535,-6.770,-4.433,-5.770,1.914,1.833,-0.111,1.890,-0.121,0.960,-0.192,-1.404,-1.129,1.923,73.333,565407.000,1.000
-13.400,-8.232,-5.096,-7.228,0.264,1.242,-2.279,-1.616,-0.119,0.962,-0.191,-1.434,-0.977,1.831,73.333,565408.000,1.000
-13.670,-9.588,-5.506,-8.628,-1.343,0.339,-3.432,-4.904,-0.119,0.961,-0.191,-1.343,-0.824,1.770,73.333,565409.000,1.000
-13.091,-9.749,-5.041,-9.042,-1.659,0.791,-1.881,-6.022,-0.120,0.963,-0.188,-1.373,-0.763,1.709,73.333,565410.000,1.000
-11.993,-8.415,-3.621,-8.228,-0.297,3.549,2.702,-4.321,-0.120,0.963,-0.191,-1.373,-0.702,1.709,73.333,565411.000,1.000
-11.053,-6.168,-1.807,-6.762,2.031,8.022,8.632,-0.840,-0.123,0.965,-0.192,-1.282,-0.671,1.648,73.333,565412.000,1.000
-10.827,-4.067,-0.408,-5.566,3.960,11.962,12.872,2.452,-0.122,0.964,-0.194,-1.312,-0.732,1.617,73.333,565413.000,1.000
-11.560,-3.244,-0.125,-5.418,4.120,12.370,12.538,3.611,-0.120,0.962,-0.193,-1.495,-0.702,1.556,73.333,565414.000,1.000
-13.224,-4.473,-1.402,-6.608,1.947,7.703,7.038,1.721,-0.121,0.962,-0.190,-1.465,-0.549,1.556,73.333,565415.000,1.000
-15.462,-7.627,-3.959,-8.688,-1.740,-0.371,-0.588,-2.265,-0.123,0.961,-0.190,-1.343,-0.671,1.587,73.333,565416.000,1.000
-17.608,-11.682,-6.928,-10.740,-5.339,-8.186,-5.979,-6.179,-0.123,0.960,-0.188,-1.434,-0.610,1.617,73.333,565417.000,1.000
-18.938,-15.380,-9.369,-11.989,-7.677,-13.114,-7.455,-8.255,-0.123,0.960,-0.187,-1.404,-0.610,1.556,73.333,565418.000,1.000
-19.030,-17.805,-10.668,-12.149,-8.442,-14.804,-6.661,-7.980,-0.123,0.959,-0.192,-1.343,-0.610,1.556,73.333,565419.000,1.000
-17.986,-18.508,-10.709,-11.400,-7.817,-14.016,-5.652,-5.951,-0.123,0.957,-0.191,-1.343,-0.519,1.526,73.333,565420.000,1.000
-16.360,-17.527,-9.629,-10.212,-6.178,-11.435,-4.589,-3.382,-0.122,0.958,-0.189,-1.282,-0.458,1.465,73.333,565421.000,1.000
-14.827,-15.387,-7.811,-9.178,-4.092,-7.648,-2.342,-1.649,-0.121,0.961,-0.191,-1.190,-0.580,1.373,73.333,565422.000,1.000
-13.760,-12.818,-5.745,-8.689,-2.164,-3.323,1.896,-1.538,-0.122,0.961,-0.188,-1.129,-0.549,1.404,73.333,565423.000,1.000
-13.077,-10.368,-3.826,-8.657,-0.711,0.811,7.606,-2.558,-0.122,0.962,-0.191,-1.160,-0.580,1.465,73.333,565424.000,1.000
-12.551,-8.412,-2.473,-8.708,0.186,3.624,12.734,-3.301,-0.122,0.960,-0.193,-1.038,-0.610,1.495,73.333,565425.000,1.000
-12.153,-7.384,-2.073,-8.599,0.378,3.728,14.789,-2.719,-0.121,0.960,-0.192,-1.099,-0.488,1.587,73.333,565426.000,1.000
-11.989,-7.725,-2.869,-8.407,-0.387,0.626,12.563,-1.132,-0.121,0.960,-0.191,-1.221,-0.641,1.587,73.333,565427.000,1.000
-12.061,-9.606,-4.708,-8.463,-2.289,-4.612,7.005,-0.181,-0.120,0.962,-0.191,-1.160,-0.763,1.526,73.333,565428.000,1.000
-12.228,-12.667,-6.948,-9.139,-5.241,-9.903,0.614,-1.727,-0.120,0.961,-0.195,-1.129,-0.671,1.495,73.333,565429.000,1.000
-12.251,-15.848,-8.642,-10.453,-8.575,-13.117,-3.945,-6.185,-0.122,0.961,-0.196,-1.129,-0.671,1.526,73.333,565430.000,1.000
-11.847,-17.695,-8.796,-11.859,-11.167,-13.147,-5.255,-11.970,-0.122,0.960,-0.193,-1.099,-0.793,1.587,73.333,565431.000,1.000
-10.897,-17.188,-7.127,-12.716,-12.182,-10.462,-3.805,-16.814,-0.122,0.961,-0.190,-1.099,-0.702,1.465,73.333,565432.000,1.000
-9.633,-14.314,-4.333,-12.793,-11.486,-6.233,-0.761,-19.154,-0.122,0.963,-0.190,-1.068,-0.702,1.617,73.333,565433.000,1.000
-8.530,-9.962,-1.543,-12.257,-9.410,-1.192,3.304,-18.428,-0.123,0.961,-0.186,-1.129,-0.702,1.465,73.333,565434.000,1.000
-8.021,-5.532,0.216,-11.445,-6.641,3.937,7.736,-15.021,-0.121,0.961,-0.189,-1.068,-0.854,1.465,73.333,565435.000,1.000
-8.379,-2.511,0.372,-10.820,-4.322,7.400,10.857,-10.243,-0.120,0.962,-0.189,-1.068,-0.824,1.434,73.333,565436.000,1.000
-9.762,-1.950,-1.253,-11.023,-3.734,7.124,10.664,-6.125,-0.121,0.962,-0.191,-1.007,-0.824,1.373,73.333,565437.000,1.000
-12.087,-3.897,-4.332,-12.532,-5.426,2.894,6.721,-4.522,-0.121,0.961,-0.189,-1.129,-0.793,1.434,73.333,565438.000,1.000
-14.847,-7.349,-7.961,-15.099,-8.695,-3.114,0.835,-5.872,-0.123,0.960,-0.190,-1.068,-0.824,1.404,73.333,565439.000,1.000
-17.308,-10.923,-11.149,-17.734,-12.116,-8.234,-4.334,-8.956,-0.121,0.960,-0.189,-1.160,-0.854,1.373,73.333,565440.000,1.000
-18.940,-13.554,-13.207,-19.337,-14.440,-10.891,-6.714,-11.899,-0.122,0.961,-0.192,-1.099,-0.946,1.221,73.333,565441.000,1.000
-19.555,-14.622,-13.921,-19.290,-14.903,-10.398,-5.206,-13.108,-0.123,0.961,-0.189,-1.099,-0.977,1.129,73.333,565442.000,1.000
-19.140,-13.888,-13.391,-17.572,-13.248,-6.669,0.072,-11.689,-0.121,0.963,-0.190,-1.129,-1.007,1.160,73.333,565443.000,1.000
-17.791,-11.701,-11.978,-14.696,-10.107,-1.011,6.965,-8.085,-0.121,0.964,-0.191,-1.160,-0.946,0.977,73.333,565444.000,1.000
-15.728,-8.928,-10.267,-11.505,-6.881,4.022,11.995,-4.142,-0.121,0.963,-0.190,-1.282,-0.977,1.038,73.333,565445.000,1.000
-13.161,-6.298,-8.462,-8.574,-4.564,6.705,13.121,-1.629,-0.121,0.962,-0.187,-1.343,-0.977,1.038,73.333,565446.000,1.000
-10.332,-4.065,-6.400,-5.948,-3.082,7.131,10.801,-0.874,-0.119,0.961,-0.189,-1.373,-1.007,1.007,73.333,565447.000,1.000
-7.661,-2.333,-4.046,-3.456,-1.905,5.803,6.705,-0.898,-0.120,0.961,-0.190,-1.404,-1.038,1.068,73.333,565448.000,1.000
-5.543,-1.158,-1.622,-0.994,-0.632,3.011,2.684,-0.326,-0.120,0.962,-0.190,-1.373,-1.099,0.977,73.333,565449.000,1.000
-4.058,-0.334,0.538,1.429,0.985,-0.027,0.361,1.723,-0.122,0.964,-0.190,-1.465,-1.068,0.946,73.333,565450.000,1.000
-3.095,0.426,2.205,3.581,2.778,-1.370,0.315,4.812,-0.120,0.965,-0.189,-1.587,-1.068,0.977,73.333,565451.000,1.000
-2.661,1.006,3.066,4.947,3.845,-0.630,1.296,7.116,-0.121,0.966,-0.188,-1.648,-1.099,1.038,73.333,565452.000,1.000
-2.850,0.920,2.888,5.066,3.146,0.233,1.209,6.861,-0.121,0.965,-0.190,-1.648,-1.129,1.068,73.333,565453.000,1.000
-3.584,-0.092,1.845,3.950,0.575,-0.761,-0.798,3.828,-0.122,0.964,-0.190,-1.740,-1.160,1.099,73.333,565454.000,1.000
-4.579,-1.750,0.334,2.051,-2.842,-3.461,-3.662,-0.662,-0.120,0.964,-0.189,-1.831,-1.312,0.977,73.333,565455.000,1.000
-5.498,-3.487,-1.183,0.010,-5.728,-6.254,-5.578,-4.632,-0.119,0.963,-0.190,-1.770,-1.312,0.946,73.333,565456.000,1.000
-6.018,-4.753,-2.303,-1.528,-7.062,-7.707,-5.381,-6.306,-0.120,0.964,-0.190,-1.740,-1.221,1.068,73.333,565457.000,1.000
-5.905,-5.174,-2.685,-2.079,-6.503,-7.201,-3.075,-4.999,-0.120,0.965,-0.187,-1.892,-1.282,0.946,73.333,565458.000,1.000
-5.211,-4.781,-2.286,-1.635,-4.599,-5.172,-0.133,-1.740,-0.121,0.965,-0.190,-1.892,-1.373,0.977,73.333,565459.000,1.000
-4.372,-4.071,-1.679,-0.828,-2.601,-3.100,1.042,1.242,-0.120,0.964,-0.190,-1.923,-1.434,1.038,73.333,565460.000,1.000
-3.926,-3.647,-1.627,-0.499,-1.607,-2.549,-0.863,2.137,-0.123,0.961,-0.188,-1.953,-1.465,1.007,73.333,565461.000,1.000
-4.103,-3.709,-2.500,-0.992,-1.710,-3.781,-4.772,0.788,-0.120,0.962,-0.188,-1.892,-1.495,0.977,73.333,565462.000,1.000
-4.695,-3.921,-3.910,-1.891,-2.004,-5.377,-7.929,-1.462,-0.121,0.962,-0.187,-1.953,-1.587,0.977,73.333,565463.000,1.000
-5.349,-3.788,-5.061,-2.505,-1.461,-5.437,-7.899,-2.912,-0.121,0.960,-0.189,-1.984,-1.556,0.916,73.333,565464.000,1.000
-5.906,-3.152,-5.562,-2.513,0.166,-3.305,-4.340,-2.559,-0.122,0.962,-0.187,-2.014,-1.556,0.854,73.333,565465.000,1.000
-6.481,-2.333,-5.587,-2.099,2.200,-0.081,0.859,-0.437,-0.121,0.964,-0.189,-1.953,-1.617,0.824,73.333,565466.000,1.000
-7.313,-1.857,-5.679,-1.674,3.603,2.463,4.845,2.578,-0.118,0.965,-0.187,-2.045,-1.678,0.885,73.333,565467.000,1.000
-8.544,-2.061,-6.271,-1.520,3.660,3.223,5.736,5.265,-0.120,0.965,-0.186,-2.045,-1.740,0.702,73.333,565468.000,1.000
-10.071,-2.879,-7.371,-1.630,2.321,2.291,3.813,6.604,-0.122,0.964,-0.184,-2.106,-1.740,0.641,73.333,565469.000,1.000
-11.539,-3.811,-8.618,-1.656,0.356,0.895,1.247,6.487,-0.122,0.964,-0.185,-2.136,-1.678,0.732,73.333,565470.000,1.000
-12.407,-3.978,-9.176,-0.919,-0.689,1.111,1.155,6.228,-0.121,0.966,-0.187,-2.167,-1.678,0.732,73.333,565471.000,1.000
-12.175,-2.602,-8.247,1.071,0.562,4.628,5.442,7.434,-0.117,0.966,-0.186,-2.228,-1.648,0.702,73.333,565472.000,1.000
-10.768,0.135,-5.873,3.793,3.654,10.469,11.922,9.709,-0.120,0.967,-0.188,-2.136,-1.770,0.763,73.333,565473.000,1.000
-8.720,2.819,-3.187,5.755,5.998,14.337,14.714,10.345,-0.119,0.966,-0.189,-2.289,-1.770,0.671,73.333,565474.000,1.000
-6.803,3.912,-1.647,5.753,5.128,12.032,9.371,7.130,-0.120,0.964,-0.189,-2.228,-1.770,0.671,73.333,565475.000,1.000
-5.367,3.175,-1.672,4.013,1.109,3.773,-2.678,0.864,-0.121,0.963,-0.187,-2.289,-1.678,0.763,73.333,565476.000,1.000
-4.196,1.742,-2.482,1.855,-3.669,-5.891,-15.394,-5.363,-0.120,0.963,-0.185,-2.228,-1.740,0.732,73.333,565477.000,1.000
-3.011,0.983,-2.948,0.571,-6.610,-12.081,-22.826,-8.574,-0.122,0.963,-0.190,-2.136,-1.709,0.610,73.333,565478.000,1.000
-1.889,1.526,-2.453,0.699,-6.528,-12.814,-22.610,-7.518,-0.123,0.963,-0.187,-2.258,-1.770,0.580,73.333,565479.000,1.000
-1.096,3.128,-1.194,1.965,-3.886,-9.255,-16.422,-3.014,-0.122,0.963,-0.185,-2.136,-1.862,0.641,73.333,565480.000,1.000
-0.676,5.075,0.313,3.606,-0.200,-4.240,-8.258,2.609,-0.122,0.962,-0.187,-2.075,-1.862,0.671,73.333,565481.000,1.000
-0.348,6.706,1.581,4.838,2.880,-0.439,-2.121,6.807,-0.123,0.963,-0.186,-2.075,-1.923,0.671,73.333,565482.000,1.000
0.325,7.880,2.526,5.400,4.612,1.311,0.309,8.492,-0.122,0.962,-0.187,-2.045,-1.892,0.671,73.333,565483.000,1.000
1.680,9.043,3.642,5.740,5.572,2.440,0.637,8.672,-0.122,0.963,-0.187,-2.045,-1.892,0.641,73.333,565484.000,1.000
3.719,10.699,5.441,6.538,6.925,5.155,2.120,9.245,-0.120,0.963,-0.186,-1.953,-1.953,0.641,73.333,565485.000,1.000
5.975,12.752,7.835,7.982,9.159,10.139,6.633,11.124,-0.121,0.963,-0.186,-2.014,-1.923,0.549,73.333,565486.000,1.000
7.641,14.390,9.828,9.493,11.499,15.686,12.861,13.502,-0.121,0.963,-0.185,-1.892,-1.953,0.549,73.333,565487.000,1.000
7.967,14.696,10.171,10.212,12.661,19.238,17.795,14.931,-0.122,0.963,-0.188,-1.862,-1.923,0.519,73.333,565488.000,1.000
6.735,13.421,8.390,9.735,12.134,19.737,19.685,14.840,-0.120,0.964,-0.188,-1.953,-1.953,0.549,73.333,565489.000,1.000
4.413,11.182,5.036,8.363,10.525,18.117,18.697,13.736,-0.120,0.962,-0.187,-1.831,-1.953,0.671,73.333,565490.000,1.000
1.767,8.840,1.263,6.760,8.610,15.375,15.190,12.177,-0.120,0.963,-0.185,-1.862,-1.984,0.610,73.333,565491.000,1.000
-0.686,6.848,-2.001,5.486,6.557,11.261,9.013,10.145,-0.121,0.964,-0.185,-1.801,-2.075,0.549,73.333,565492.000,1.000
-2.767,5.391,-4.186,4.949,4.433,5.761,1.268,7.765,-0.122,0.964,-0.186,-1.953,-2.167,0.610,73.333,565493.000,1.000
-4.417,4.680,-4.897,5.417,2.808,0.457,-5.140,5.840,-0.123,0.963,-0.186,-1.892,-2.075,0.732,73.333,565494.000,1.000
-5.541,4.819,-4.110,6.766,2.325,-2.640,-7.842,5.112,-0.122,0.961,-0.187,-1.984,-2.014,0.824,73.333,565495.000,1.000
-5.890,5.688,-2.076,8.467,3.135,-2.624,-6.666,5.633,-0.123,0.961,-0.186,-1.923,-2.075,0.854,73.333,565496.000,1.000
-5.108,7.093,0.729,9.907,4.970,0.359,-2.869,7.124,-0.124,0.962,-0.184,-1.801,-2.167,0.793,73.333,565497.000,1.000
-2.999,8.879,3.787,10.769,7.534,5.926,2.650,9.548,-0.125,0.965,-0.185,-1.862,-2.106,0.824,73.333,565498.000,1.000
0.220,10.874,6.729,11.171,10.566,13.521,9.783,12.906,-0.123,0.967,-0.185,-1.831,-2.167,0.824,73.333,565499.000,1.000
3.826,12.599,9.076,11.318,13.269,21.255,17.411,16.317,-0.124,0.966,-0.188,-1.953,-2.197,0.885,73.333,565500.000,1.000
6.708,13.079,10.136,11.008,13.963,25.344,22.251,17.801,-0.125,0.965,-0.186,-1.953,-2.136,0.854,73.333,565501.000,1.000
7.893,11.422,9.309,9.775,11.151,22.377,21.019,15.695,-0.125,0.961,-0.185,-1.953,-2.167,0.824,73.333,565502.000,1.000
7.224,7.694,6.775,7.519,4.946,12.150,13.196,10.143,-0.125,0.959,-0.188,-1.923,-2.350,0.702,73.333,565503.000,1.000
5.418,2.959,3.437,4.622,-3.071,-2.422,0.759,2.699,-0.123,0.958,-0.190,-1.923,-2.350,0.763,73.333,565504.000,1.000
3.589,-1.284,0.265,1.631,-10.761,-16.827,-12.882,-4.709,-0.123,0.959,-0.187,-1.831,-2.441,0.763,73.333,565505.000,1.000
2.789,-3.578,-1.771,-0.779,-15.942,-26.158,-23.131,-10.012,-0.120,0.960,-0.187,-1.831,-2.472,0.824,73.333,565506.000,1.000
3.554,-3.184,-2.086,-2.019,-17.230,-27.441,-26.470,-11.677,-0.119,0.958,-0.188,-1.617,-2.441,0.916,73.333,565507.000,1.000
5.641,-0.558,-0.864,-2.002,-14.900,-21.657,-22.993,-9.704,-0.118,0.958,-0.184,-1.617,-2.380,0.916,73.333,565508.000,1.000
8.313,3.169,1.249,-1.127,-10.442,-12.468,-15.497,-5.474,-0.119,0.961,-0.184,-1.617,-2.319,0.916,73.333,565509.000,1.000
10.888,7.077,3.614,0.141,-5.386,-3.200,-6.920,-0.754,-0.120,0.960,-0.188,-1.556,-2.106,0.946,73.333,565510.000,1.000
12.977,10.711,5.953,1.564,-0.738,4.556,0.770,3.034,-0.122,0.961,-0.188,-1.556,-2.106,0.977,73.333,565511.000,1.000
14.439,13.832,8.136,3.142,2.994,10.323,6.263,5.187,-0.123,0.960,-0.186,-1.556,-2.106,0.885,73.333,565512.000,1.000
15.268,16.237,10.044,4.974,5.688,13.761,8.805,5.885,-0.122,0.962,-0.185,-1.495,-1.923,0.793,73.333,565513.000,1.000
15.512,17.736,11.573,7.022,7.420,14.517,8.303,5.757,-0.123,0.963,-0.188,-1.404,-2.045,0.885,73.333,565514.000,1.000
15.237,18.222,12.517,8.980,8.239,12.668,5.275,5.219,-0.122,0.964,-0.190,-1.404,-2.045,0.916,73.333,565515.000,1.000
14.477,17.697,12.747,10.429,8.158,8.990,1.078,4.381,-0.121,0.964,-0.190,-1.556,-2.045,1.007,73.333,565516.000,1.000
13.219,16.276,12.166,11.066,7.346,4.878,-2.298,3.336,-0.117,0.966,-0.189,-1.465,-2.014,1.007,73.333,565517.000,1.000
11.579,14.274,10.869,10.907,6.278,2.011,-3.096,2.415,-0.117,0.967,-0.189,-1.312,-2.045,0.946,73.333,565518.000,1.000
9.933,12.248,9.350,10.346,5.625,1.640,-0.591,2.201,-0.118,0.967,-0.186,-1.434,-1.923,1.038,73.333,565519.000,1.000
8.763,10.823,8.260,9.921,5.907,3.805,4.670,3.188,-0.116,0.967,-0.187,-1.404,-1.862,1.007,73.333,565520.000,1.000
8.377,10.349,8.065,9.962,7.117,7.242,11.122,5.349,-0.116,0.965,-0.186,-1.465,-1.801,0.977,73.333,565521.000,1.000
8.705,10.616,8.546,10.308,8.547,10.046,16.346,7.864,-0.118,0.964,-0.188,-1.465,-1.648,0.946,73.333,565522.000,1.000
9.361,10.950,8.967,10.411,9.090,10.571,17.810,9.433,-0.119,0.963,-0.186,-1.465,-1.648,0.977,73.333,565523.000,1.000
9.929,10.736,8.806,9.800,8.037,8.343,14.497,9.173,-0.120,0.962,-0.185,-1.465,-1.617,0.854,73.333,565524.000,1.000
10.228,9.922,8.045,8.494,5.773,4.727,7.968,7.343,-0.121,0.962,-0.184,-1.465,-1.556,0.702,73.333,565525.000,1.000
10.306,8.948,7.067,6.952,3.517,2.133,1.445,5.131,-0.124,0.962,-0.188,-1.465,-1.556,0.519,73.333,565526.000,1.000
10.188,8.113,6.058,5.560,2.179,1.736,-2.601,3.584,-0.125,0.965,-0.184,-1.404,-1.526,0.366,73.333,565527.000,1.000
9.734,7.224,4.829,4.300,1.628,2.390,-3.650,2.800,-0.125,0.966,-0.180,-1.465,-1.556,0.305,73.333,565528.000,1.000
8.791,5.934,3.139,2.943,1.111,2.167,-2.576,2.183,-0.124,0.967,-0.182,-1.526,-1.617,0.092,73.333,565529.000,1.000
7.414,4.196,0.924,1.355,0.086,0.285,-0.797,1.287,-0.123,0.968,-0.182,-1.678,-1.678,0.031,73.333,565530.000,1.000
5.969,2.446,-1.358,-0.339,-1.220,-2.224,0.859,0.435,-0.123,0.971,-0.182,-1.862,-1.648,-0.122,73.333,565531.000,1.000
5.078,1.520,-2.872,-1.743,-1.808,-3.031,2.919,0.552,-0.121,0.972,-0.183,-1.862,-1.801,-0.092,73.333,565532.000,1.000
5.278,2.071,-2.951,-2.424,-0.771,-0.432,6.243,2.285,-0.120,0.975,-0.185,-2.075,-1.678,-0.183,73.333,565533.000,1.000
6.536,3.775,-1.736,-2.391,1.557,4.530,9.973,5.145,-0.121,0.972,-0.183,-2.106,-1.648,-0.183,73.333,565534.000,1.000
8.121,5.375,-0.265,-2.236,3.580,8.432,11.482,7.537,-0.120,0.970,-0.186,-2.228,-1.556,-0.122,73.333,565535.000,1.000
9.090,5.720,0.501,-2.601,3.794,8.490,9.050,7.786,-0.118,0.966,-0.182,-2.319,-1.465,-0.061,73.333,565536.000,1.000
8.898,4.616,0.320,-3.567,2.112,5.071,3.744,5.290,-0.118,0.965,-0.183,-2.441,-1.465,-0.122,73.333,565537.000,1.000
7.587,2.718,-0.379,-4.590,-0.135,1.237,-1.374,1.066,-0.118,0.965,-0.184,-2.350,-1.495,-0.031,73.333,565538.000,1.000
5.540,0.768,-1.056,-4.997,-1.426,-0.151,-3.682,-2.792,-0.119,0.964,-0.183,-2.258,-1.495,0.000,73.333,565539.000,1.000
3.173,-1.012,-1.702,-4.502,-1.323,0.849,-3.079,-4.443,-0.120,0.963,-0.181,-2.228,-1.404,0.061,73.333,565540.000,1.000
0.844,-2.790,-2.537,-3.263,-0.485,1.802,-1.244,-3.261,-0.122,0.962,-0.181,-2.197,-1.282,0.031,73.333,565541.000,1.000
-1.075,-4.480,-3.559,-1.605,0.428,1.155,0.842,0.130,-0.123,0.961,-0.179,-2.228,-1.343,0.122,73.333,565542.000,1.000
-2.180,-5.575,-4.405,0.153,1.310,-0.394,3.284,4.348,-0.123,0.962,-0.179,-2.075,-1.404,0.183,73.333,565543.000,1.000
-2.217,-5.736,-4.644,1.648,2.076,-1.756,5.472,7.709,-0.124,0.959,-0.179,-2.075,-1.404,0.275,73.333,565544.000,1.000
-1.267,-5.192,-4.199,2.501,2.346,-2.821,5.849,8.827,-0.126,0.959,-0.178,-2.075,-1.465,0.244,73.333,565545.000,1.000
0.340,-4.504,-3.203,2.568,1.809,-3.829,3.685,7.328,-0.127,0.958,-0.178,-2.045,-1.434,0.214,73.333,565546.000,1.000
2.178,-4.166,-2.030,1.993,0.475,-4.750,-0.259,3.908,-0.129,0.959,-0.179,-1.953,-1.556,0.244,73.333,565547.000,1.000
3.864,-4.346,-1.090,1.107,-1.300,-5.300,-4.207,-0.100,-0.129,0.958,-0.178,-1.923,-1.648,0.183,73.333,565548.000,1.000
5.242,-4.768,-0.397,0.368,-2.788,-4.906,-6.008,-3.196,-0.130,0.955,-0.178,-1.831,-1.801,0.122,73.333,565549.000,1.000
6.399,-4.929,0.257,0.157,-3.208,-2.964,-4.304,-4.339,-0.129,0.956,-0.179,-1.709,-1.892,0.183,73.333,565550.000,1.000
7.497,-4.555,0.945,0.449,-2.401,0.268,0.225,-3.512,-0.129,0.959,-0.178,-1.617,-1.892,0.061,73.333,565551.000,1.000
8.589,-3.872,1.280,0.714,-1.191,3.007,4.699,-1.804,-0.128,0.957,-0.177,-1.526,-1.953,0.122,73.333,565552.000,1.000
9.612,-3.337,0.817,0.359,-0.799,2.983,5.915,-0.652,-0.128,0.958,-0.178,-1.434,-2.106,0.061,73.333,565553.000,1.000
10.534,-3.042,-0.291,-0.635,-1.623,-0.125,3.191,-0.644,-0.128,0.958,-0.180,-1.404,-2.197,0.061,73.333,565554.000,1.000
11.462,-2.524,-1.352,-1.630,-2.728,-3.796,-0.916,-1.036,-0.126,0.962,-0.182,-1.404,-2.228,0.153,73.333,565555.000,1.000
12.471,-1.351,-1.616,-1.933,-2.863,-5.126,-3.297,-0.708,-0.125,0.962,-0.181,-1.373,-2.228,0.183,73.333,565556.000,1.000
13.325,0.233,-1.010,-1.500,-1.856,-3.801,-3.488,0.391,-0.123,0.962,-0.182,-1.404,-2.167,0.244,73.333,565557.000,1.000
13.537,1.429,-0.101,-0.959,-0.701,-2.016,-3.501,1.080,-0.125,0.963,-0.180,-1.434,-2.228,0.244,73.333,565558.000,1.000
12.744,1.552,0.488,-1.022,-0.499,-1.983,-5.284,0.066,-0.122,0.962,-0.177,-1.343,-2.258,0.305,73.333,565559.000,1.000
10.999,0.557,0.426,-1.920,-1.522,-3.924,-8.836,-2.953,-0.123,0.963,-0.178,-1.312,-2.136,0.366,73.333,565560.000,1.000
8.806,-0.867,0.036,-3.153,-3.024,-6.046,-12.133,-6.920,-0.122,0.962,-0.180,-1.221,-2.136,0.427,73.333,565561.000,1.000
6.897,-1.726,-0.027,-3.757,-3.854,-6.379,-13.001,-10.032,-0.124,0.963,-0.180,-1.312,-2.197,0.427,73.333,565562.000,1.000
5.850,-1.420,0.643,-3.022,-3.340,-4.586,-10.832,-10.865,-0.123,0.964,-0.180,-1.282,-2.197,0.458,73.333,565563.000,1.000
5.794,-0.074,1.885,-1.084,-1.667,-1.774,-6.386,-9.154,-0.123,0.965,-0.181,-1.282,-2.075,0.610,73.333,565564.000,1.000
6.402,1.729,3.074,1.178,0.418,0.928,-0.895,-5.751,-0.123,0.966,-0.180,-1.282,-2.075,0.671,73.333,565565.000,1.000
7.193,3.349,3.783,2.849,2.068,2.868,4.197,-2.015,-0.124,0.965,-0.180,-1.343,-2.136,0.793,73.333,565566.000,1.000
7.777,4.225,3.899,3.446,2.571,3.316,6.879,0.650,-0.124,0.966,-0.178,-1.312,-2.136,0.793,73.333,565567.000,1.000
7.889,3.953,3.405,2.892,1.503,1.434,5.251,1.081,-0.123,0.966,-0.180,-1.373,-2.106,0.916,73.333,565568.000,1.000
7.418,2.580,2.384,1.436,-0.876,-2.676,-0.603,-1.039,-0.124,0.966,-0.177,-1.221,-2.014,0.854,73.333,565569.000,1.000
6.546,0.783,1.095,-0.330,-3.388,-7.286,-7.831,-4.587,-0.124,0.966,-0.181,-1.251,-2.136,0.824,73.333,565570.000,1.000
5.742,-0.443,0.087,-1.643,-4.425,-9.698,-12.193,-7.328,-0.126,0.967,-0.183,-1.343,-2.045,0.824,73.333,565571.000,1.000
5.443,-0.412,-0.307,-2.036,-3.006,-7.897,-10.744,-7.431,-0.126,0.969,-0.184,-1.251,-2.136,0.793,73.333,565572.000,1.000
5.674,0.759,-0.348,-1.699,0.389,-2.304,-3.921,-4.829,-0.126,0.971,-0.181,-1.221,-2.075,0.793,73.333,565573.000,1.000
5.941,2.102,-0.771,-1.427,3.896,3.809,4.287,-1.254,-0.125,0.970,-0.180,-1.312,-2.167,0.824,73.333,565574.000,1.000
5.483,2.360,-2.451,-2.171,5.351,6.338,8.554,0.948,-0.127,0.970,-0.183,-1.312,-2.136,0.916,73.333,565575.000,1.000
3.810,0.995,-5.554,-4.326,3.833,3.652,6.156,0.415,-0.127,0.970,-0.178,-1.434,-2.106,0.793,73.333,565576.000,1.000
1.160,-1.226,-9.162,-7.300,0.500,-1.694,-0.680,-2.303,-0.128,0.969,-0.178,-1.495,-2.197,0.732,73.333,565577.000,1.000
-1.572,-2.799,-11.634,-9.794,-2.262,-5.094,-6.722,-5.199,-0.126,0.966,-0.179,-1.465,-2.197,0.702,73.333,565578.000,1.000
-3.498,-2.857,-11.738,-10.693,-2.862,-4.397,-8.453,-6.398,-0.124,0.966,-0.181,-1.465,-2.197,0.732,73.333,565579.000,1.000
-4.362,-1.892,-9.733,-9.810,-1.661,-1.718,-6.505,-5.496,-0.123,0.964,-0.185,-1.434,-2.197,0.641,73.333,565580.000,1.000
-4.513,-1.067,-6.912,-7.769,-0.134,-0.546,-3.524,-3.359,-0.122,0.965,-0.183,-1.282,-2.136,0.610,73.333,565581.000,1.000
-4.541,-1.161,-4.676,-5.434,0.617,-2.182,-1.201,-1.092,-0.119,0.966,-0.184,-1.160,-2.136,0.702,73.333,565582.000,1.000
-4.959,-2.210,-3.837,-3.445,0.416,-5.202,0.300,0.582,-0.120,0.969,-0.184,-1.068,-2.197,0.732,73.333,565583.000,1.000
-5.981,-3.675,-4.342,-2.017,-0.297,-7.072,1.370,1.349,-0.120,0.970,-0.181,-1.160,-2.045,0.763,73.333,565584.000,1.000
-7.417,-4.758,-5.534,-0.982,-0.790,-5.860,2.583,1.327,-0.120,0.970,-0.181,-1.099,-1.953,0.763,73.333,565585.000,1.000
-8.784,-4.871,-6.405,0.026,-0.424,-1.594,4.632,1.108,-0.119,0.968,-0.180,-1.221,-1.892,0.763,73.333,565586.000,1.000
-9.573,-4.011,-6.152,1.279,0.857,3.404,7.296,1.340,-0.119,0.966,-0.180,-1.251,-1.648,0.916,73.333,565587.000,1.000
-9.495,-2.587,-4.508,2.792,2.552,6.389,9.367,2.211,-0.120,0.963,-0.176,-1.312,-1.617,1.038,73.333,565588.000,1.000
-8.553,-1.028,-1.831,4.306,4.040,6.444,9.818,3.258,-0.122,0.959,-0.180,-1.312,-1.556,1.038,73.333,565589.000,1.000
-7.059,0.244,0.810,5.305,4.715,4.235,8.038,3.506,-0.125,0.958,-0.180,-1.251,-1.587,1.068,73.333,565590.000,1.000
-5.616,0.713,2.244,5.248,4.039,0.526,3.697,2.217,-0.128,0.956,-0.180,-1.129,-1.556,0.916,73.333,565591.000,1.000
-4.875,0.099,1.836,3.971,1.995,-3.814,-2.525,-0.315,-0.130,0.957,-0.181,-0.916,-1.617,0.793,73.333,565592.000,1.000
-5.044,-1.137,0.004,1.957,-0.473,-6.944,-8.098,-2.768,-0.131,0.960,-0.180,-0.641,-1.678,0.580,73.333,565593.000,1.000
-5.717,-1.917,-1.953,0.136,-1.866,-6.614,-9.755,-3.692,-0.131,0.962,-0.178,-0.671,-1.831,0.427,73.333,565594.000,1.000
-6.384,-1.503,-2.967,-0.820,-1.382,-2.398,-6.452,-2.593,-0.129,0.964,-0.178,-0.763,-1.831,0.336,73.333,565595.000,1.000
-6.943,-0.201,-2.847,-0.985,0.279,3.116,-0.700,-0.297,-0.127,0.965,-0.177,-0.732,-1.984,0.183,73.333,565596.000,1.000
-7.583,1.050,-2.194,-0.963,1.625,6.371,3.614,1.704,-0.127,0.967,-0.175,-0.793,-1.953,0.122,73.333,565597.000,1.000
-8.286,1.662,-1.596,-1.239,1.830,6.080,4.737,2.413,-0.129,0.966,-0.177,-0.854,-1.923,0.153,73.333,565598.000,1.000
-8.600,1.843,-1.047,-1.781,1.339,3.986,4.010,1.991,-0.128,0.967,-0.176,-0.793,-2.045,0.092,73.333,565599.000,1.000
-7.931,2.200,-0.267,-2.191,1.247,2.890,3.860,1.374,-0.127,0.967,-0.176,-0.916,-2.075,0.031,73.333,565600.000,1.000
-6.120,2.948,0.893,-2.127,2.176,4.191,5.549,1.381,-0.125,0.969,-0.178,-1.007,-2.106,0.061,73.333,565601.000,1.000
-3.767,3.534,2.045,-1.624,3.738,6.995,8.472,2.159,-0.125,0.969,-0.180,-1.038,-2.167,0.031,73.333,565602.000,1.000
-1.864,3.256,2.594,-0.871,5.167,9.614,11.502,3.616,-0.123,0.968,-0.178,-1.068,-2.136,0.000,73.333,565603.000,1.000
-1.201,2.012,2.300,0.106,6.163,11.464,14.400,5.817,-0.123,0.969,-0.175,-1.068,-2.167,0.183,73.333,565604.000,1.000
-2.295,-0.052,0.999,1.112,6.464,12.435,16.799,8.162,-0.123,0.967,-0.173,-1.221,-2.136,0.244,73.333,565605.000,1.000
-5.467,-3.245,-1.617,1.421,5.078,11.146,16.585,8.809,-0.125,0.967,-0.177,-1.343,-1.984,0.397,73.333,565606.000,1.000
-10.462,-7.910,-5.727,0.276,1.058,5.944,11.357,5.972,-0.124,0.966,-0.179,-1.282,-1.953,0.519,73.333,565607.000,1.000
-16.090,-13.502,-10.775,-2.267,-5.069,-2.529,1.715,-0.208,-0.125,0.967,-0.179,-1.343,-1.862,0.641,73.333,565608.000,1.000
-20.676,-18.752,-15.548,-5.390,-11.523,-11.536,-8.777,-7.732,-0.126,0.967,-0.178,-1.373,-1.953,0.824,73.333,565609.000,1.000
-22.903,-22.518,-18.958,-8.230,-16.626,-18.552,-16.642,-14.359,-0.127,0.968,-0.177,-1.526,-2.045,1.038,73.333,565610.000,1.000
-22.288,-24.229,-20.316,-10.232,-19.534,-22.467,-20.438,-18.645,-0.128,0.967,-0.177,-1.587,-2.106,1.160,73.333,565611.000,1.000
-19.401,-24.145,-19.768,-11.328,-20.434,-23.760,-21.244,-20.212,-0.129,0.965,-0.180,-1.648,-2.136,1.343,73.333,565612.000,1.000
-15.789,-23.432,-18.446,-12.093,-20.517,-24.187,-21.664,-19.769,-0.129,0.963,-0.177,-1.678,-2.197,1.495,73.333,565613.000,1.000
-13.129,-23.371,-17.712,-13.308,-21.143,-25.218,-23.300,-18.610,-0.128,0.962,-0.174,-1.648,-2.197,1.648,73.333,565614.000,1.000
-12.141,-24.299,-18.245,-15.195,-22.632,-26.383,-25.121,-17.695,-0.127,0.962,-0.175,-1.556,-2.350,1.709,73.333,565615.000,1.000
-12.353,-25.483,-19.592,-17.204,-24.096,-25.746,-24.719,-17.191,-0.129,0.961,-0.176,-1.648,-2.411,1.709,73.333,565616.000,1.000
-12.737,-25.943,-20.804,-18.612,-24.498,-22.241,-21.327,-16.956,-0.128,0.962,-0.177,-1.587,-2.533,1.678,73.333,565617.000,1.000
-12.421,-25.242,-21.151,-19.060,-23.653,-17.251,-17.019,-17.022,-0.128,0.966,-0.178,-1.434,-2.533,1.678,73.333,565618.000,1.000
-11.031,-23.663,-20.365,-18.559,-22.160,-13.768,-14.841,-17.376,-0.129,0.963,-0.172,-1.343,-2.655,1.740,73.333,565619.000,1.000
-8.597,-21.639,-18.542,-17.109,-20.464,-13.634,-15.909,-17.402,-0.129,0.961,-0.174,-1.373,-2.747,1.770,73.333,565620.000,1.000
-5.275,-19.072,-15.609,-14.433,-18.114,-15.363,-17.830,-15.878,-0.126,0.962,-0.172,-1.343,-2.686,1.801,73.333,565621.000,1.000
-1.404,-15.553,-11.541,-10.353,-14.315,-15.339,-16.625,-12.056,-0.128,0.964,-0.174,-1.282,-2.899,1.770,73.333,565622.000,1.000
2.307,-11.286,-6.818,-5.399,-9.248,-11.656,-10.908,-6.756,-0.126,0.965,-0.175,-1.373,-2.960,1.740,73.333,565623.000,1.000
5.059,-7.239,-2.241,-0.675,-4.269,-5.924,-3.499,-1.882,-0.128,0.965,-0.177,-1.251,-2.960,1.831,73.333,565624.000,1.000
6.550,-4.161,1.628,2.982,-0.495,-0.752,1.812,1.289,-0.127,0.964,-0.178,-1.404,-2.991,1.923,73.333,565625.000,1.000
7.144,-1.866,4.897,5.539,2.197,2.986,3.938,3.061,-0.127,0.965,-0.176,-1.312,-2.991,1.923,73.333,565626.000,1.000
7.367,0.171,7.621,7.321,4.388,5.486,3.893,4.430,-0.128,0.965,-0.176,-1.221,-2.960,1.953,73.333,565627.000,1.000
7.378,2.011,9.341,8.427,6.136,6.630,2.821,5.844,-0.126,0.964,-0.174,-1.221,-2.991,2.045,73.333,565628.000,1.000
6.971,3.315,9.649,8.769,7.140,6.429,1.713,7.018,-0.126,0.964,-0.174,-1.251,-3.113,2.106,73.333,565629.000,1.000
5.864,3.741,8.547,8.293,7.235,5.441,1.385,7.506,-0.128,0.964,-0.174,-1.221,-3.265,2.167,73.333,565630.000,1.000
3.962,3.136,6.529,7.048,6.429,4.222,2.004,7.073,-0.131,0.965,-0.176,-1.068,-3.326,2.411,73.333,565631.000,1.000
1.493,1.572,4.169,5.068,4.681,2.775,2.513,5.377,-0.130,0.966,-0.175,-1.099,-3.418,2.502,73.333,565632.000,1.000
-1.083,-0.753,1.786,2.356,1.841,0.367,1.048,2.005,-0.132,0.967,-0.174,-1.160,-3.540,2.441,73.333,565633.000,1.000
-3.313,-3.561,-0.573,-0.860,-1.973,-3.754,-3.281,-2.626,-0.129,0.967,-0.175,-1.312,-3.632,2.563,73.333,565634.000,1.000
-4.840,-6.334,-2.977,-3.972,-5.963,-8.965,-9.037,-6.900,-0.129,0.969,-0.176,-1.282,-3.662,2.594,73.333,565635.000,1.000
-5.391,-8.269,-5.089,-6.226,-8.842,-12.884,-13.040,-8.945,-0.129,0.968,-0.174,-1.312,-3.876,2.716,73.333,565636.000,1.000
-4.931,-8.678,-6.372,-7.203,-9.625,-12.903,-12.607,-7.912,-0.129,0.966,-0.177,-1.343,-3.998,2.747,73.333,565637.000,1.000
-3.893,-7.586,-6.608,-7.038,-8.354,-8.372,-7.423,-4.432,-0.131,0.968,-0.176,-1.251,-4.181,2.777,73.333,565638.000,1.000
-3.038,-5.848,-6.108,-6.330,-6.201,-1.340,0.153,-0.308,-0.132,0.967,-0.176,-1.312,-4.364,2.747,73.333,565639.000,1.000
-2.980,-4.701,-5.698,-5.925,-4.942,4.496,5.944,2.018,-0.130,0.967,-0.176,-1.251,-4.425,2.808,73.333,565640.000,1.000
-3.836,-5.166,-6.168,-6.543,-6.103,5.419,5.819,0.631,-0.130,0.968,-0.175,-1.251,-4.517,2.777,73.333,565641.000,1.000
-5.186,-7.390,-7.722,-8.250,-9.806,-0.058,-1.391,-4.287,-0.130,0.967,-0.176,-1.282,-4.700,2.747,73.333,565642.000,1.000
-6.195,-10.220,-9.496,-10.177,-14.164,-9.263,-11.958,-10.092,-0.130,0.965,-0.175,-1.221,-4.700,2.716,73.333,565643.000,1.000
-6.069,-11.874,-10.017,-11.098,-16.518,-16.856,-19.856,-13.597,-0.129,0.966,-0.177,-1.099,-4.791,2.808,73.333,565644.000,1.000
-4.618,-11.285,-8.503,-10.387,-15.512,-18.885,-21.548,-13.434,-0.127,0.966,-0.176,-1.068,-4.913,2.716,73.333,565645.000,1.000
-2.288,-8.557,-5.113,-8.169,-11.614,-14.664,-17.148,-10.388,-0.126,0.966,-0.177,-1.099,-4.944,2.777,73.333,565646.000,1.000
0.275,-4.428,-0.541,-4.864,-6.065,-5.566,-8.513,-6.065,-0.127,0.966,-0.177,-1.099,-5.035,2.808,73.333,565647.000,1.000
2.503,0.229,4.388,-0.959,-0.048,6.117,1.973,-1.812,-0.126,0.967,-0.175,-1.190,-5.249,2.747,73.333,565648.000,1.000
3.922,4.420,8.798,2.868,5.221,16.867,11.098,1.429,-0.125,0.967,-0.177,-1.190,-5.219,2.686,73.333,565649.000,1.000
4.218,7.140,11.744,5.800,8.514,22.454,15.404,3.090,-0.124,0.966,-0.175,-1.129,-5.249,2.625,73.333,565650.000,1.000
3.559,8.024,12.880,7.362,9.376,20.878,13.848,3.231,-0.124,0.968,-0.173,-1.099,-5.249,2.625,73.333,565651.000,1.000
2.674,7.700,12.652,7.695,8.546,14.445,8.914,2.439,-0.124,0.969,-0.176,-1.160,-5.371,2.625,73.333,565652.000,1.000
2.324,7.099,11.831,7.289,7.154,7.536,4.148,1.281,-0.124,0.968,-0.177,-1.099,-5.402,2.686,73.333,565653.000,1.000
2.690,6.563,10.958,6.550,5.745,2.811,1.164,-0.067,-0.125,0.967,-0.175,-1.221,-5.371,2.777,73.333,565654.000,1.000
3.320,5.893,10.099,5.659,4.353,0.364,-0.561,-1.620,-0.124,0.968,-0.175,-1.221,-5.371,2.686,73.333,565655.000,1.000
3.596,4.935,9.310,4.757,3.093,-0.745,-1.813,-3.076,-0.123,0.967,-0.175,-1.190,-5.493,2.686,73.333,565656.000,1.000
3.267,3.826,8.665,3.966,2.254,-1.305,-2.876,-3.957,-0.122,0.966,-0.177,-1.068,-5.341,2.686,73.333,565657.000,1.000
2.654,2.939,8.147,3.298,2.054,-1.361,-3.611,-4.139,-0.122,0.966,-0.177,-1.160,-5.402,2.686,73.333,565658.000,1.000
2.367,2.849,7.790,2.768,2.726,0.295,-2.820,-3.743,-0.120,0.965,-0.175,-1.221,-5.402,2.686,73.333,565659.000,1.000
2.775,3.965,7.566,2.476,4.446,5.044,1.163,-2.757,-0.118,0.967,-0.176,-1.312,-5.310,2.625,73.333,565660.000,1.000
3.642,5.822,7.259,2.390,6.618,11.670,7.508,-1.238,-0.118,0.967,-0.175,-1.190,-5.249,2.686,73.333,565661.000,1.000
4.298,7.141,6.295,2.197,7.794,16.065,11.970,0.371,-0.118,0.967,-0.172,-1.221,-5.127,2.686,73.333,565662.000,1.000
4.267,6.972,4.312,1.592,6.923,14.934,10.871,1.532,-0.116,0.966,-0.173,-1.282,-5.066,2.594,73.333,565663.000,1.000
3.619,5.456,1.742,0.556,4.238,8.705,4.446,1.868,-0.116,0.964,-0.175,-1.282,-4.974,2.625,73.333,565664.000,1.000
2.741,3.576,-0.531,-0.639,1.003,0.940,-3.970,1.252,-0.117,0.964,-0.175,-1.251,-4.913,2.533,73.333,565665.000,1.000
2.055,2.598,-1.533,-1.468,-1.068,-3.869,-9.913,0.139,-0.116,0.965,-0.178,-1.251,-4.822,2.716,73.333,565666.000,1.000
1.848,3.398,-0.752,-1.379,-0.598,-2.825,-9.891,-0.532,-0.117,0.964,-0.176,-1.312,-4.730,2.655,73.333,565667.000,1.000
2.161,5.859,1.595,-0.197,2.550,3.539,-3.487,0.029,-0.117,0.966,-0.178,-1.221,-4.669,2.655,73.333,565668.000,1.000
2.815,8.973,4.803,1.739,7.205,11.944,6.421,2.001,-0.115,0.966,-0.176,-1.068,-4.456,2.563,73.333,565669.000,1.000
3.553,11.620,7.920,3.769,11.677,18.867,15.480,4.812,-0.116,0.963,-0.172,-1.190,-4.395,2.594,73.333,565670.000,1.000
4.101,13.018,10.134,5.149,14.329,21.771,19.772,7.194,-0.115,0.963,-0.171,-1.312,-4.333,2.625,73.333,565671.000,1.000
4.210,12.743,10.823,5.280,13.953,19.112,17.136,7.639,-0.113,0.963,-0.174,-1.160,-4.333,2.594,73.333,565672.000,1.000
3.930,11.052,9.947,4.214,10.601,11.395,8.651,5.511,-0.115,0.963,-0.174,-1.251,-4.150,2.533,73.333,565673.000,1.000
3.737,9.023,8.345,2.779,5.894,1.846,-1.476,1.650,-0.116,0.964,-0.174,-1.129,-4.211,2.441,73.333,565674.000,1.000
4.110,7.852,7.096,1.897,2.007,-5.375,-8.491,-2.293,-0.114,0.963,-0.176,-1.221,-4.089,2.533,73.333,565675.000,1.000
5.091,8.092,6.930,1.958,0.411,-7.520,-9.518,-4.799,-0.115,0.964,-0.176,-1.160,-3.937,2.533,73.333,565676.000,1.000
6.336,9.533,7.887,2.783,1.345,-4.219,-4.662,-5.060,-0.115,0.965,-0.175,-1.160,-3.693,2.502,73.333,565677.000,1.000
7.425,11.439,9.499,3.941,3.950,2.579,3.296,-3.117,-0.113,0.966,-0.175,-1.099,-3.571,2.350,73.333,565678.000,1.000
8.041,12.816,11.098,4.961,6.688,9.455,10.288,0.113,-0.114,0.966,-0.177,-1.099,-3.479,2.380,73.333,565679.000,1.000
8.011,12.785,11.800,5.352,7.966,13.276,12.780,2.876,-0.112,0.968,-0.175,-1.190,-3.387,2.258,73.333,565680.000,1.000
7.365,11.050,10.987,4.802,6.928,12.842,9.602,3.386,-0.112,0.966,-0.173,-1.129,-3.296,2.228,73.333,565681.000,1.000
6.328,8.147,8.654,3.415,4.018,9.272,2.658,1.127,-0.112,0.966,-0.173,-1.282,-3.113,2.258,73.333,565682.000,1.000
5.230,5.267,5.519,1.721,0.756,5.139,-4.086,-2.701,-0.110,0.967,-0.175,-1.373,-2.960,2.197,73.333,565683.000,1.000
4.392,3.549,2.685,0.313,-1.394,2.472,-7.494,-6.120,-0.110,0.968,-0.176,-1.434,-2.991,2.106,73.333,565684.000,1.000
3.989,3.273,0.834,-0.579,-2.094,1.084,-7.785,-7.733,-0.109,0.968,-0.179,-1.373,-2.777,2.136,73.333,565685.000,1.000
4.045,3.858,0.163,-1.010,-1.926,-0.470,-7.150,-7.289,-0.111,0.966,-0.176,-1.343,-2.594,2.106,73.333,565686.000,1.000
4.503,4.624,0.614,-0.992,-1.313,-2.437,-6.430,-5.355,-0.110,0.966,-0.174,-1.434,-2.563,1.984,73.333,565687.000,1.000
5.193,5.320,2.009,-0.420,-0.068,-3.395,-4.493,-2.620,-0.111,0.967,-0.173,-1.373,-2.411,1.892,73.333,565688.000,1.000
5.675,5.913,3.892,0.656,1.937,-2.197,-0.712,0.386,-0.110,0.966,-0.178,-1.373,-2.258,1.831,73.333,565689.000,1.000
5.333,6.255,5.419,1.820,4.160,0.554,3.353,3.087,-0.110,0.965,-0.179,-1.495,-2.075,1.740,73.333,565690.000,1.000
3.838,6.197,6.056,2.583,5.793,3.338,5.627,4.840,-0.111,0.965,-0.178,-1.495,-2.014,1.678,73.333,565691.000,1.000
1.471,5.821,5.835,2.720,6.520,5.371,5.677,5.213,-0.112,0.965,-0.177,-1.465,-1.831,1.617,73.333,565692.000,1.000
-1.053,5.342,5.126,2.358,6.611,6.834,4.654,4.352,-0.111,0.967,-0.175,-1.404,-1.648,1.526,73.333,565693.000,1.000
-2.998,4.884,4.394,1.878,6.501,7.912,3.900,3.041,-0.111,0.969,-0.176,-1.404,-1.617,1.465,73.333,565694.000,1.000
-3.863,4.492,3.930,1.718,6.529,8.374,4.160,2.322,-0.111,0.968,-0.179,-1.617,-1.526,1.343,73.333,565695.000,1.000
-3.478,4.258,4.004,2.212,6.939,7.991,5.776,3.022,-0.112,0.968,-0.174,-1.587,-1.465,1.282,73.333,565696.000,1.000
-2.084,4.261,4.670,3.390,7.762,6.845,8.427,5.253,-0.111,0.968,-0.174,-1.740,-1.373,1.251,73.333,565697.000,1.000
-0.250,4.470,5.698,4.875,8.661,5.237,10.776,8.101,-0.109,0.967,-0.173,-1.678,-1.282,1.190,73.333,565698.000,1.000
1.476,4.769,6.796,6.071,9.104,3.568,11.138,9.988,-0.110,0.966,-0.175,-1.770,-1.129,1.068,73.333,565699.000,1.000
2.763,4.983,7.622,6.517,8.835,2.288,8.846,9.756,-0.110,0.966,-0.176,-1.801,-1.068,0.977,73.333,565700.000,1.000
3.402,4.806,7.963,6.142,7.976,1.429,4.607,7.523,-0.110,0.967,-0.177,-1.801,-0.977,0.854,73.333,565701.000,1.000
3.147,3.747,7.543,5.064,6.532,-0.017,-0.815,4.280,-0.111,0.967,-0.178,-1.770,-0.763,0.793,73.333,565702.000,1.000
1.888,1.469,6.102,3.391,4.286,-3.379,-6.978,1.041,-0.110,0.967,-0.176,-1.801,-0.641,0.671,73.333,565703.000,1.000
-0.032,-1.729,3.801,1.331,1.421,-8.498,-12.657,-1.403,-0.113,0.966,-0.177,-1.831,-0.549,0.549,73.333,565704.000,1.000
-1.816,-4.836,1.247,-0.647,-1.026,-12.985,-15.463,-2.350,-0.114,0.966,-0.174,-1.923,-0.580,0.519,73.333,565705.000,1.000
-2.564,-6.575,-0.538,-1.852,-1.590,-13.506,-12.841,-1.200,-0.114,0.966,-0.174,-1.923,-0.641,0.458,73.333,565706.000,1.000
-1.832,-6.235,-0.832,-1.815,0.441,-8.515,-4.292,1.964,-0.114,0.966,-0.176,-1.770,-0.549,0.366,73.333,565707.000,1.000
0.057,-4.243,0.206,-0.684,4.212,-0.107,7.225,6.076,-0.116,0.966,-0.176,-1.801,-0.610,0.305,73.333,565708.000,1.000
2.303,-1.790,1.825,0.949,7.908,7.326,16.869,9.750,-0.117,0.969,-0.175,-1.953,-0.610,0.305,73.333,565709.000,1.000
4.153,0.081,3.178,2.474,10.056,10.381,21.139,12.119,-0.117,0.966,-0.172,-2.014,-0.610,0.153,73.333,565710.000,1.000
5.150,1.004,3.886,3.548,10.178,8.581,19.445,12.980,-0.118,0.965,-0.171,-1.953,-0.580,0.061,73.333,565711.000,1.000
5.069,1.144,3.903,4.068,8.546,3.643,12.974,12.316,-0.119,0.963,-0.172,-1.892,-0.732,0.031,73.333,565712.000,1.000
3.923,0.865,3.413,4.124,5.854,-2.189,3.723,10.120,-0.122,0.965,-0.171,-1.923,-0.916,0.031,73.333,565713.000,1.000
2.179,0.726,3.044,4.158,3.297,-6.650,-5.139,6.906,-0.123,0.966,-0.170,-1.831,-1.007,-0.061,73.333,565714.000,1.000
0.713,1.408,3.535,4.851,2.243,-7.681,-9.886,3.842,-0.122,0.966,-0.168,-1.831,-1.129,-0.092,73.333,565715.000,1.000
0.241,3.133,5.170,6.469,3.143,-4.808,-8.530,1.900,-0.122,0.967,-0.170,-1.892,-1.251,-0.214,73.333,565716.000,1.000
0.870,5.309,7.296,8.386,5.025,0.067,-2.561,1.083,-0.124,0.966,-0.169,-1.923,-1.312,-0.214,73.333,565717.000,1.000
2.180,6.955,8.845,9.479,6.310,4.005,4.026,0.734,-0.125,0.969,-0.167,-1.892,-1.465,-0.214,73.333,565718.000,1.000
3.474,7.313,9.166,8.881,5.922,4.998,7.510,0.170,-0.126,0.968,-0.169,-1.892,-1.648,-0.305,73.333,565719.000,1.000
4.112,6.264,8.210,6.503,3.943,3.174,6.919,-0.842,-0.126,0.965,-0.170,-1.953,-1.740,-0.366,73.333,565720.000,1.000
4.043,4.621,6.764,3.309,1.741,0.837,4.754,-1.641,-0.126,0.965,-0.172,-1.892,-1.862,-0.397,73.333,565721.000,1.000
3.963,3.809,6.033,0.910,1.134,0.849,4.570,-1.004,-0.127,0.966,-0.171,-1.862,-1.984,-0.336,73.333,565722.000,1.000
4.681,4.772,6.734,0.466,2.858,4.134,7.321,1.559,-0.128,0.968,-0.167,-1.892,-2.258,-0.305,73.333,565723.000,1.000
6.354,7.042,8.506,1.847,5.725,8.434,10.343,4.859,-0.128,0.968,-0.170,-1.984,-2.441,-0.214,73.333,565724.000,1.000
8.332,9.000,10.041,3.824,7.488,9.783,9.994,6.759,-0.130,0.968,-0.170,-1.923,-2.655,-0.305,73.333,565725.000,1.000
9.655,9.195,10.233,5.076,6.741,6.080,5.432,6.116,-0.129,0.968,-0.169,-1.923,-2.777,-0.305,73.333,565726.000,1.000
9.713,7.436,8.812,5.019,3.991,-0.790,-0.472,3.708,-0.128,0.966,-0.170,-1.923,-2.869,-0.214,73.333,565727.000,1.000
8.616,4.721,6.355,3.939,0.969,-6.799,-3.670,1.355,-0.128,0.966,-0.168,-1.892,-3.143,-0.153,73.333,565728.000,1.000
7.041,2.305,3.918,2.578,-0.850,-9.151,-2.299,0.476,-0.128,0.967,-0.167,-1.801,-3.235,-0.031,73.333,565729.000,1.000
5.671,0.899,2.276,1.516,-1.158,-7.779,1.919,1.254,-0.128,0.966,-0.169,-1.862,-3.326,-0.092,73.333,565730.000,1.000
4.762,0.487,1.655,0.883,-0.704,-4.654,5.244,2.725,-0.128,0.967,-0.168,-1.831,-3.357,-0.031,73.333,565731.000,1.000
4.160,0.645,1.634,0.514,-0.406,-1.937,5.045,3.607,-0.125,0.967,-0.170,-1.831,-3.510,0.000,73.333,565732.000,1.000
3.549,1.063,1.605,0.377,-0.356,-0.099,2.199,3.434,-0.125,0.970,-0.169,-1.709,-3.632,0.122,73.333,565733.000,1.000
2.656,1.765,1.343,0.735,0.202,2.041,0.263,2.943,-0.126,0.970,-0.168,-1.770,-3.815,0.214,73.333,565734.000,1.000
1.335,2.765,0.844,1.760,1.814,5.150,1.783,3.128,-0.124,0.971,-0.168,-1.678,-3.845,0.183,73.333,565735.000,1.000
-0.352,3.670,0.197,3.115,3.915,7.874,5.678,4.125,-0.121,0.968,-0.170,-1.709,-3.784,0.244,73.333,565736.000,1.000
-2.140,3.808,-0.642,3.986,5.137,7.876,8.236,5.045,-0.122,0.968,-0.169,-1.617,-3.723,0.275,73.333,565737.000,1.000
-3.699,2.770,-1.754,3.651,4.476,4.235,6.896,4.887,-0.121,0.969,-0.170,-1.709,-3.784,0.397,73.333,565738.000,1.000
-4.810,0.800,-3.023,2.046,2.147,-1.282,2.884,3.485,-0.119,0.968,-0.171,-1.587,-3.723,0.366,73.333,565739.000,1.000
-5.384,-1.307,-4.253,-0.197,-0.615,-5.369,-0.039,1.615,-0.121,0.967,-0.173,-1.556,-3.784,0.458,73.333,565740.000,1.000
-5.405,-2.751,-5.143,-2.225,-2.550,-5.709,0.967,0.333,-0.121,0.967,-0.168,-1.465,-3.845,0.458,73.333,565741.000,1.000
-5.059,-3.388,-5.685,-3.610,-3.394,-2.894,5.052,0.000,-0.121,0.968,-0.170,-1.373,-3.662,0.549,73.333,565742.000,1.000
-4.795,-3.810,-6.232,-4.516,-3.921,0.065,8.600,0.077,-0.123,0.967,-0.169,-1.343,-3.754,0.580,73.333,565743.000,1.000
-4.959,-4.512,-6.919,-5.197,-4.775,0.821,9.281,0.006,-0.125,0.968,-0.169,-1.343,-3.784,0.732,73.333,565744.000,1.000
-5.392,-5.191,-7.449,-5.566,-5.580,0.054,8.230,-0.069,-0.125,0.969,-0.167,-1.465,-3.815,0.854,73.333,565745.000,1.000
-5.581,-5.087,-7.329,-5.311,-5.494,0.183,8.146,0.423,-0.125,0.965,-0.168,-1.373,-3.906,1.007,73.333,565746.000,1.000
-5.158,-3.896,-6.604,-4.417,-4.377,2.349,10.000,1.508,-0.126,0.966,-0.168,-1.282,-3.845,0.977,73.333,565747.000,1.000
-4.142,-2.118,-5.911,-3.326,-3.122,5.171,12.068,2.323,-0.128,0.967,-0.167,-1.282,-3.906,1.038,73.333,565748.000,1.000
-2.804,-0.628,-5.827,-2.618,-2.937,5.996,11.436,1.795,-0.128,0.968,-0.167,-1.495,-3.998,1.099,73.333,565749.000,1.000
-1.594,-0.130,-6.608,-2.727,-4.524,2.916,6.000,-0.649,-0.128,0.969,-0.167,-1.556,-4.089,1.190,73.333,565750.000,1.000
-0.989,-0.799,-7.909,-3.698,-7.577,-3.909,-3.687,-4.690,-0.129,0.967,-0.169,-1.434,-4.242,1.251,73.333,565751.000,1.000
-1.103,-2.033,-8.829,-4.951,-10.615,-11.866,-13.718,-8.881,-0.126,0.967,-0.165,-1.312,-4.333,1.312,73.333,565752.000,1.000
-1.520,-2.618,-8.255,-5.433,-11.485,-16.640,-18.338,-10.958,-0.127,0.967,-0.167,-1.404,-4.333,1.343,73.333,565753.000,1.000
-1.726,-1.542,-5.604,-4.348,-8.771,-14.762,-13.696,-9.147,-0.127,0.967,-0.169,-1.526,-4.333,1.526,73.333,565754.000,1.000
-1.679,1.068,-1.654,-1.909,-3.167,-6.746,-1.688,-3.620,-0.127,0.970,-0.170,-1.465,-4.364,1.556,73.333,565755.000,1.000
-1.763,3.898,1.941,0.793,2.639,2.668,10.403,3.315,-0.129,0.971,-0.169,-1.526,-4.425,1.648,73.333,565756.000,1.000
-2.230,5.444,3.683,2.589,5.718,8.009,14.987,8.417,-0.127,0.970,-0.167,-1.495,-4.486,1.678,73.333,565757.000,1.000
-2.866,5.060,3.113,2.967,4.738,6.776,9.420,9.241,-0.128,0.969,-0.164,-1.526,-4.669,1.740,73.333,565758.000,1.000
-3.189,3.182,0.982,2.258,0.541,0.458,-2.877,5.409,-0.127,0.968,-0.168,-1.526,-4.730,1.740,73.333,565759.000,1.000
-2.820,0.914,-1.428,1.268,-4.507,-6.750,-15.034,-1.194,-0.126,0.969,-0.165,-1.495,-4.852,1.770,73.333,565760.000,1.000
-1.720,-0.616,-2.826,0.745,-7.871,-10.534,-20.579,-7.461,-0.127,0.966,-0.167,-1.465,-4.822,1.770,73.333,565761.000,1.000
-0.331,-0.959,-2.658,0.832,-8.379,-9.289,-17.422,-10.994,-0.127,0.966,-0.165,-1.404,-4.852,1.740,73.333,565762.000,1.000
0.590,-0.581,-1.404,1.031,-6.799,-5.084,-9.209,-11.313,-0.126,0.968,-0.163,-1.373,-5.005,1.740,73.333,565763.000,1.000
0.523,-0.297,-0.035,0.753,-4.859,-1.610,-2.120,-9.488,-0.123,0.968,-0.164,-1.434,-4.974,1.678,73.333,565764.000,1.000
-0.440,-0.501,0.537,-0.199,-3.806,-1.122,-0.183,-7.132,-0.126,0.968,-0.167,-1.465,-4.913,1.740,73.333,565765.000,1.000
-1.718,-0.912,0.095,-1.510,-3.703,-3.025,-2.882,-5.435,-0.125,0.968,-0.165,-1.587,-5.096,1.709,73.333,565766.000,1.000
-2.600,-0.831,-0.814,-2.470,-3.536,-4.477,-6.171,-4.414,-0.125,0.968,-0.164,-1.587,-5.066,1.648,73.333,565767.000,1.000
-2.553,0.277,-1.269,-2.327,-2.049,-2.590,-5.743,-2.954,-0.123,0.966,-0.164,-1.617,-5.157,1.740,73.333,565768.000,1.000
-1.464,2.217,-0.672,-0.844,1.038,2.833,-0.460,-0.015,-0.124,0.969,-0.164,-1.495,-5.157,1.648,73.333,565769.000,1.000
0.357,4.179,0.704,1.427,4.692,8.946,7.096,4.169,-0.124,0.969,-0.164,-1.617,-5.157,1.434,73.333,565770.000,1.000
2.423,5.422,2.215,3.519,7.491,12.500,13.238,8.303,-0.123,0.967,-0.166,-1.617,-5.188,1.526,73.333,565771.000,1.000
4.226,5.662,3.212,4.548,8.562,12.293,15.652,11.063,-0.123,0.966,-0.166,-1.556,-5.127,1.526,73.333,565772.000,1.000
5.292,5.027,3.294,4.083,7.888,9.528,14.409,11.802,-0.123,0.966,-0.168,-1.617,-5.127,1.343,73.333,565773.000,1.000
5.255,3.835,2.539,2.297,6.060,6.430,11.262,10.535,-0.125,0.967,-0.169,-1.617,-5.066,1.373,73.333,565774.000,1.000
3.908,2.209,1.129,-0.272,3.575,3.969,7.369,7.492,-0.126,0.966,-0.172,-1.617,-5.219,1.312,73.333,565775.000,1.000
1.242,-0.123,-0.810,-3.030,0.418,0.894,2.341,2.971,-0.123,0.966,-0.168,-1.556,-5.096,1.312,73.333,565776.000,1.000
-2.403,-3.353,-3.194,-5.398,-3.390,-4.371,-4.163,-2.323,-0.122,0.966,-0.166,-1.617,-4.974,1.221,73.333,565777.000,1.000
-6.194,-6.959,-5.620,-6.789,-7.088,-11.350,-10.936,-7.042,-0.124,0.966,-0.167,-1.495,-4.974,1.099,73.333,565778.000,1.000
-9.040,-9.834,-7.295,-6.794,-9.454,-17.572,-16.077,-9.759,-0.125,0.965,-0.168,-1.404,-4.883,1.068,73.333,565779.000,1.000
-10.148,-11.057,-7.701,-5.447,-9.693,-20.470,-18.580,-9.882,-0.123,0.964,-0.163,-1.404,-4.822,1.129,73.333,565780.000,1.000
-9.465,-10.490,-6.828,-3.236,-7.986,-19.226,-18.592,-7.892,-0.120,0.966,-0.166,-1.312,-4.761,1.129,73.333,565781.000,1.000
-7.762,-8.812,-5.333,-1.035,-5.406,-15.173,-16.986,-4.985,-0.121,0.966,-0.165,-1.221,-4.761,1.129,73.333,565782.000,1.000
-6.216,-6.992,-4.183,0.225,-3.242,-10.411,-14.558,-2.408,-0.120,0.966,-0.165,-1.190,-4.547,1.160,73.333,565783.000,1.000
-5.657,-5.630,-3.933,0.081,-2.213,-6.227,-11.533,-0.896,-0.122,0.968,-0.166,-1.160,-4.517,1.190,73.333,565784.000,1.000
-6.087,-4.716,-4.559,-1.194,-2.213,-2.850,-7.843,-0.577,-0.124,0.967,-0.165,-1.160,-4.425,1.068,73.333,565785.000,1.000
-6.808,-3.851,-5.453,-2.717,-2.561,0.048,-3.368,-1.070,-0.125,0.968,-0.164,-1.099,-4.395,1.007,73.333,565786.000,1.000
-7.068,-2.755,-6.018,-3.578,-2.639,2.536,1.262,-1.721,-0.125,0.968,-0.167,-1.221,-4.333,1.038,73.333,565787.000,1.000
-6.738,-1.704,-6.251,-3.506,-2.520,3.688,4.052,-2.070,-0.127,0.970,-0.166,-1.282,-4.272,1.068,73.333,565788.000,1.000
-6.416,-1.368,-6.665,-2.952,-2.771,2.374,3.183,-2.057,-0.125,0.969,-0.166,-1.465,-4.303,1.038,73.333,565789.000,1.000
-6.790,-2.085,-7.771,-2.485,-3.506,-1.012,-0.758,-1.566,-0.123,0.971,-0.167,-1.373,-4.242,1.007,73.333,565790.000,1.000
-7.929,-3.515,-9.420,-2.255,-4.137,-4.636,-5.116,-0.263,-0.122,0.971,-0.166,-1.373,-4.089,1.068,73.333,565791.000,1.000
-9.227,-5.073,-11.125,-2.209,-4.267,-7.050,-7.844,1.372,-0.123,0.969,-0.165,-1.404,-4.120,0.977,73.333,565792.000,1.000
-9.889,-6.365,-12.523,-2.452,-4.264,-8.065,-8.772,1.631,-0.121,0.968,-0.165,-1.434,-3.967,1.099,73.333,565793.000,1.000
-9.392,-7.114,-13.340,-3.112,-4.702,-8.000,-8.619,-0.904,-0.122,0.968,-0.162,-1.526,-3.845,1.129,73.333,565794.000,1.000
-7.675,-6.968,-13.378,-4.015,-5.538,-6.797,-7.790,-5.737,-0.122,0.967,-0.164,-1.465,-3.693,1.068,73.333,565795.000,1.000
-5.114,-5.682,-12.374,-4.672,-6.101,-4.276,-6.184,-10.643,-0.124,0.966,-0.167,-1.465,-3.418,1.038,73.333,565796.000,1.000
-2.389,-3.504,-10.324,-4.601,-5.762,-1.169,-4.042,-13.243,-0.125,0.966,-0.167,-1.373,-3.357,1.068,73.333,565797.000,1.000
-0.201,-1.148,-7.545,-3.545,-4.338,1.015,-1.973,-12.275,-0.124,0.966,-0.167,-1.434,-3.357,1.099,73.333,565798.000,1.000
1.050,0.684,-4.395,-1.526,-2.029,1.445,-0.176,-8.025,-0.125,0.967,-0.166,-1.373,-3.326,1.099,73.333,565799.000,1.000
1.367,1.626,-1.432,1.057,0.566,0.604,1.231,-2.247,-0.123,0.966,-0.164,-1.373,-3.296,1.160,73.333,565800.000,1.000
1.003,1.679,0.710,3.522,2.563,-0.373,1.829,2.623,-0.122,0.968,-0.165,-1.312,-3.174,1.190,73.333,565801.000,1.000
0.307,1.216,1.596,5.281,3.397,-0.381,1.504,4.848,-0.121,0.970,-0.166,-1.343,-3.113,1.129,73.333,565802.000,1.000
-0.338,0.834,1.395,6.209,3.234,0.942,0.707,4.396,-0.122,0.973,-0.168,-1.190,-3.021,1.160,73.333,565803.000,1.000
-0.587,0.934,0.820,6.606,2.634,2.645,-0.355,2.572,-0.121,0.972,-0.167,-1.343,-2.869,1.221,73.333,565804.000,1.000
-0.189,1.598,0.501,6.906,2.191,3.438,-1.774,0.907,-0.120,0.972,-0.167,-1.495,-2.747,1.282,73.333,565805.000,1.000
0.990,2.875,0.994,7.538,2.580,3.465,-2.753,0.551,-0.121,0.970,-0.170,-1.526,-2.655,1.465,73.333,565806.000,1.000
2.911,4.838,2.691,8.775,4.413,4.311,-1.703,2.081,-0.122,0.965,-0.167,-1.373,-2.563,1.434,73.333,565807.000,1.000
5.349,7.390,5.680,10.606,7.839,7.405,2.459,5.476,-0.122,0.963,-0.167,-1.312,-2.502,1.434,73.333,565808.000,1.000
7.911,10.084,9.594,12.708,12.241,12.730,9.302,10.064,-0.126,0.961,-0.166,-1.373,-2.502,1.434,73.333,565809.000,1.000
9.946,12.014,13.203,14.344,16.056,18.315,16.139,14.278,-0.129,0.965,-0.165,-1.190,-2.411,1.404,73.333,565810.000,1.000
10.626,12.121,14.973,14.598,17.309,20.962,18.982,16.129,-0.131,0.964,-0.167,-1.221,-2.533,1.373,73.333,565811.000,1.000
9.438,10.028,14.143,13.038,15.107,18.719,15.812,14.661,-0.131,0.966,-0.164,-1.190,-2.563,1.221,73.333,565812.000,1.000
6.594,6.453,11.312,10.091,10.465,12.812,8.690,10.754,-0.131,0.966,-0.164,-1.129,-2.655,1.068,73.333,565813.000,1.000
2.885,2.569,7.752,6.587,5.326,6.369,1.677,6.205,-0.132,0.971,-0.162,-1.099,-2.716,0.977,73.333,565814.000,1.000
-0.736,-0.800,4.282,3.123,1.142,1.684,-2.569,2.391,-0.130,0.973,-0.163,-1.099,-2.747,0.824,73.333,565815.000,1.000
-3.419,-3.271,1.382,0.054,-1.468,-0.621,-3.604,-0.059,-0.130,0.977,-0.165,-1.251,-2.747,0.702,73.333,565816.000,1.000
-4.682,-4.710,-0.547,-2.272,-2.424,-0.784,-2.266,-1.002,-0.129,0.978,-0.162,-1.404,-2.716,0.641,73.333,565817.000,1.000
-4.642,-5.253,-1.270,-3.535,-2.113,0.378,0.188,-0.674,-0.130,0.978,-0.161,-1.556,-2.869,0.641,73.333,565818.000,1.000
-3.934,-5.336,-1.044,-3.708,-1.349,1.302,2.478,0.301,-0.130,0.978,-0.162,-1.678,-2.869,0.580,73.333,565819.000,1.000
-3.245,-5.338,-0.811,-3.147,-0.841,0.755,3.746,1.230,-0.129,0.975,-0.161,-1.740,-2.747,0.519,73.333,565820.000,1.000
-2.800,-5.165,-1.222,-2.238,-0.660,-0.863,3.953,1.861,-0.127,0.972,-0.163,-1.770,-2.838,0.549,73.333,565821.000,1.000
-2.367,-4.405,-1.873,-1.135,-0.453,-2.109,3.519,2.340,-0.127,0.971,-0.163,-1.770,-2.869,0.671,73.333,565822.000,1.000
-1.675,-2.726,-1.531,0.228,0.222,-1.688,3.377,2.985,-0.125,0.969,-0.162,-1.740,-2.777,0.641,73.333,565823.000,1.000
-0.655,-0.086,0.611,1.878,1.678,0.954,4.439,3.933,-0.125,0.969,-0.162,-1.709,-2.686,0.702,73.333,565824.000,1.000
0.550,3.087,3.702,3.482,3.716,5.114,5.778,4.705,-0.125,0.967,-0.162,-1.587,-2.655,0.824,73.333,565825.000,1.000
1.715,6.058,6.210,4.610,5.820,9.282,5.539,4.869,-0.127,0.965,-0.165,-1.556,-2.625,0.793,73.333,565826.000,1.000
2.678,8.294,7.490,5.244,7.834,12.527,3.848,5.040,-0.125,0.965,-0.164,-1.556,-2.441,0.916,73.333,565827.000,1.000
3.342,9.668,8.045,5.708,9.843,14.835,2.774,6.234,-0.125,0.966,-0.164,-1.434,-2.441,0.977,73.333,565828.000,1.000
3.557,10.243,8.496,6.157,11.565,16.377,3.645,8.317,-0.125,0.965,-0.162,-1.282,-2.380,1.099,73.333,565829.000,1.000
3.090,10.023,8.595,6.398,12.438,17.083,5.869,10.008,-0.125,0.965,-0.162,-1.190,-2.350,1.251,73.333,565830.000,1.000
1.757,8.855,7.752,6.156,12.126,16.645,8.196,10.306,-0.125,0.964,-0.163,-1.190,-2.228,1.404,73.333,565831.000,1.000
-0.356,6.527,5.738,5.310,10.645,14.504,9.582,9.230,-0.127,0.962,-0.160,-1.007,-2.258,1.434,73.333,565832.000,1.000
-2.735,3.085,2.971,3.979,8.246,10.116,9.184,7.538,-0.127,0.961,-0.159,-0.946,-2.197,1.587,73.333,565833.000,1.000
-4.646,-0.965,0.228,2.449,5.376,3.795,6.661,6.053,-0.125,0.958,-0.162,-0.793,-2.136,1.617,73.333,565834.000,1.000
-5.573,-4.780,-2.026,0.954,2.542,-2.731,2.486,4.922,-0.122,0.958,-0.161,-0.732,-2.045,1.617,73.333,565835.000,1.000
-5.356,-7.487,-3.487,-0.333,0.147,-7.041,-2.027,3.655,-0.123,0.958,-0.161,-0.793,-2.014,1.587,73.333,565836.000,1.000
-4.030,-8.476,-3.921,-1.216,-1.533,-7.470,-5.246,1.927,-0.122,0.960,-0.165,-0.580,-1.923,1.678,73.333,565837.000,1.000
-1.877,-7.742,-3.449,-1.639,-2.532,-4.300,-6.283,-0.038,-0.123,0.961,-0.163,-0.336,-1.923,1.678,73.333,565838.000,1.000
0.352,-6.115,-2.849,-1.933,-3.452,0.006,-5.840,-1.832,-0.124,0.964,-0.160,-0.366,-1.831,1.740,73.333,565839.000,1.000
1.627,-4.910,-3.399,-2.692,-5.131,2.230,-5.458,-3.150,-0.121,0.964,-0.159,-0.275,-1.770,1.831,73.333,565840.000,1.000
1.328,-5.092,-5.669,-4.266,-7.879,0.721,-5.674,-3.877,-0.120,0.965,-0.160,-0.305,-1.740,1.892,73.333,565841.000,1.000
-0.275,-6.667,-8.995,-6.475,-11.133,-3.396,-5.608,-4.296,-0.118,0.966,-0.163,-0.336,-1.556,1.953,73.333,565842.000,1.000
-2.224,-8.750,-11.942,-8.690,-13.792,-7.146,-4.163,-4.861,-0.116,0.969,-0.164,-0.366,-1.373,1.892,73.333,565843.000,1.000
-3.525,-10.275,-13.245,-10.163,-14.942,-8.163,-1.471,-5.615,-0.117,0.970,-0.162,-0.336,-1.099,2.014,73.333,565844.000,1.000
-3.684,-10.700,-12.704,-10.447,-14.446,-6.600,0.733,-6.102,-0.115,0.969,-0.163,-0.366,-0.977,1.953,73.333,565845.000,1.000
-2.781,-10.144,-10.948,-9.538,-12.926,-4.747,0.472,-5.813,-0.115,0.968,-0.163,-0.519,-0.854,2.075,73.333,565846.000,1.000
-1.252,-9.090,-9.015,-7.795,-11.231,-4.854,-2.989,-4.658,-0.114,0.969,-0.165,-0.580,-0.763,2.136,73.333,565847.000,1.000
0.441,-8.028,-7.719,-5.704,-9.863,-7.390,-8.578,-3.007,-0.115,0.969,-0.163,-0.549,-0.732,2.167,73.333,565848.000,1.000
2.009,-7.191,-7.083,-3.679,-8.787,-10.893,-13.841,-1.540,-0.117,0.970,-0.164,-0.519,-0.641,2.167,73.333,565849.000,1.000
3.198,-6.567,-6.716,-2.101,-7.732,-13.224,-16.373,-1.150,-0.118,0.971,-0.164,-0.549,-0.488,2.167,73.333,565850.000,1.000
3.541,-6.228,-6.345,-1.404,-6.715,-13.296,-15.416,-2.581,-0.117,0.971,-0.163,-0.580,-0.366,2.197,73.333,565851.000,1.000
2.537,-6.412,-6.254,-1.952,-6.096,-11.661,-12.425,-5.834,-0.119,0.971,-0.162,-0.610,-0.244,2.228,73.333,565852.000,1.000
0.176,-7.230,-6.862,-3.723,-6.141,-9.608,-9.750,-9.887,-0.120,0.971,-0.163,-0.671,-0.183,2.167,73.333,565853.000,1.000
-2.943,-8.564,-8.070,-6.240,-6.807,-8.313,-8.948,-13.185,-0.117,0.971,-0.162,-0.702,-0.153,2.167,73.333,565854.000,1.000
-5.999,-10.191,-9.429,-8.863,-7.855,-8.274,-9.950,-14.564,-0.117,0.972,-0.164,-0.732,-0.092,2.075,73.333,565855.000,1.000
-8.329,-11.776,-10.363,-11.063,-8.987,-8.927,-11.210,-13.846,-0.117,0.969,-0.166,-0.885,0.061,2.014,73.333,565856.000,1.000
-9.619,-12.957,-10.771,-12.625,-10.074,-9.369,-11.528,-11.946,-0.119,0.970,-0.166,-0.885,0.061,1.953,73.333,565857.000,1.000
-9.889,-13.514,-11.067,-13.548,-11.129,-9.298,-11.180,-10.242,-0.117,0.970,-0.168,-0.916,0.153,2.014,73.333,565858.000,1.000
-9.249,-13.209,-11.306,-13.662,-11.734,-8.376,-10.309,-9.362,-0.117,0.971,-0.165,-1.038,0.183,1.953,73.333,565859.000,1.000
-7.749,-11.659,-10.831,-12.560,-10.877,-5.613,-7.595,-8.581,-0.118,0.975,-0.166,-0.977,0.092,1.892,73.333,565860.000,1.000
-5.586,-8.806,-8.850,-10.112,-7.982,-0.907,-2.019,-6.720,-0.118,0.973,-0.166,-1.038,0.244,1.770,73.333,565861.000,1.000
-3.392,-5.457,-5.763,-7.015,-3.883,3.718,4.775,-3.670,-0.118,0.974,-0.163,-1.099,0.183,1.740,73.333,565862.000,1.000
-1.996,-2.892,-3.090,-4.453,-0.285,5.752,9.512,-0.588,-0.119,0.975,-0.166,-1.099,0.275,1.617,73.333,565863.000,1.000
-1.780,-1.929,-1.954,-3.172,1.549,4.335,10.003,1.264,-0.120,0.975,-0.164,-1.160,0.153,1.587,73.333,565864.000,1.000
-2.365,-2.455,-2.229,-2.986,1.552,0.592,6.612,1.582,-0.119,0.973,-0.164,-1.282,0.122,1.587,73.333,565865.000,1.000
-2.901,-3.585,-2.737,-3.038,0.733,-3.008,2.373,1.188,-0.117,0.971,-0.165,-1.343,0.092,1.556,73.333,565866.000,1.000
-2.691,-4.348,-2.595,-2.587,0.226,-4.154,0.623,1.058,-0.118,0.971,-0.166,-1.282,0.061,1.617,73.333,565867.000,1.000
-1.607,-4.400,-1.966,-1.591,0.201,-2.751,1.701,1.282,-0.116,0.971,-0.167,-1.221,0.031,1.617,73.333,565868.000,1.000
-0.003,-4.079,-1.409,-0.547,-0.076,-1.058,3.058,1.304,-0.116,0.971,-0.167,-1.129,0.244,1.526,73.333,565869.000,1.000
1.649,-3.762,-1.059,0.150,-1.053,-1.151,2.639,0.954,-0.117,0.972,-0.170,-1.038,0.244,1.587,73.333,565870.000,1.000
3.009,-3.413,-0.286,0.652,-2.192,-2.894,0.956,0.741,-0.117,0.972,-0.171,-1.038,0.244,1.587,73.333,565871.000,1.000
3.887,-2.783,1.434,1.398,-2.573,-4.692,-0.338,1.066,-0.115,0.971,-0.169,-0.946,0.153,1.770,73.333,565872.000,1.000
4.235,-1.739,3.910,2.674,-1.714,-5.241,-0.252,1.822,-0.113,0.972,-0.168,-1.038,0.061,1.892,73.333,565873.000,1.000
4.189,-0.330,6.656,4.491,0.241,-4.201,1.371,2.910,-0.112,0.969,-0.165,-1.068,0.122,1.862,73.333,565874.000,1.000
4.018,1.271,9.244,6.633,2.739,-1.989,4.172,4.466,-0.111,0.967,-0.165,-1.068,0.153,2.014,73.333,565875.000,1.000
3.938,2.774,11.403,8.671,4.991,0.357,7.043,6.285,-0.111,0.967,-0.165,-1.129,0.275,2.106,73.333,565876.000,1.000
3.888,3.757,12.459,9.926,6.090,1.347,7.734,7.244,-0.111,0.965,-0.165,-0.977,0.275,2.106,73.333,565877.000,1.000
3.588,3.884,11.502,9.759,5.474,0.038,4.381,5.948,-0.115,0.964,-0.167,-0.793,0.397,2.075,73.333,565878.000,1.000
2.898,3.259,8.539,8.149,3.533,-2.771,-1.986,2.174,-0.117,0.963,-0.164,-0.732,0.336,2.014,73.333,565879.000,1.000
2.021,2.469,4.862,5.850,1.518,-4.935,-7.697,-2.569,-0.118,0.967,-0.167,-0.763,0.397,1.862,73.333,565880.000,1.000
1.322,2.082,2.277,3.861,0.540,-5.086,-9.623,-5.976,-0.118,0.969,-0.163,-0.641,0.244,1.709,73.333,565881.000,1.000
1.013,2.189,1.533,2.673,0.762,-3.925,-7.713,-6.439,-0.119,0.971,-0.161,-0.702,0.122,1.587,73.333,565882.000,1.000
1.167,2.627,2.079,2.180,1.703,-2.824,-3.908,-3.749,-0.119,0.974,-0.163,-0.885,0.092,1.404,73.333,565883.000,1.000
1.939,3.435,3.262,2.120,2.901,-1.906,0.232,0.894,-0.116,0.976,-0.161,-1.068,0.000,1.373,73.333,565884.000,1.000
3.455,4.731,4.870,2.252,3.981,-0.293,3.892,5.288,-0.117,0.974,-0.159,-1.251,-0.061,1.282,73.333,565885.000,1.000
5.504,6.306,6.815,2.307,4.515,2.441,6.330,7.364,-0.115,0.973,-0.159,-1.404,-0.092,1.129,73.333,565886.000,1.000
7.444,7.559,8.320,1.973,4.186,5.633,6.686,6.363,-0.115,0.974,-0.160,-1.587,-0.092,1.038,73.333,565887.000,1.000
8.456,7.856,8.203,1.048,3.001,7.927,4.683,3.154,-0.112,0.972,-0.164,-1.678,-0.122,1.007,73.333,565888.000,1.000
7.961,6.929,6.177,-0.373,1.292,8.022,1.173,-0.470,-0.111,0.972,-0.162,-1.617,-0.153,0.916,73.333,565889.000,1.000
6.038,5.120,3.368,-1.831,-0.329,5.617,-2.187,-2.810,-0.112,0.971,-0.160,-1.617,-0.153,0.854,73.333,565890.000,1.000
3.586,3.438,1.802,-2.558,-0.935,2.273,-3.356,-2.760,-0.111,0.971,-0.162,-1.678,-0.275,0.793,73.333,565891.000,1.000
1.889,3.106,2.767,-1.876,0.392,0.892,-0.831,-0.095,-0.110,0.971,-0.161,-1.740,-0.214,0.824,73.333,565892.000,1.000
1.748,4.666,5.795,0.227,3.748,3.426,4.965,4.311,-0.111,0.969,-0.161,-1.648,-0.122,0.854,73.333,565893.000,1.000
2.924,7.410,9.229,2.906,7.907,8.793,11.226,8.774,-0.111,0.969,-0.163,-1.617,-0.122,0.946,73.333,565894.000,1.000
4.384,9.808,11.321,4.912,10.882,13.344,14.180,11.607,-0.112,0.971,-0.163,-1.709,-0.122,0.885,73.333,565895.000,1.000
5.049,10.525,11.250,5.380,11.182,13.647,11.715,11.915,-0.109,0.969,-0.166,-1.648,-0.153,0.885,73.333,565896.000,1.000
4.402,9.252,9.090,4.281,8.800,9.239,5.055,9.917,-0.111,0.968,-0.162,-1.587,-0.183,0.885,73.333,565897.000,1.000
2.731,6.894,5.609,2.364,5.310,3.261,-1.666,6.799,-0.114,0.967,-0.161,-1.587,-0.214,0.885,73.333,565898.000,1.000
0.899,4.926,2.161,0.672,2.794,0.178,-4.137,4.018,-0.114,0.967,-0.161,-1.495,-0.214,0.977,73.333,565899.000,1.000
-0.292,4.204,-0.106,-0.148,2.248,1.979,-1.302,2.370,-0.115,0.966,-0.160,-1.404,-0.336,0.946,73.333,565900.000,1.000
-0.673,4.214,-0.900,-0.242,2.763,6.157,3.466,1.568,-0.114,0.966,-0.159,-1.465,-0.397,0.793,73.333,565901.000,1.000
-0.663,3.629,-0.991,-0.352,2.358,7.762,4.597,0.571,-0.113,0.967,-0.160,-1.465,-0.336,0.793,73.333,565902.000,1.000
-0.718,1.703,-1.347,-1.044,-0.093,3.869,-0.921,-1.290,-0.115,0.968,-0.158,-1.251,-0.458,0.824,73.333,565903.000,1.000
-0.932,-0.997,-2.097,-2.143,-3.763,-3.953,-10.626,-3.462,-0.118,0.968,-0.157,-1.282,-0.427,0.641,73.333,565904.000,1.000
-1.057,-3.152,-2.724,-3.011,-6.655,-11.191,-18.795,-4.696,-0.119,0.968,-0.160,-1.373,-0.610,0.580,73.333,565905.000,1.000
-0.746,-3.688,-2.557,-3.148,-7.215,-13.756,-20.795,-4.175,-0.119,0.967,-0.161,-1.343,-0.641,0.488,73.333,565906.000,1.000
0.058,-2.485,-1.466,-2.586,-5.398,-10.543,-15.984,-2.205,-0.120,0.969,-0.157,-1.160,-0.854,0.458,73.333,565907.000,1.000
0.966,-0.372,0.077,-1.731,-2.503,-3.719,-7.486,0.129,-0.120,0.969,-0.158,-1.251,-0.977,0.366,73.333,565908.000,1.000
1.501,1.502,1.489,-0.946,-0.095,3.137,0.432,1.837,-0.121,0.968,-0.156,-1.282,-1.099,0.214,73.333,565909.000,1.000
1.470,2.298,2.152,-0.435,0.893,7.144,4.672,2.450,-0.125,0.972,-0.157,-1.282,-1.190,0.061,73.333,565910.000,1.000
1.044,1.846,1.856,-0.267,0.459,7.335,4.470,2.055,-0.124,0.971,-0.157,-1.251,-1.465,-0.122,73.333,565911.000,1.000
0.689,0.737,1.114,-0.350,-0.595,4.845,1.498,1.208,-0.125,0.972,-0.157,-1.373,-1.709,-0.214,73.333,565912.000,1.000
0.938,-0.128,0.989,-0.478,-1.225,1.841,-1.211,0.655,-0.125,0.970,-0.157,-1.373,-1.831,-0.244,73.333,565913.000,1.000
1.936,-0.302,2.013,-0.584,-0.900,-0.100,-1.472,0.771,-0.126,0.971,-0.157,-1.312,-2.106,-0.244,73.333,565914.000,1.000
3.220,-0.013,3.154,-0.872,0.092,-0.743,0.298,1.142,-0.127,0.972,-0.159,-1.404,-2.350,-0.336,73.333,565915.000,1.000
4.078,0.322,2.988,-1.542,1.019,-0.705,2.004,0.896,-0.129,0.972,-0.155,-1.526,-2.594,-0.397,73.333,565916.000,1.000
4.081,0.549,1.383,-2.525,1.335,-0.467,2.403,-0.519,-0.130,0.973,-0.155,-1.465,-2.838,-0.519,73.333,565917.000,1.000
3.337,0.799,-0.323,-3.496,0.960,-0.063,2.021,-2.881,-0.131,0.971,-0.156,-1.526,-3.082,-0.549,73.333,565918.000,1.000
2.273,1.161,-0.969,-4.187,-0.035,0.142,1.320,-5.565,-0.132,0.972,-0.156,-1.495,-3.296,-0.549,73.333,565919.000,1.000
1.186,1.392,-1.274,-4.737,-1.721,-0.807,-0.501,-8.125,-0.132,0.970,-0.156,-1.465,-3.479,-0.519,73.333,565920.000,1.000
0.136,1.119,-2.742,-5.461,-3.953,-3.154,-3.559,-10.151,-0.134,0.972,-0.159,-1.526,-3.723,-0.580,73.333,565921.000,1.000
-0.844,0.218,-5.621,-6.404,-6.089,-5.715,-6.158,-11.059,-0.133,0.971,-0.160,-1.556,-3.937,-0.458,73.333,565922.000,1.000
-1.696,-1.265,-8.520,-7.340,-7.550,-7.425,-6.749,-10.484,-0.131,0.972,-0.160,-1.404,-4.150,-0.397,73.333,565923.000,1.000
-2.418,-3.305,-10.015,-8.064,-8.316,-8.662,-5.589,-8.660,-0.131,0.969,-0.163,-1.343,-4.364,-0.427,73.333,565924.000,1.000
-2.965,-5.588,-10.111,-8.428,-8.451,-10.004,-3.726,-6.147,-0.129,0.971,-0.160,-1.282,-4.547,-0.153,73.333,565925.000,1.000
-3.138,-7.277,-9.524,-8.199,-7.690,-10.817,-1.454,-3.418,-0.127,0.973,-0.159,-1.312,-4.669,-0.122,73.333,565926.000,1.000
-2.850,-7.627,-8.772,-7.314,-6.015,-10.252,1.113,-1.063,-0.124,0.971,-0.163,-1.190,-4.761,0.061,73.333,565927.000,1.000
-2.335,-6.661,-8.003,-6.130,-4.096,-8.575,3.190,0.288,-0.124,0.970,-0.164,-1.068,-4.700,0.122,73.333,565928.000,1.000
-1.945,-5.030,-7.281,-5.210,-2.790,-6.713,3.842,0.488,-0.120,0.971,-0.163,-1.038,-4.730,0.214,73.333,565929.000,1.000
-1.823,-3.418,-6.943,-4.969,-2.517,-5.279,2.641,-0.176,-0.119,0.967,-0.164,-0.916,-4.730,0.336,73.333,565930.000,1.000
-1.805,-2.117,-6.944,-5.385,-3.092,-4.323,0.003,-1.392,-0.118,0.966,-0.165,-0.793,-4.669,0.519,73.333,565931.000,1.000
-1.528,-1.003,-6.574,-6.059,-3.961,-3.645,-2.991,-3.028,-0.115,0.966,-0.165,-0.763,-4.486,0.702,73.333,565932.000,1.000
-0.646,0.185,-4.969,-6.577,-4.590,-3.006,-5.023,-5.162,-0.114,0.967,-0.163,-0.671,-4.486,0.671,73.333,565933.000,1.000
0.936,1.636,-1.942,-6.764,-4.644,-1.909,-4.947,-7.824,-0.114,0.967,-0.162,-0.458,-4.364,0.793,73.333,565934.000,1.000
2.974,3.405,1.530,-6.622,-3.939,0.180,-2.443,-10.517,-0.112,0.967,-0.164,-0.427,-3.998,0.946,73.333,565935.000,1.000
5.043,5.382,4.236,-6.095,-2.481,3.081,1.625,-12.067,-0.110,0.967,-0.164,-0.458,-3.876,0.977,73.333,565936.000,1.000
6.765,7.356,5.599,-5.058,-0.479,5.967,5.530,-11.342,-0.107,0.967,-0.164,-0.275,-3.601,0.977,73.333,565937.000,1.000
7.847,9.006,5.753,-3.542,1.562,7.960,7.278,-8.398,-0.107,0.968,-0.162,-0.366,-3.296,1.038,73.333,565938.000,1.000
7.976,9.733,4.985,-1.980,2.675,8.020,5.087,-4.944,-0.107,0.968,-0.163,-0.458,-2.960,0.977,73.333,565939.000,1.000
6.915,8.864,3.166,-1.087,1.878,5.132,-1.595,-3.190,-0.105,0.969,-0.165,-0.580,-2.594,1.007,73.333,565940.000,1.000
4.837,6.316,0.369,-1.282,-0.859,-0.530,-10.760,-3.907,-0.107,0.969,-0.164,-0.549,-2.319,0.977,73.333,565941.000,1.000
2.458,2.968,-2.749,-2.321,-4.223,-6.834,-18.238,-5.795,-0.109,0.968,-0.166,-0.549,-2.045,0.824,73.333,565942.000,1.000
0.780,0.380,-5.000,-3.334,-6.095,-10.274,-19.618,-6.475,-0.109,0.969,-0.161,-0.519,-1.770,0.610,73.333,565943.000,1.000
0.520,-0.094,-5.235,-3.389,-4.915,-8.099,-12.993,-4.321,-0.110,0.970,-0.161,-0.580,-1.526,0.397,73.333,565944.000,1.000
1.559,1.593,-3.474,-2.378,-1.137,-0.930,-1.362,-0.118,-0.113,0.971,-0.161,-0.671,-1.404,0.214,73.333,565945.000,1.000
3.041,3.996,-0.936,-1.119,2.833,6.856,8.597,3.347,-0.114,0.970,-0.155,-0.763,-1.099,0.000,73.333,565946.000,1.000
4.064,5.302,0.752,-0.497,4.585,10.215,11.340,3.756,-0.117,0.971,-0.160,-0.763,-0.916,-0.153,73.333,565947.000,1.000
4.226,4.696,0.714,-0.650,3.573,7.324,6.553,1.253,-0.118,0.969,-0.160,-0.854,-0.793,-0.244,73.333,565948.000,1.000
3.691,2.766,-0.486,-0.982,1.171,0.600,-1.273,-1.907,-0.120,0.969,-0.164,-0.977,-0.732,-0.336,73.333,565949.000,1.000
3.022,0.914,-1.418,-0.698,-0.570,-5.464,-6.704,-3.186,-0.121,0.970,-0.162,-0.977,-0.641,-0.366,73.333,565950.000,1.000
2.894,0.359,-0.657,0.707,-0.253,-7.382,-6.680,-1.327,-0.124,0.969,-0.165,-1.129,-0.519,-0.580,73.333,565951.000,1.000
3.615,1.316,1.978,3.051,1.997,-4.771,-1.918,2.829,-0.124,0.967,-0.161,-0.946,-0.488,-0.580,73.333,565952.000,1.000
4.879,2.960,5.231,5.456,4.707,-0.147,4.145,6.783,-0.126,0.967,-0.163,-1.038,-0.458,-0.641,73.333,565953.000,1.000
6.092,4.275,7.673,6.957,6.386,3.623,8.242,8.195,-0.126,0.967,-0.162,-1.007,-0.519,-0.580,73.333,565954.000,1.000
6.823,4.821,8.748,7.197,6.687,5.655,9.311,6.528,-0.127,0.968,-0.164,-0.854,-0.580,-0.641,73.333,565955.000,1.000
6.836,4.617,8.852,6.471,6.092,6.501,7.973,3.009,-0.129,0.968,-0.163,-1.068,-0.549,-0.549,73.333,565956.000,1.000
5.962,3.708,8.260,5.165,4.939,6.296,4.822,-0.698,-0.128,0.968,-0.160,-0.946,-0.702,-0.519,73.333,565957.000,1.000
4.295,2.313,6.947,3.571,3.436,4.756,0.590,-3.295,-0.132,0.970,-0.162,-1.007,-0.793,-0.427,73.333,565958.000,1.000
2.406,1.063,5.412,2.155,2.177,2.283,-2.911,-3.914,-0.130,0.971,-0.163,-0.885,-0.793,-0.427,73.333,565959.000,1.000
1.047,0.691,4.637,1.492,1.961,0.070,-3.627,-2.343,-0.130,0.969,-0.160,-0.854,-0.916,-0.275,73.333,565960.000,1.000
0.660,1.555,5.487,1.941,3.180,-0.481,-0.721,0.747,-0.131,0.970,-0.162,-0.854,-1.068,-0.061,73.333,565961.000,1.000
1.158,3.437,7.785,3.397,5.556,1.402,4.910,4.131,-0.131,0.971,-0.164,-0.885,-1.221,0.153,73.333,565962.000,1.000
2.116,5.696,10.379,5.393,8.392,5.203,11.527,6.851,-0.131,0.974,-0.163,-0.885,-1.312,0.214,73.333,565963.000,1.000
3.139,7.664,12.177,7.404,10.864,9.339,17.386,8.559,-0.132,0.972,-0.159,-0.946,-1.312,0.336,73.333,565964.000,1.000
3.967,8.801,12.559,8.910,12.002,11.717,20.370,9.068,-0.132,0.974,-0.158,-1.038,-1.556,0.519,73.333,565965.000,1.000
4.378,8.706,11.491,9.435,10.939,10.484,18.603,8.226,-0.130,0.974,-0.159,-1.129,-1.678,0.580,73.333,565966.000,1.000
4.238,7.332,9.172,8.725,7.641,5.370,12.107,6.225,-0.130,0.974,-0.158,-1.160,-1.648,0.763,73.333,565967.000,1.000
3.621,5.091,5.894,6.889,3.131,-1.881,3.121,3.688,-0.130,0.974,-0.159,-1.068,-1.770,0.885,73.333,565968.000,1.000
2.728,2.638,2.245,4.363,-1.079,-8.577,-4.886,1.441,-0.129,0.975,-0.159,-1.160,-1.892,1.038,73.333,565969.000,1.000
1.716,0.677,-0.982,1.783,-3.631,-12.119,-8.487,0.204,-0.125,0.974,-0.158,-1.129,-2.075,1.129,73.333,565970.000,1.000
0.612,-0.373,-2.994,-0.294,-4.018,-11.248,-6.385,0.025,-0.126,0.971,-0.155,-1.312,-2.106,1.160,73.333,565971.000,1.000
-0.739,-0.856,-3.816,-1.770,-3.135,-7.596,-1.237,-0.169,-0.125,0.970,-0.158,-1.251,-2.136,1.221,73.333,565972.000,1.000
-2.482,-1.671,-4.273,-2.870,-2.671,-4.925,2.134,-1.758,-0.122,0.970,-0.160,-1.221,-2.106,1.190,73.333,565973.000,1.000
-4.428,-3.383,-4.960,-3.669,-3.690,-5.927,0.802,-5.042,-0.123,0.969,-0.161,-1.129,-2.075,1.221,73.333,565974.000,1.000
-6.067,-5.703,-5.819,-4.005,-5.790,-10.041,-4.108,-8.787,-0.120,0.969,-0.160,-1.129,-1.953,1.251,73.333,565975.000,1.000
-6.894,-7.640,-6.188,-3.602,-7.300,-13.938,-8.189,-10.738,-0.120,0.968,-0.164,-1.099,-1.892,1.312,73.333,565976.000,1.000
-6.766,-8.110,-5.629,-2.279,-6.351,-13.779,-6.897,-8.895,-0.120,0.968,-0.165,-1.160,-1.831,1.343,73.333,565977.000,1.000
-6.046,-6.715,-4.449,-0.253,-2.411,-8.119,0.775,-3.127,-0.118,0.967,-0.163,-1.099,-1.801,1.251,73.333,565978.000,1.000
-5.351,-4.109,-3.351,1.746,2.902,0.432,10.781,4.135,-0.117,0.968,-0.163,-1.129,-1.678,1.251,73.333,565979.000,1.000
-5.032,-1.447,-2.855,2.913,6.915,7.037,16.813,9.342,-0.117,0.967,-0.165,-1.129,-1.556,1.282,73.333,565980.000,1.000
-4.821,0.572,-2.540,3.108,8.144,9.045,16.029,10.560,-0.117,0.969,-0.160,-1.038,-1.404,1.221,73.333,565981.000,1.000
-4.050,2.070,-1.483,2.956,7.346,8.461,11.461,8.599,-0.117,0.968,-0.159,-1.068,-1.282,1.221,73.333,565982.000,1.000
-2.264,3.390,0.720,3.130,6.222,9.196,8.109,5.580,-0.117,0.968,-0.160,-1.007,-1.160,1.099,73.333,565983.000,1.000
0.193,4.233,3.432,3.536,5.333,11.829,7.326,2.836,-0.116,0.966,-0.161,-0.946,-0.916,1.038,73.333,565984.000,1.000
2.234,3.709,5.176,3.324,3.786,12.526,6.253,0.440,-0.116,0.964,-0.160,-0.793,-0.793,0.977,73.333,565985.000,1.000
2.875,1.478,4.955,1.890,0.894,7.710,2.384,-1.679,-0.117,0.965,-0.158,-0.793,-0.641,0.885,73.333,565986.000,1.000
2.034,-1.515,2.912,-0.402,-2.618,-1.725,-3.603,-3.070,-0.117,0.966,-0.156,-0.793,-0.519,0.824,73.333,565987.000,1.000
0.471,-3.668,0.029,-2.524,-5.212,-11.296,-9.197,-3.134,-0.119,0.966,-0.156,-0.763,-0.366,0.854,73.333,565988.000,1.000
-0.878,-3.883,-2.446,-3.528,-5.725,-16.435,-11.988,-1.572,-0.118,0.968,-0.157,-0.580,-0.275,0.793,73.333,565989.000,1.000
-1.425,-2.107,-3.655,-2.990,-3.857,-14.848,-10.320,1.478,-0.119,0.968,-0.161,-0.610,-0.183,0.702,73.333,565990.000,1.000
-1.052,0.758,-3.295,-1.080,-0.283,-7.488,-4.323,5.294,-0.119,0.969,-0.159,-0.580,0.000,0.702,73.333,565991.000,1.000
-0.127,3.296,-1.977,1.460,3.404,1.719,2.812,8.484,-0.120,0.970,-0.158,-0.397,0.061,0.671,73.333,565992.000,1.000
0.703,4.443,-0.798,3.715,5.599,8.425,6.944,9.785,-0.119,0.971,-0.161,-0.458,0.214,0.641,73.333,565993.000,1.000
1.005,4.266,-0.178,5.238,5.931,11.027,6.919,9.192,-0.118,0.970,-0.162,-0.458,0.336,0.610,73.333,565994.000,1.000
0.906,3.830,0.414,6.251,5.470,11.350,5.292,8.087,-0.121,0.970,-0.159,-0.458,0.244,0.641,73.333,565995.000,1.000
0.985,4.336,1.976,7.318,5.785,12.343,5.713,8.267,-0.120,0.970,-0.162,-0.336,0.275,0.671,73.333,565996.000,1.000
1.730,6.176,4.734,8.724,7.543,14.828,9.213,10.435,-0.120,0.968,-0.161,-0.427,0.275,0.702,73.333,565997.000,1.000
3.074,8.613,7.732,10.117,9.814,16.539,12.790,13.374,-0.119,0.970,-0.161,-0.336,0.214,0.732,73.333,565998.000,1.000
4.534,10.501,9.809,10.865,11.009,14.982,12.490,14.842,-0.119,0.969,-0.160,-0.244,0.214,0.732,73.333,565999.000,1.000
5.759,11.443,10.598,10.758,10.617,10.909,7.915,13.520,-0.119,0.969,-0.160,-0.153,0.244,0.854,73.333,566000.000,1.000
6.778,12.075,10.884,10.302,9.725,8.120,3.024,10.204,-0.119,0.967,-0.160,-0.061,0.336,0.885,73.333,566001.000,1.000
7.652,13.104,11.521,10.162,9.766,9.779,2.351,7.009,-0.118,0.967,-0.165,0.061,0.458,0.824,73.333,566002.000,1.000
8.188,14.377,12.593,10.616,11.082,15.087,7.007,5.750,-0.119,0.966,-0.162,0.275,0.427,0.824,73.333,566003.000,1.000
8.115,15.023,13.663,11.528,12.663,19.553,13.798,6.804,-0.119,0.963,-0.159,0.397,0.427,0.763,73.333,566004.000,1.000
7.284,14.202,13.956,12.411,12.949,18.641,17.508,8.715,-0.119,0.964,-0.157,0.580,0.397,0.793,73.333,566005.000,1.000
5.672,11.610,12.784,12.552,10.879,11.054,14.502,9.100,-0.117,0.965,-0.157,0.763,0.458,0.824,73.333,566006.000,1.000
3.484,7.683,9.892,11.413,6.718,-0.763,5.090,6.672,-0.117,0.966,-0.158,0.793,0.580,0.824,73.333,566007.000,1.000
1.315,3.688,5.960,9.143,2.292,-11.768,-6.092,2.638,-0.117,0.968,-0.157,0.824,0.702,0.793,73.333,566008.000,1.000
-0.024,1.173,2.481,6.538,-0.024,-16.775,-12.827,-0.276,-0.118,0.968,-0.161,0.824,0.854,0.793,73.333,566009.000,1.000
-0.097,0.833,0.449,4.280,0.755,-14.018,-12.268,-0.475,-0.118,0.970,-0.160,0.916,0.885,0.854,73.333,566010.000,1.000
0.790,2.006,-0.184,2.444,3.361,-6.534,-6.878,1.069,-0.117,0.970,-0.161,0.824,0.885,0.671,73.333,566011.000,1.000
1.848,3.426,-0.180,0.812,5.570,0.707,-1.385,2.049,-0.117,0.969,-0.156,0.946,0.946,0.580,73.333,566012.000,1.000
2.448,4.369,-0.089,-0.457,6.260,5.031,1.815,1.288,-0.119,0.969,-0.157,0.977,1.038,0.519,73.333,566013.000,1.000
2.482,4.928,0.227,-0.755,6.014,7.276,3.868,-0.349,-0.120,0.969,-0.159,0.946,1.068,0.488,73.333,566014.000,1.000
2.146,5.342,0.853,0.218,5.867,9.232,6.464,-1.279,-0.121,0.969,-0.158,0.885,1.099,0.458,73.333,566015.000,1.000
1.582,5.442,1.492,1.988,6.040,11.008,9.224,-0.722,-0.119,0.969,-0.160,0.946,1.068,0.427,73.333,566016.000,1.000
0.784,4.890,1.558,3.699,6.078,11.457,10.447,1.018,-0.119,0.971,-0.159,0.885,1.099,0.427,73.333,566017.000,1.000
-0.352,3.619,0.612,4.717,5.603,10.022,9.239,3.100,-0.119,0.971,-0.161,0.885,1.190,0.336,73.333,566018.000,1.000
-1.975,1.831,-1.305,4.856,4.554,7.146,5.928,4.740,-0.120,0.971,-0.162,0.946,1.129,0.336,73.333,566019.000,1.000
-4.043,-0.054,-3.707,4.401,3.252,3.857,1.604,5.771,-0.120,0.969,-0.163,0.977,1.190,0.305,73.333,566020.000,1.000
-6.016,-1.236,-5.468,4.038,2.552,1.841,-1.382,6.877,-0.121,0.969,-0.161,1.068,1.129,0.275,73.333,566021.000,1.000
-7.071,-0.857,-5.569,4.259,3.323,2.942,-0.237,8.760,-0.123,0.968,-0.162,1.099,1.129,0.275,73.333,566022.000,1.000
-6.761,1.101,-4.046,4.717,5.355,7.346,5.395,10.979,-0.124,0.969,-0.164,1.099,1.068,0.214,73.333,566023.000,1.000
-5.474,3.307,-2.132,4.312,6.893,12.311,11.720,11.793,-0.124,0.969,-0.161,1.221,1.068,0.244,73.333,566024.000,1.000
-4.257,3.829,-1.662,2.067,5.787,13.811,13.461,9.459,-0.122,0.968,-0.160,1.282,0.946,0.305,73.333,566025.000,1.000
-4.147,1.568,-3.629,-1.919,1.412,9.995,9.001,3.964,-0.121,0.968,-0.161,1.343,1.038,0.336,73.333,566026.000,1.000
-5.578,-3.016,-7.656,-6.495,-4.784,2.580,1.567,-2.785,-0.122,0.969,-0.160,1.312,0.977,0.427,73.333,566027.000,1.000
-8.233,-8.446,-12.431,-10.316,-10.599,-5.168,-4.548,-8.425,-0.121,0.969,-0.163,1.434,0.916,0.488,73.333,566028.000,1.000
-11.274,-13.256,-16.440,-12.624,-14.598,-10.994,-7.510,-11.648,-0.121,0.967,-0.162,1.495,0.977,0.519,73.333,566029.000,1.000
-13.771,-16.552,-18.799,-13.408,-16.440,-14.105,-7.843,-12.623,-0.119,0.968,-0.162,1.556,0.916,0.519,73.333,566030.000,1.000
-15.038,-17.981,-19.202,-12.976,-16.334,-14.272,-6.312,-12.185,-0.119,0.967,-0.162,1.617,0.946,0.488,73.333,566031.000,1.000
-14.868,-17.645,-17.898,-11.641,-14.669,-11.583,-3.310,-10.869,-0.121,0.968,-0.159,1.770,0.946,0.549,73.333,566032.000,1.000
-13.520,-16.050,-15.545,-9.696,-11.972,-6.853,0.691,-8.688,-0.120,0.968,-0.161,1.709,1.099,0.580,73.333,566033.000,1.000
-11.531,-13.925,-12.864,-7.509,-8.887,-1.530,5.050,-5.742,-0.121,0.968,-0.162,1.709,0.977,0.488,73.333,566034.000,1.000
-9.604,-12.083,-10.703,-5.671,-6.283,2.663,8.475,-2.937,-0.118,0.966,-0.164,1.770,1.007,0.458,73.333,566035.000,1.000
-8.460,-11.307,-9.656,-4.922,-5.285,4.023,8.698,-1.917,-0.119,0.966,-0.165,1.892,1.068,0.427,73.333,566036.000,1.000
-8.428,-11.978,-9.835,-5.735,-6.664,1.668,3.855,-4.099,-0.118,0.963,-0.166,2.014,1.099,0.427,73.333,566037.000,1.000
-9.185,-13.709,-10.748,-7.770,-9.922,-3.468,-4.916,-9.282,-0.116,0.965,-0.169,2.075,1.282,0.275,73.333,566038.000,1.000
-9.989,-15.392,-11.390,-9.750,-13.058,-8.501,-12.785,-14.977,-0.114,0.967,-0.169,2.167,1.343,0.305,73.333,566039.000,1.000
-10.159,-15.715,-10.876,-10.090,-13.572,-9.903,-14.192,-17.547,-0.115,0.968,-0.166,2.167,1.465,0.183,73.333,566040.000,1.000
-9.381,-13.986,-8.729,-7.882,-10.216,-5.996,-7.171,-14.677,-0.114,0.971,-0.167,2.136,1.556,0.214,73.333,566041.000,1.000
-7.857,-10.750,-5.375,-3.646,-4.162,1.217,4.483,-7.395,-0.114,0.969,-0.167,2.014,1.862,0.244,73.333,566042.000,1.000
-6.261,-7.566,-2.136,0.853,1.598,7.149,13.565,0.364,-0.115,0.967,-0.168,1.984,1.984,0.214,73.333,566043.000,1.000
-5.435,-5.989,-0.397,3.616,4.252,8.057,14.540,4.311,-0.115,0.965,-0.167,2.014,2.045,0.061,73.333,566044.000,1.000
-5.918,-6.561,-0.835,3.559,3.017,3.744,7.188,2.533,-0.115,0.965,-0.167,2.136,2.106,-0.061,73.333,566045.000,1.000
-7.524,-8.450,-2.695,1.218,-0.387,-2.461,-3.430,-3.127,-0.115,0.965,-0.170,2.319,2.289,-0.183,73.333,566046.000,1.000
-9.430,-9.956,-4.338,-1.662,-2.971,-5.935,-10.426,-8.420,-0.115,0.966,-0.168,2.350,2.380,-0.336,73.333,566047.000,1.000
-10.766,-9.647,-4.394,-3.413,-2.597,-3.824,-9.530,-9.966,-0.112,0.967,-0.167,2.411,2.502,-0.427,73.333,566048.000,1.000
-11.124,-7.353,-2.494,-3.475,0.488,2.560,-2.201,-7.518,-0.114,0.968,-0.167,2.350,2.747,-0.458,73.333,566049.000,1.000
-10.643,-4.274,0.406,-2.526,3.926,8.249,5.222,-3.507,-0.114,0.967,-0.167,2.289,2.869,-0.519,73.333,566050.000,1.000
-9.792,-2.081,2.827,-1.755,5.147,8.417,6.691,-0.870,-0.115,0.967,-0.167,2.197,3.082,-0.519,73.333,566051.000,1.000
-9.092,-1.797,3.623,-2.004,3.220,2.189,0.867,-1.187,-0.115,0.966,-0.169,2.289,3.113,-0.519,73.333,566052.000,1.000
-8.814,-3.155,2.736,-3.243,-0.592,-6.606,-8.308,-3.828,-0.115,0.968,-0.170,2.289,3.265,-0.549,73.333,566053.000,1.000
-8.820,-4.781,1.342,-4.631,-3.666,-11.865,-14.163,-6.333,-0.116,0.966,-0.173,2.258,3.296,-0.671,73.333,566054.000,1.000
-8.750,-5.260,0.710,-5.287,-3.938,-9.460,-11.945,-6.268,-0.117,0.964,-0.169,2.167,3.418,-0.793,73.333,566055.000,1.000
-8.370,-4.382,1.222,-5.151,-1.761,-0.780,-2.805,-3.504,-0.115,0.967,-0.171,2.167,3.601,-0.824,73.333,566056.000,1.000
-7.745,-3.332,1.992,-5.110,0.138,7.858,6.251,-0.750,-0.115,0.968,-0.170,2.075,3.601,-0.946,73.333,566057.000,1.000
-7.049,-3.451,1.813,-6.024,-0.860,10.511,7.885,-1.025,-0.113,0.967,-0.172,2.014,3.662,-0.977,73.333,566058.000,1.000
-6.322,-4.903,0.530,-7.694,-4.720,6.546,0.939,-4.487,-0.110,0.966,-0.170,2.075,3.845,-1.068,73.333,566059.000,1.000
-5.608,-6.798,-1.060,-9.155,-9.093,-0.161,-9.311,-8.407,-0.110,0.964,-0.169,2.075,4.150,-1.251,73.333,566060.000,1.000
-5.228,-8.350,-2.104,-9.781,-11.895,-6.000,-16.982,-10.009,-0.112,0.965,-0.174,2.197,4.303,-1.404,73.333,566061.000,1.000
-5.671,-9.497,-2.630,-9.803,-12.889,-10.282,-20.318,-8.837,-0.114,0.963,-0.174,2.197,4.456,-1.434,73.333,566062.000,1.000
-7.111,-10.407,-3.186,-9.703,-12.764,-13.437,-20.301,-6.352,-0.116,0.962,-0.178,2.167,4.456,-1.648,73.333,566063.000,1.000
-9.151,-10.921,-3.836,-9.415,-11.711,-14.836,-17.465,-3.859,-0.115,0.962,-0.181,2.502,4.547,-1.709,73.333,566064.000,1.000
-11.097,-10.854,-4.309,-8.499,-9.696,-13.949,-12.501,-1.708,-0.116,0.962,-0.179,2.655,4.669,-1.801,73.333,566065.000,1.000
-12.387,-10.456,-4.368,-6.773,-7.326,-11.997,-7.627,-0.047,-0.114,0.961,-0.177,2.808,4.791,-1.953,73.333,566066.000,1.000
-12.799,-10.246,-4.128,-4.576,-5.659,-10.955,-5.461,0.563,-0.114,0.960,-0.177,2.838,5.035,-2.045,73.333,566067.000,1.000
-12.427,-10.554,-3.901,-2.507,-5.448,-11.803,-7.102,-0.477,-0.112,0.959,-0.176,2.991,5.096,-2.136,73.333,566068.000,1.000
-11.468,-11.252,-3.757,-0.973,-6.603,-13.959,-11.244,-2.964,-0.110,0.959,-0.177,3.113,5.249,-2.258,73.333,566069.000,1.000
-10.000,-11.765,-3.522,0.079,-8.051,-15.630,-14.670,-5.596,-0.110,0.958,-0.177,3.143,5.524,-2.197,73.333,566070.000,1.000
-7.992,-11.410,-2.752,1.020,-8.376,-15.024,-14.207,-6.745,-0.110,0.956,-0.179,3.265,5.768,-2.350,73.333,566071.000,1.000
-5.579,-9.933,-1.264,2.109,-6.908,-11.821,-9.215,-5.633,-0.112,0.958,-0.179,3.357,6.012,-2.502,73.333,566072.000,1.000
-3.182,-7.763,0.611,3.301,-4.142,-7.463,-2.017,-2.592,-0.113,0.958,-0.180,3.601,6.195,-2.625,73.333,566073.000,1.000
-1.253,-5.780,2.353,4.229,-1.416,-4.328,3.619,1.011,-0.115,0.957,-0.181,3.662,6.409,-2.808,73.333,566074.000,1.000
0.065,-4.739,3.430,4.286,-0.220,-4.336,4.456,2.959,-0.117,0.958,-0.183,3.876,6.714,-2.991,73.333,566075.000,1.000
1.116,-4.597,3.881,3.204,-1.022,-7.093,0.392,1.852,-0.116,0.957,-0.185,3.998,6.927,-3.174,73.333,566076.000,1.000
2.536,-4.487,4.213,1.485,-2.710,-9.702,-5.044,-1.303,-0.116,0.957,-0.179,4.150,7.050,-3.479,73.333,566077.000,1.000
4.702,-3.601,4.732,0.000,-3.665,-9.524,-7.849,-3.987,-0.116,0.958,-0.180,4.272,7.202,-3.693,73.333,566078.000,1.000
7.378,-1.870,5.253,-0.700,-3.118,-6.445,-6.610,-4.420,-0.115,0.955,-0.180,4.303,7.294,-3.998,73.333,566079.000,1.000
10.009,0.371,5.365,-0.509,-1.170,-1.742,-2.257,-2.532,-0.115,0.953,-0.183,4.486,7.477,-4.089,73.333,566080.000,1.000
12.220,2.848,5.147,0.494,1.764,3.549,3.528,0.864,-0.114,0.954,-0.183,4.669,7.690,-4.272,73.333,566081.000,1.000
13.852,5.144,4.806,1.992,4.915,8.070,8.528,5.088,-0.115,0.954,-0.183,4.883,7.904,-4.608,73.333,566082.000,1.000
14.987,6.769,4.366,3.508,7.330,10.073,10.653,9.796,-0.117,0.953,-0.184,5.157,8.026,-4.944,73.333,566083.000,1.000
16.055,7.673,4.038,4.729,8.457,9.065,9.331,14.162,-0.116,0.953,-0.190,5.371,8.118,-5.280,73.333,566084.000,1.000
17.451,8.086,3.904,5.324,8.069,6.106,5.103,15.937,-0.118,0.952,-0.190,5.646,8.270,-5.585,73.333,566085.000,1.000
19.064,8.037,3.789,4.826,6.002,2.426,-1.321,12.564,-0.119,0.949,-0.193,5.859,8.423,-5.920,73.333,566086.000,1.000
20.554,7.552,3.542,3.197,2.665,-1.108,-8.764,3.899,-0.119,0.949,-0.192,6.134,8.514,-6.439,73.333,566087.000,1.000
21.874,7.028,3.432,1.261,-0.666,-3.662,-15.124,-6.870,-0.117,0.949,-0.188,6.531,8.698,-6.927,73.333,566088.000,1.000
23.181,6.940,3.905,0.193,-2.659,-4.756,-18.419,-15.197,-0.114,0.951,-0.187,6.744,8.942,-7.324,73.333,566089.000,1.000
24.515,7.413,4.900,0.711,-2.771,-4.733,-18.211,-17.788,-0.110,0.952,-0.184,6.683,9.216,-7.721,73.333,566090.000,1.000
25.874,8.337,6.214,2.854,-1.217,-4.256,-15.318,-14.085,-0.108,0.951,-0.184,6.866,9.552,-7.996,73.333,566091.000,1.000
27.358,9.673,7.793,6.129,1.491,-3.472,-10.772,-6.343,-0.108,0.952,-0.184,6.927,9.827,-8.453,73.333,566092.000,1.000
29.098,11.509,9.737,9.788,4.833,-1.955,-5.351,1.966,-0.111,0.952,-0.184,6.989,10.223,-8.850,73.333,566093.000,1.000
31.083,13.894,12.196,13.099,8.252,0.655,0.065,8.110,-0.112,0.958,-0.187,7.202,10.529,-9.277,73.333,566094.000,1.000
33.078,16.767,14.971,15.562,11.221,4.383,4.497,10.998,-0.112,0.962,-0.184,7.263,10.864,-9.583,73.333,566095.000,1.000
34.782,20.055,17.829,17.200,13.618,9.276,7.923,11.327,-0.110,0.964,-0.186,7.324,11.169,-9.918,73.333,566096.000,1.000
36.024,23.602,20.649,18.428,15.765,15.393,11.279,10.851,-0.111,0.968,-0.187,7.324,11.536,-10.254,73.333,566097.000,1.000
36.762,26.910,23.304,19.548,17.870,22.206,15.311,10.941,-0.115,0.970,-0.186,7.050,11.810,-10.498,73.333,566098.000,1.000
36.945,29.050,25.437,20.423,19.520,27.955,19.469,11.837,-0.115,0.970,-0.183,6.775,12.054,-10.590,73.333,566099.000,1.000
36.389,28.955,26.184,20.542,19.748,29.840,21.477,13.052,-0.116,0.972,-0.182,6.561,12.329,-10.742,73.333,566100.000,1.000
34.878,26.161,24.948,19.487,17.798,26.004,19.078,14.045,-0.120,0.975,-0.185,6.378,12.604,-10.803,73.333,566101.000,1.000
32.396,21.383,21.933,17.298,13.899,17.667,12.617,14.232,-0.120,0.973,-0.182,5.951,12.726,-10.925,73.333,566102.000,1.000
29.227,16.124,18.016,14.406,9.154,8.350,5.196,12.901,-0.123,0.973,-0.181,5.676,12.909,-10.834,73.333,566103.000,1.000
25.849,11.750,14.263,11.393,4.837,1.245,-0.030,9.766,-0.125,0.972,-0.184,5.432,13.031,-10.803,73.333,566104.000,1.000
22.734,9.038,11.345,8.870,2.008,-2.029,-2.014,5.776,-0.130,0.971,-0.184,5.219,13.184,-10.864,73.333,566105.000,1.000
20.146,8.086,9.599,7.378,1.274,-1.464,-1.451,2.959,-0.133,0.971,-0.187,5.005,13.123,-10.834,73.333,566106.000,1.000
17.942,8.154,8.752,6.880,2.193,1.104,-0.201,2.505,-0.134,0.969,-0.187,4.791,13.031,-10.681,73.333,566107.000,1.000
15.637,7.869,7.903,6.452,3.045,2.596,-0.927,3.018,-0.135,0.968,-0.188,4.730,13.000,-10.590,73.333,566108.000,1.000
12.759,6.056,6.164,4.847,1.844,0.597,-5.656,1.335,-0.137,0.968,-0.187,4.517,12.909,-10.468,73.333,566109.000,1.000
9.226,2.565,3.179,1.616,-1.973,-4.895,-13.740,-4.332,-0.140,0.964,-0.191,4.303,12.848,-10.284,73.333,566110.000,1.000
5.531,-1.503,-0.315,-2.230,-6.750,-11.110,-21.210,-12.159,-0.143,0.964,-0.191,4.242,12.665,-10.223,73.333,566111.000,1.000
2.451,-4.446,-3.053,-4.990,-9.814,-14.202,-23.644,-18.200,-0.145,0.962,-0.189,4.211,12.634,-9.979,73.333,566112.000,1.000
0.498,-5.029,-4.171,-5.561,-9.462,-11.971,-19.701,-19.473,-0.147,0.963,-0.189,4.059,12.329,-9.857,73.333,566113.000,1.000
-0.348,-3.100,-3.516,-3.869,-5.756,-5.206,-11.314,-15.215,-0.147,0.965,-0.189,3.906,12.054,-9.705,73.333,566114.000,1.000
-0.538,0.423,-1.744,-0.614,-0.037,3.156,-1.482,-6.551,-0.149,0.965,-0.188,3.815,11.841,-9.430,73.333,566115.000,1.000
-0.730,4.059,0.220,3.119,5.936,10.094,7.692,4.177,-0.149,0.965,-0.190,3.723,11.566,-9.216,73.333,566116.000,1.000
-1.617,6.418,1.484,6.102,10.546,14.138,15.177,13.931,-0.147,0.963,-0.195,3.632,11.383,-9.003,73.333,566117.000,1.000
-3.813,6.610,1.384,7.165,12.494,15.262,20.241,19.663,-0.149,0.962,-0.192,3.479,11.200,-8.545,73.333,566118.000,1.000
-7.682,4.336,-0.353,5.563,11.005,13.759,22.043,19.535,-0.152,0.962,-0.191,3.540,10.834,-8.270,73.333,566119.000,1.000
-13.101,-0.072,-3.760,1.360,6.261,9.838,19.845,14.034,-0.153,0.962,-0.194,3.448,10.559,-7.996,73.333,566120.000,1.000
-19.291,-5.618,-8.282,-4.419,-0.397,4.210,14.015,5.786,-0.154,0.963,-0.193,3.326,10.345,-7.538,73.333,566121.000,1.000
-25.032,-10.899,-12.937,-10.237,-6.919,-1.497,6.458,-2.049,-0.155,0.963,-0.195,3.296,10.010,-7.233,73.333,566122.000,1.000
-29.286,-14.747,-16.841,-14.831,-11.620,-5.639,-0.686,-7.439,-0.156,0.961,-0.196,3.204,9.705,-6.927,73.333,566123.000,1.000
-31.679,-16.807,-19.506,-17.699,-14.057,-7.938,-6.564,-10.088,-0.157,0.960,-0.193,3.052,9.338,-6.470,73.333,566124.000,1.000
-32.360,-17.370,-20.887,-18.959,-14.778,-9.262,-11.023,-10.962,-0.159,0.960,-0.198,3.052,9.094,-6.073,73.333,566125.000,1.000
-31.584,-16.797,-20.857,-18.875,-14.523,-10.434,-13.526,-11.360,-0.159,0.961,-0.199,3.113,8.545,-5.829,73.333,566126.000,1.000
-29.636,-15.434,-19.388,-17.811,-14.043,-12.207,-14.400,-12.432,-0.162,0.959,-0.199,3.021,8.301,-5.402,73.333,566127.000,1.000
-26.949,-13.751,-16.826,-16.301,-14.026,-15.295,-15.373,-14.724,-0.161,0.961,-0.200,3.082,7.782,-5.096,73.333,566128.000,1.000
-24.041,-12.134,-13.646,-14.793,-14.465,-19.162,-17.269,-17.541,-0.161,0.960,-0.201,2.960,7.385,-4.791,73.333,566129.000,1.000
-21.436,-10.698,-10.460,-13.480,-14.553,-21.672,-18.754,-19.324,-0.160,0.959,-0.197,2.869,7.080,-4.395,73.333,566130.000,1.000
-19.676,-9.523,-7.829,-12.429,-13.628,-20.997,-18.190,-19.032,-0.162,0.959,-0.199,2.808,6.683,-4.120,73.333,566131.000,1.000
-19.215,-8.915,-6.295,-11.705,-11.878,-17.494,-15.757,-16.836,-0.165,0.960,-0.201,2.808,6.256,-3.906,73.333,566132.000,1.000
-20.087,-9.173,-6.093,-11.152,-9.907,-13.135,-12.595,-13.376,-0.165,0.962,-0.199,2.686,5.859,-3.632,73.333,566133.000,1.000
-21.715,-10.191,-6.846,-10.312,-8.106,-9.564,-9.011,-9.141,-0.163,0.965,-0.197,2.686,5.371,-3.265,73.333,566134.000,1.000
-23.144,-11.560,-8.120,-8.927,-6.859,-7.554,-5.281,-5.009,-0.163,0.964,-0.196,2.533,4.822,-2.930,73.333,566135.000,1.000
-23.540,-12.965,-9.594,-7.304,-6.860,-7.755,-2.890,-2.456,-0.160,0.967,-0.197,2.289,4.486,-2.563,73.333,566136.000,1.000
-22.567,-14.172,-11.031,-6.062,-8.485,-10.170,-3.066,-2.479,-0.150,0.997,-0.192,3.113,4.608,-2.960,73.333,566137.000,1.000
-20.477,-14.803,-12.124,-5.626,-11.114,-13.179,-4.793,-4.601,-0.161,0.986,-0.183,2.289,4.822,-3.326,73.333,566138.000,1.000
-18.017,-14.657,-12.634,-6.162,-13.752,-14.892,-6.122,-7.511,-0.164,0.947,-0.191,0.549,4.028,-1.740,73.333,566139.000,1.000
-16.167,-14.100,-12.881,-7.741,-15.918,-14.903,-6.501,-10.257,-0.160,0.935,-0.206,0.427,3.265,-0.671,73.333,566140.000,1.000
-15.704,-13.784,-13.354,-10.232,-17.559,-13.764,-6.487,-12.556,-0.163,0.945,-0.218,1.373,2.960,-0.824,73.333,566141.000,1.000
-16.848,-14.173,-14.406,-13.232,-18.717,-11.939,-6.534,-14.556,-0.167,0.955,-0.218,2.045,2.747,-0.519,73.333,566142.000,1.000
-19.090,-15.250,-15.939,-16.019,-19.306,-9.650,-6.409,-16.114,-0.168,0.957,-0.213,2.014,2.045,0.061,73.333,566143.000,1.000
-21.315,-16.409,-17.173,-17.615,-18.966,-6.872,-5.280,-16.388,-0.163,0.961,-0.208,1.953,1.282,0.427,73.333,566144.000,1.000
-22.340,-16.706,-17.308,-17.360,-17.283,-3.190,-2.481,-14.711,-0.158,0.964,-0.200,2.197,1.129,0.732,73.333,566145.000,1.000
-21.558,-15.500,-15.985,-15.413,-14.323,1.649,1.730,-11.531,-0.156,0.967,-0.192,2.014,0.946,0.885,73.333,566146.000,1.000
-19.243,-13.036,-13.615,-12.640,-10.886,6.508,5.642,-8.124,-0.158,0.970,-0.195,1.526,0.732,1.312,73.333,566147.000,1.000
-16.284,-10.257,-11.036,-9.991,-8.011,9.077,7.200,-5.461,-0.158,0.969,-0.202,1.099,0.427,1.709,73.333,566148.000,1.000
-13.646,-8.100,-8.905,-8.079,-6.338,7.737,5.677,-3.817,-0.159,0.966,-0.209,0.916,0.153,2.075,73.333,566149.000,1.000
-12.043,-7.151,-7.942,-7.322,-6.171,2.398,1.276,-3.393,-0.159,0.964,-0.212,0.885,-0.244,2.411,73.333,566150.000,1.000
-11.788,-7.640,-8.766,-7.957,-7.650,-5.847,-5.580,-4.385,-0.157,0.961,-0.210,0.885,-0.732,2.686,73.333,566151.000,1.000
-12.621,-9.233,-11.366,-9.659,-10.232,-14.584,-13.353,-6.302,-0.157,0.956,-0.207,0.885,-1.068,2.930,73.333,566152.000,1.000
-13.655,-10.806,-14.525,-11.204,-12.170,-19.966,-18.466,-7.452,-0.158,0.954,-0.204,1.007,-1.404,3.143,73.333,566153.000,1.000
-13.828,-10.981,-16.242,-10.971,-11.300,-18.513,-17.021,-5.683,-0.157,0.954,-0.205,1.068,-1.556,3.235,73.333,566154.000,1.000
-12.756,-9.341,-15.467,-8.304,-7.027,-10.290,-8.525,-0.401,-0.155,0.958,-0.209,1.068,-1.801,3.204,73.333,566155.000,1.000
-11.168,-6.964,-12.832,-4.242,-1.246,0.281,2.953,6.340,-0.152,0.959,-0.208,0.946,-2.014,3.326,73.333,566156.000,1.000
-10.397,-5.568,-10.132,-0.773,3.035,7.507,11.605,11.179,-0.152,0.960,-0.207,0.732,-2.075,3.448,73.333,566157.000,1.000
-11.338,-6.131,-8.927,0.621,3.887,8.322,13.774,11.849,-0.149,0.962,-0.207,0.641,-2.289,3.510,73.333,566158.000,1.000
-13.796,-8.141,-9.400,-0.165,1.621,3.931,10.014,8.476,-0.148,0.962,-0.208,0.580,-2.472,3.448,73.333,566159.000,1.000
-16.641,-9.956,-10.618,-1.995,-1.574,-1.453,4.286,3.234,-0.146,0.965,-0.208,0.427,-2.533,3.357,73.333,566160.000,1.000
-18.571,-9.994,-11.227,-3.284,-3.201,-3.901,0.913,-0.958,-0.143,0.965,-0.209,0.305,-2.655,3.113,73.333,566161.000,1.000
-18.933,-7.913,-10.502,-3.051,-2.200,-2.586,1.309,-2.041,-0.141,0.965,-0.211,0.122,-2.625,2.960,73.333,566162.000,1.000
-17.882,-4.680,-8.642,-1.432,0.661,0.489,3.827,0.264,-0.137,0.963,-0.211,-0.061,-2.563,2.869,73.333,566163.000,1.000
-15.851,-1.531,-6.162,0.699,3.856,3.073,6.200,4.582,-0.132,0.960,-0.211,-0.214,-2.502,2.808,73.333,566164.000,1.000
-13.127,0.917,-3.586,2.429,6.270,4.451,7.306,8.686,-0.133,0.958,-0.208,-0.244,-2.350,2.808,73.333,566165.000,1.000
-9.870,2.776,-1.045,3.386,7.675,5.418,7.714,10.887,-0.131,0.956,-0.209,-0.305,-2.228,2.716,73.333,566166.000,1.000
-6.287,4.465,1.569,3.797,8.534,7.168,8.759,11.087,-0.127,0.953,-0.208,-0.427,-2.106,2.686,73.333,566167.000,1.000
-2.788,6.082,4.094,4.006,9.151,9.626,10.366,10.265,-0.127,0.953,-0.208,-0.275,-1.801,2.563,73.333,566168.000,1.000
-0.067,7.011,5.799,3.893,8.945,10.773,10.275,8.945,-0.125,0.952,-0.206,-0.336,-1.587,2.502,73.333,566169.000,1.000
1.175,6.408,5.640,2.929,7.025,8.599,6.499,6.692,-0.126,0.950,-0.209,-0.183,-1.282,2.350,73.333,566170.000,1.000
0.840,4.187,3.522,0.884,3.467,3.688,0.154,3.179,-0.126,0.949,-0.208,-0.183,-1.007,2.319,73.333,566171.000,1.000
-0.400,1.236,0.502,-1.811,-0.513,-1.293,-5.625,-1.012,-0.126,0.951,-0.207,-0.214,-0.793,2.197,73.333,566172.000,1.000
-1.567,-1.226,-2.013,-4.329,-3.460,-4.095,-8.446,-4.540,-0.129,0.950,-0.210,-0.122,-0.488,2.075,73.333,566173.000,1.000
-1.874,-2.214,-2.969,-5.873,-4.378,-3.844,-7.603,-6.038,-0.131,0.949,-0.207,-0.122,-0.427,2.014,73.333,566174.000,1.000
-0.902,-1.316,-2.215,-6.059,-3.078,-0.848,-3.983,-5.016,-0.135,0.950,-0.209,-0.153,-0.183,1.892,73.333,566175.000,1.000
1.350,1.122,-0.222,-5.015,-0.206,3.513,0.665,-2.004,-0.136,0.949,-0.209,-0.244,-0.122,1.740,73.333,566176.000,1.000
4.389,4.181,2.209,-3.245,3.189,7.401,4.924,1.975,-0.136,0.949,-0.207,-0.244,-0.122,1.617,73.333,566177.000,1.000
7.333,6.827,4.310,-1.420,6.124,9.383,8.109,5.677,-0.136,0.947,-0.211,-0.214,0.031,1.495,73.333,566178.000,1.000
9.256,8.300,5.670,-0.172,7.775,8.728,9.513,7.714,-0.138,0.946,-0.209,-0.183,0.000,1.495,73.333,566179.000,1.000
9.650,8.434,6.152,0.248,7.815,5.724,8.512,7.359,-0.138,0.946,-0.209,-0.122,0.031,1.282,73.333,566180.000,1.000
8.799,7.936,6.270,0.404,7.069,2.429,6.552,5.674,-0.139,0.946,-0.212,-0.061,0.122,1.221,73.333,566181.000,1.000
7.661,8.033,6.879,1.374,7.254,2.166,7.264,4.974,-0.139,0.948,-0.211,-0.031,0.153,1.129,73.333,566182.000,1.000
7.094,9.328,8.280,3.699,9.308,6.602,12.758,6.582,-0.141,0.950,-0.207,0.061,0.183,1.129,73.333,566183.000,1.000
7.091,11.003,9.728,6.657,12.072,13.273,20.214,9.334,-0.141,0.952,-0.208,-0.061,0.153,1.129,73.333,566184.000,1.000
6.936,11.550,9.827,8.802,13.251,17.407,23.782,10.735,-0.139,0.953,-0.208,-0.061,0.061,1.068,73.333,566185.000,1.000
6.138,10.272,8.013,9.299,11.659,16.261,20.061,9.506,-0.139,0.951,-0.210,-0.153,0.122,0.977,73.333,566186.000,1.000
4.956,7.751,4.997,8.451,8.018,10.800,10.458,6.390,-0.138,0.953,-0.208,-0.031,0.122,1.099,73.333,566187.000,1.000
4.101,5.168,2.109,7.142,3.974,3.980,-0.656,3.005,-0.139,0.954,-0.202,-0.061,-0.061,1.221,73.333,566188.000,1.000
4.147,3.507,0.546,6.189,0.982,-1.277,-8.643,0.700,-0.141,0.955,-0.207,-0.183,-0.061,1.251,73.333,566189.000,1.000
5.138,3.109,0.658,6.012,-0.198,-3.265,-10.661,0.212,-0.139,0.955,-0.209,-0.183,-0.061,1.312,73.333,566190.000,1.000
6.565,3.511,2.011,6.530,0.177,-2.618,-7.088,1.535,-0.137,0.957,-0.209,-0.305,-0.031,1.434,73.333,566191.000,1.000
7.683,3.702,3.516,7.102,0.795,-2.250,-1.826,3.545,-0.136,0.957,-0.208,-0.336,0.000,1.648,73.333,566192.000,1.000
8.034,3.006,4.123,6.953,0.337,-4.571,0.611,4.540,-0.137,0.959,-0.208,-0.305,-0.092,1.770,73.333,566193.000,1.000
7.775,1.837,3.790,5.936,-1.052,-8.556,-0.556,3.890,-0.140,0.958,-0.211,-0.275,-0.183,1.953,73.333,566194.000,1.000
7.561,1.398,3.359,4.717,-1.753,-10.560,-2.103,2.740,-0.142,0.958,-0.210,-0.336,-0.214,2.045,73.333,566195.000,1.000
8.136,2.656,3.908,4.172,-0.323,-7.985,-0.882,2.738,-0.140,0.957,-0.210,-0.519,-0.244,2.106,73.333,566196.000,1.000
9.812,5.574,5.730,4.558,3.043,-1.669,2.873,4.268,-0.143,0.958,-0.209,-0.610,-0.336,2.197,73.333,566197.000,1.000
12.192,9.196,8.179,5.397,6.771,5.036,6.517,6.425,-0.140,0.959,-0.209,-0.610,-0.397,2.289,73.333,566198.000,1.000
14.465,12.348,10.466,6.069,9.268,9.026,7.897,8.205,-0.140,0.959,-0.208,-0.763,-0.519,2.441,73.333,566199.000,1.000
15.968,14.272,12.020,6.237,9.829,9.353,6.608,9.000,-0.141,0.959,-0.209,-0.854,-0.671,2.533,73.333,566200.000,1.000
16.511,14.768,12.731,5.898,8.661,6.865,3.633,8.564,-0.140,0.959,-0.211,-0.854,-0.671,2.594,73.333,566201.000,1.000
16.324,14.071,12.691,5.228,6.500,2.904,0.232,6.992,-0.141,0.959,-0.212,-0.946,-0.854,2.655,73.333,566202.000,1.000
15.929,12.830,12.113,4.542,4.345,-0.989,-2.565,4.649,-0.140,0.959,-0.209,-0.946,-1.007,2.777,73.333,566203.000,1.000
15.968,12.036,11.526,4.381,3.389,-2.732,-3.378,2.347,-0.139,0.961,-0.213,-0.977,-1.099,2.808,73.333,566204.000,1.000
16.765,12.518,11.423,5.299,4.632,-0.434,-0.758,1.381,-0.139,0.961,-0.214,-1.068,-1.068,2.808,73.333,566205.000,1.000
17.987,14.243,12.031,7.356,7.965,5.659,4.807,2.673,-0.137,0.960,-0.215,-1.251,-1.282,2.838,73.333,566206.000,1.000
18.816,16.186,12.954,9.796,11.757,12.210,9.748,5.680,-0.140,0.962,-0.212,-1.251,-1.312,2.808,73.333,566207.000,1.000
18.614,17.141,13.487,11.532,14.008,15.022,10.225,8.791,-0.139,0.964,-0.207,-1.282,-1.434,2.808,73.333,566208.000,1.000
17.523,16.747,13.467,12.084,14.053,12.774,5.961,10.897,-0.139,0.960,-0.206,-1.343,-1.465,2.777,73.333,566209.000,1.000
16.373,15.592,13.247,11.871,12.856,7.852,0.147,12.068,-0.139,0.959,-0.208,-1.404,-1.434,2.655,73.333,566210.000,1.000
15.989,14.496,13.331,11.655,11.767,3.661,-3.531,12.823,-0.138,0.958,-0.210,-1.465,-1.617,2.716,73.333,566211.000,1.000
16.592,13.927,13.783,11.784,11.459,2.249,-3.182,13.209,-0.136,0.956,-0.213,-1.465,-1.648,2.869,73.333,566212.000,1.000
17.787,13.901,14.216,12.036,11.830,3.945,0.904,12.918,-0.134,0.958,-0.217,-1.526,-1.862,2.930,73.333,566213.000,1.000
18.896,13.975,14.207,11.928,12.188,7.267,6.381,11.816,-0.134,0.957,-0.214,-1.526,-1.831,2.960,73.333,566214.000,1.000
19.346,13.451,13.342,11.019,11.564,9.234,9.668,9.926,-0.133,0.958,-0.215,-1.495,-1.801,2.991,73.333,566215.000,1.000
18.980,12.005,11.689,9.262,9.571,7.636,8.805,7.476,-0.131,0.959,-0.215,-1.373,-1.770,3.143,73.333,566216.000,1.000
18.077,10.053,9.776,7.143,6.930,3.287,5.130,5.085,-0.130,0.959,-0.212,-1.434,-1.831,3.113,73.333,566217.000,1.000
17.033,8.267,8.163,5.276,4.659,-1.028,1.136,3.226,-0.127,0.961,-0.213,-1.434,-1.892,3.143,73.333,566218.000,1.000
16.029,6.830,7.087,3.840,2.899,-3.691,-2.457,1.461,-0.127,0.958,-0.214,-1.556,-1.862,3.296,73.333,566219.000,1.000
14.952,5.336,6.183,2.478,0.924,-5.462,-6.710,-1.145,-0.128,0.955,-0.213,-1.526,-1.831,3.418,73.333,566220.000,1.000
13.663,3.460,5.092,0.831,-1.681,-7.581,-11.803,-4.634,-0.129,0.952,-0.213,-1.495,-1.801,3.571,73.333,566221.000,1.000
12.280,1.604,3.920,-0.938,-4.118,-9.503,-15.517,-7.532,-0.131,0.950,-0.209,-1.373,-1.740,3.601,73.333,566222.000,1.000
11.192,0.766,3.306,-2.152,-4.855,-9.262,-14.853,-7.855,-0.135,0.948,-0.211,-1.251,-1.801,3.662,73.333,566223.000,1.000
10.766,1.725,4.034,-2.188,-3.016,-5.660,-8.953,-4.962,-0.137,0.949,-0.208,-1.129,-2.014,3.601,73.333,566224.000,1.000
10.972,4.409,6.153,-1.065,0.779,0.531,-0.225,-0.340,-0.138,0.950,-0.209,-0.946,-2.045,3.510,73.333,566225.000,1.000
11.361,7.917,9.042,0.678,4.903,7.151,7.514,3.695,-0.140,0.951,-0.211,-0.854,-2.197,3.418,73.333,566226.000,1.000
11.414,11.072,11.757,2.547,7.976,12.158,11.800,5.820,-0.141,0.953,-0.207,-0.702,-2.350,3.448,73.333,566227.000,1.000
10.934,13.082,13.529,4.480,9.711,14.725,12.815,6.515,-0.139,0.954,-0.208,-0.885,-2.563,3.387,73.333,566228.000,1.000
10.019,13.660,14.000,6.494,10.459,14.775,11.918,7.110,-0.140,0.957,-0.208,-0.885,-2.716,3.296,73.333,566229.000,1.000
8.789,12.741,12.869,8.044,10.202,12.061,9.376,7.977,-0.140,0.955,-0.207,-0.916,-2.930,3.143,73.333,566230.000,1.000
7.362,10.608,10.271,8.333,8.688,6.897,5.034,8.244,-0.142,0.955,-0.210,-0.977,-3.082,3.143,73.333,566231.000,1.000
5.959,8.062,6.972,7.151,6.298,1.129,0.182,7.073,-0.138,0.953,-0.208,-1.007,-3.235,3.082,73.333,566232.000,1.000
4.823,5.999,4.039,5.154,4.132,-2.857,-2.596,4.821,-0.135,0.954,-0.205,-1.038,-3.448,3.082,73.333,566233.000,1.000
4.130,4.895,2.364,3.445,3.306,-3.651,-1.152,3.040,-0.137,0.957,-0.207,-1.068,-3.571,2.869,73.333,566234.000,1.000
3.937,4.751,2.089,2.857,4.220,-1.344,4.534,3.239,-0.134,0.956,-0.209,-1.160,-3.601,2.777,73.333,566235.000,1.000
4.043,5.185,2.709,3.413,6.169,2.510,11.752,5.465,-0.133,0.955,-0.211,-1.221,-3.693,2.838,73.333,566236.000,1.000
4.001,5.584,3.268,4.298,7.695,5.857,16.283,8.044,-0.130,0.954,-0.208,-1.282,-3.723,2.808,73.333,566237.000,1.000
3.499,5.542,3.048,4.568,7.747,7.670,15.710,9.073,-0.128,0.954,-0.209,-1.251,-3.784,2.777,73.333,566238.000,1.000
2.651,5.091,2.158,3.884,6.365,7.908,11.049,8.007,-0.127,0.952,-0.210,-1.282,-3.876,2.716,73.333,566239.000,1.000
1.764,4.397,0.948,2.443,4.121,6.234,4.374,5.523,-0.126,0.952,-0.210,-1.068,-3.815,2.655,73.333,566240.000,1.000
1.000,3.535,-0.304,0.616,1.513,2.367,-2.866,2.519,-0.124,0.952,-0.211,-1.007,-3.723,2.594,73.333,566241.000,1.000
0.395,2.683,-1.436,-1.157,-0.804,-2.316,-8.863,-0.233,-0.124,0.953,-0.208,-1.038,-3.662,2.655,73.333,566242.000,1.000
0.029,2.210,-2.228,-2.346,-1.888,-5.105,-11.380,-1.813,-0.123,0.955,-0.208,-0.977,-3.632,2.472,73.333,566243.000,1.000
-0.111,2.262,-2.478,-2.668,-1.297,-4.369,-9.645,-1.631,-0.123,0.956,-0.208,-0.885,-3.510,2.380,73.333,566244.000,1.000
-0.356,2.422,-2.509,-2.482,0.296,-0.901,-5.265,-0.395,-0.123,0.954,-0.207,-0.885,-3.540,2.441,73.333,566245.000,1.000
-1.118,2.079,-2.708,-2.403,1.700,3.027,-0.968,0.464,-0.125,0.955,-0.210,-0.946,-3.479,2.350,73.333,566246.000,1.000
-2.532,0.960,-3.198,-2.679,2.116,5.120,0.852,0.217,-0.124,0.955,-0.206,-0.946,-3.357,2.289,73.333,566247.000,1.000
-4.430,-0.821,-3.959,-3.128,1.308,3.894,-0.902,-0.947,-0.124,0.954,-0.207,-0.885,-3.418,2.106,73.333,566248.000,1.000
-6.413,-2.874,-4.826,-3.399,-0.457,-0.510,-5.356,-2.542,-0.125,0.954,-0.205,-0.854,-3.357,2.014,73.333,566249.000,1.000
-7.819,-4.441,-5.450,-3.073,-2.182,-5.727,-9.662,-3.839,-0.127,0.954,-0.204,-0.916,-3.204,1.923,73.333,566250.000,1.000
-7.886,-4.661,-5.087,-1.749,-2.538,-8.409,-10.442,-3.954,-0.127,0.954,-0.208,-0.885,-3.174,1.770,73.333,566251.000,1.000
-6.298,-3.338,-3.359,0.524,-1.091,-6.919,-6.570,-2.756,-0.126,0.956,-0.209,-0.885,-3.052,1.648,73.333,566252.000,1.000
-3.501,-1.232,-0.810,3.101,1.224,-2.567,-0.171,-1.072,-0.125,0.957,-0.209,-0.946,-3.113,1.526,73.333,566253.000,1.000
-0.419,0.579,1.561,5.156,3.017,1.889,5.441,0.250,-0.123,0.956,-0.209,-0.977,-2.899,1.373,73.333,566254.000,1.000
2.084,1.447,2.826,6.100,3.528,4.609,8.449,0.903,-0.121,0.958,-0.209,-0.977,-2.838,1.160,73.333,566255.000,1.000
3.586,1.279,2.693,5.815,2.852,5.360,9.292,0.955,-0.123,0.959,-0.207,-0.977,-2.716,1.129,73.333,566256.000,1.000
4.085,0.140,1.236,4.504,1.247,4.148,8.594,0.243,-0.123,0.958,-0.209,-1.099,-2.625,0.916,73.333,566257.000,1.000
3.766,-1.969,-1.385,2.375,-1.436,0.413,5.449,-1.979,-0.122,0.956,-0.206,-1.099,-2.502,0.732,73.333,566258.000,1.000
2.924,-4.829,-4.607,-0.278,-5.237,-5.648,-0.957,-6.334,-0.123,0.957,-0.206,-1.160,-2.411,0.610,73.333,566259.000,1.000
1.983,-7.703,-7.495,-2.824,-9.202,-11.786,-8.791,-12.048,-0.123,0.957,-0.207,-1.068,-2.319,0.519,73.333,566260.000,1.000
1.361,-9.612,-8.976,-4.465,-11.664,-14.802,-13.958,-16.834,-0.124,0.957,-0.207,-1.160,-2.228,0.488,73.333,566261.000,1.000
