EEG 1,EEG 2,EEG 3,EEG 4,EEG 5,EEG 6,EEG 7,EEG 8,Accelerometer X,Accelerometer Y,Accelerometer Z,Gyroscope X,Gyroscope Y,Gyroscope Z,Battery Level,Counter,Validation Indicator
-9.027,-4.471,-0.779,-0.874,6.368,5.770,18.368,11.235,-0.045,0.983,-0.142,-0.580,-0.610,1.068,73.333,725673.000,1.000
-8.626,-3.740,-1.384,-0.905,6.940,6.035,17.032,9.710,-0.047,0.984,-0.140,-0.549,-0.702,1.099,73.333,725674.000,1.000
-7.790,-2.693,-2.522,-1.633,6.242,3.353,12.442,6.479,-0.049,0.981,-0.137,-0.366,-0.702,0.916,73.333,725675.000,1.000
-6.947,-1.397,-3.926,-3.126,4.736,-0.175,6.744,2.293,-0.046,0.982,-0.140,-0.366,-0.702,0.854,73.333,725676.000,1.000
-6.285,0.449,-4.844,-4.890,3.511,-1.577,2.836,-1.507,-0.047,0.981,-0.140,-0.366,-0.702,0.854,73.333,725677.000,1.000
-5.841,2.886,-4.683,-6.261,3.335,0.265,2.073,-3.451,-0.046,0.985,-0.137,-0.397,-0.702,0.793,73.333,725678.000,1.000
-5.697,5.261,-3.569,-6.906,4.007,3.616,3.460,-2.793,-0.046,0.985,-0.135,-0.336,-0.824,0.793,73.333,725679.000,1.000
-5.920,6.640,-2.172,-6.910,4.665,5.704,4.977,-0.151,-0.045,0.985,-0.140,-0.519,-0.824,0.763,73.333,725680.000,1.000
-6.371,6.610,-1.142,-6.529,4.621,5.269,5.302,2.690,-0.046,0.984,-0.138,-0.580,-0.854,0.763,73.333,725681.000,1.000
-6.587,5.769,-0.437,-5.784,4.101,3.692,4.972,4.141,-0.045,0.984,-0.138,-0.580,-0.732,0.763,73.333,725682.000,1.000
-6.032,5.408,0.605,-4.310,4.154,3.847,5.927,4.071,-0.046,0.983,-0.139,-0.671,-0.793,0.763,73.333,725683.000,1.000
-4.640,6.431,2.478,-1.749,5.560,7.336,9.266,3.588,-0.046,0.984,-0.138,-0.671,-0.732,0.763,73.333,725684.000,1.000
-3.011,8.510,4.945,1.746,7.902,12.698,13.813,3.907,-0.047,0.984,-0.136,-0.793,-0.793,0.671,73.333,725685.000,1.000
-1.877,10.519,7.271,5.542,10.105,17.149,17.821,5.663,-0.047,0.984,-0.136,-0.854,-0.885,0.732,73.333,725686.000,1.000
-1.387,11.693,9.062,9.034,11.663,19.692,21.359,8.977,-0.046,0.983,-0.137,-0.946,-0.824,0.763,73.333,725687.000,1.000
-1.071,11.991,10.429,11.893,12.716,20.974,25.094,13.471,-0.047,0.983,-0.139,-1.007,-0.854,0.671,73.333,725688.000,1.000
-0.491,11.436,11.475,13.861,13.075,20.433,27.216,18.075,-0.046,0.984,-0.141,-0.946,-0.885,0.763,73.333,725689.000,1.000
0.237,9.756,11.991,14.615,11.987,15.965,24.068,21.327,-0.047,0.982,-0.140,-1.068,-0.824,0.732,73.333,725690.000,1.000
0.654,6.973,11.659,14.035,9.155,7.168,14.483,22.149,-0.048,0.981,-0.139,-1.190,-0.885,0.702,73.333,725691.000,1.000
0.536,3.891,10.562,12.449,5.382,-2.806,1.927,20.225,-0.046,0.980,-0.141,-1.190,-0.946,0.732,73.333,725692.000,1.000
0.128,1.692,9.203,10.427,2.018,-9.378,-8.042,15.859,-0.047,0.979,-0.140,-1.251,-0.916,0.793,73.333,725693.000,1.000
-0.095,1.183,8.219,8.471,0.106,-9.770,-11.596,9.987,-0.046,0.980,-0.139,-1.099,-1.129,0.793,73.333,725694.000,1.000
0.149,2.264,7.972,6.793,-0.241,-4.726,-8.917,3.916,-0.047,0.978,-0.138,-1.160,-1.129,0.824,73.333,725695.000,1.000
0.712,3.913,8.090,5.191,0.041,1.924,-3.715,-1.333,-0.048,0.978,-0.138,-1.190,-1.160,0.824,73.333,725696.000,1.000
1.214,4.887,7.800,3.345,-0.203,5.884,-0.257,-5.125,-0.048,0.979,-0.137,-1.190,-1.312,0.854,73.333,725697.000,1.000
1.364,4.511,6.548,1.177,-1.423,5.153,-0.803,-7.153,-0.050,0.980,-0.140,-1.190,-1.343,0.885,73.333,725698.000,1.000
1.001,2.853,4.317,-1.160,-3.337,0.410,-5.218,-7.776,-0.049,0.979,-0.140,-1.129,-1.312,0.854,73.333,725699.000,1.000
0.104,0.575,1.677,-3.311,-5.277,-6.167,-11.564,-7.714,-0.050,0.979,-0.141,-1.038,-1.343,0.793,73.333,725700.000,1.000
-1.085,-1.259,-0.513,-4.681,-6.325,-11.881,-16.826,-7.114,-0.049,0.979,-0.137,-0.977,-1.495,0.702,73.333,725701.000,1.000
-2.141,-1.705,-1.537,-4.785,-5.824,-14.632,-18.479,-5.741,-0.047,0.977,-0.139,-1.038,-1.465,0.763,73.333,725702.000,1.000
-2.696,-0.458,-1.229,-3.736,-3.985,-13.927,-16.231,-4.056,-0.048,0.980,-0.139,-0.977,-1.495,0.763,73.333,725703.000,1.000
-2.455,2.215,0.211,-1.998,-1.472,-10.431,-11.568,-2.841,-0.049,0.980,-0.136,-1.007,-1.495,0.702,73.333,725704.000,1.000
-1.191,5.761,2.565,0.204,1.376,-5.106,-6.083,-1.943,-0.049,0.979,-0.137,-0.946,-1.587,0.702,73.333,725705.000,1.000
0.984,9.266,5.402,2.839,4.378,0.509,-1.132,-0.428,-0.048,0.979,-0.138,-1.038,-1.587,0.793,73.333,725706.000,1.000
3.476,11.594,8.056,5.763,7.019,4.219,1.961,2.280,-0.047,0.983,-0.139,-0.977,-1.617,0.793,73.333,725707.000,1.000
5.514,12.069,9.906,8.640,8.602,4.621,2.427,5.673,-0.046,0.981,-0.141,-1.038,-1.587,0.763,73.333,725708.000,1.000
6.591,11.052,10.687,11.056,8.829,2.657,0.803,8.365,-0.046,0.982,-0.139,-1.038,-1.617,0.671,73.333,725709.000,1.000
6.770,9.757,10.689,12.748,8.186,1.369,-1.013,9.177,-0.046,0.983,-0.133,-1.007,-1.587,0.732,73.333,725710.000,1.000
6.575,9.317,10.451,13.673,7.540,3.344,-1.169,7.925,-0.045,0.982,-0.136,-1.007,-1.617,0.732,73.333,725711.000,1.000
6.436,9.675,10.194,13.758,7.030,7.572,-0.254,5.165,-0.045,0.984,-0.137,-1.190,-1.617,0.671,73.333,725712.000,1.000
6.327,9.524,9.487,12.794,5.780,9.550,-1.432,1.780,-0.045,0.983,-0.135,-1.160,-1.587,0.671,73.333,725713.000,1.000
6.140,7.750,7.935,10.841,3.264,6.043,-6.243,-0.952,-0.045,0.983,-0.139,-1.129,-1.495,0.702,73.333,725714.000,1.000
6.164,4.752,5.984,8.533,0.392,-1.023,-11.759,-1.730,-0.045,0.984,-0.138,-1.282,-1.495,0.671,73.333,725715.000,1.000
6.797,1.879,4.454,6.568,-1.590,-7.056,-14.354,-0.500,-0.046,0.984,-0.141,-1.251,-1.465,0.702,73.333,725716.000,1.000
7.962,-0.029,3.718,5.058,-2.606,-9.766,-14.030,1.095,-0.045,0.984,-0.140,-1.312,-1.495,0.671,73.333,725717.000,1.000
9.126,-0.951,3.594,3.709,-3.297,-9.717,-12.779,1.236,-0.043,0.983,-0.139,-1.251,-1.526,0.580,73.333,725718.000,1.000
9.842,-1.051,3.820,2.442,-3.705,-7.690,-10.860,-0.250,-0.044,0.984,-0.138,-1.373,-1.465,0.610,73.333,725719.000,1.000
10.057,-0.489,4.259,1.518,-3.258,-3.986,-7.003,-1.904,-0.045,0.983,-0.137,-1.404,-1.465,0.519,73.333,725720.000,1.000
9.965,0.298,4.639,1.128,-1.762,0.225,-1.297,-2.156,-0.044,0.981,-0.139,-1.312,-1.343,0.580,73.333,725721.000,1.000
9.799,0.745,4.635,1.100,0.143,2.684,3.698,-0.729,-0.045,0.983,-0.138,-1.434,-1.312,0.671,73.333,725722.000,1.000
9.780,0.712,4.133,1.003,1.464,1.752,4.863,1.095,-0.046,0.983,-0.136,-1.526,-1.282,0.610,73.333,725723.000,1.000
10.102,0.724,3.452,0.537,1.708,-1.871,1.395,1.459,-0.045,0.982,-0.137,-1.526,-1.312,0.488,73.333,725724.000,1.000
10.795,1.575,3.205,-0.193,1.235,-5.459,-4.366,-0.603,-0.046,0.980,-0.136,-1.587,-1.221,0.427,73.333,725725.000,1.000
11.558,3.716,3.734,-0.718,1.025,-6.222,-8.451,-4.170,-0.047,0.981,-0.133,-1.495,-1.312,0.580,73.333,725726.000,1.000
11.813,6.932,4.907,-0.521,2.091,-3.013,-7.577,-6.793,-0.049,0.982,-0.135,-1.495,-1.221,0.549,73.333,725727.000,1.000
10.945,10.247,6.064,0.456,4.519,2.850,-1.757,-6.570,-0.047,0.982,-0.135,-1.434,-1.312,0.427,73.333,725728.000,1.000
8.557,12.150,6.136,1.569,6.886,7.856,4.913,-4.055,-0.048,0.980,-0.137,-1.404,-1.343,0.366,73.333,725729.000,1.000
4.688,11.352,4.224,1.907,7.150,8.308,7.272,-1.687,-0.048,0.983,-0.136,-1.465,-1.251,0.397,73.333,725730.000,1.000
-0.128,7.731,0.271,1.015,4.455,3.321,3.541,-1.434,-0.048,0.981,-0.137,-1.434,-1.251,0.397,73.333,725731.000,1.000
-4.987,2.583,-4.592,-0.712,0.055,-3.808,-2.908,-3.185,-0.051,0.982,-0.134,-1.343,-1.251,0.458,73.333,725732.000,1.000
-8.884,-2.135,-8.635,-2.284,-3.569,-7.752,-6.300,-5.126,-0.051,0.981,-0.132,-1.434,-1.251,0.427,73.333,725733.000,1.000
-11.043,-4.965,-10.494,-2.795,-4.519,-5.404,-3.411,-5.270,-0.049,0.981,-0.134,-1.343,-1.373,0.519,73.333,725734.000,1.000
-11.218,-5.627,-9.813,-2.077,-2.713,1.754,4.009,-3.029,-0.048,0.980,-0.136,-1.221,-1.373,0.488,73.333,725735.000,1.000
-9.764,-4.814,-7.381,-0.802,0.371,9.346,11.338,0.380,-0.046,0.979,-0.135,-1.251,-1.434,0.549,73.333,725736.000,1.000
-7.471,-3.623,-4.574,0.030,2.748,13.172,14.390,3.023,-0.046,0.982,-0.133,-1.282,-1.343,0.549,73.333,725737.000,1.000
-5.385,-3.182,-2.786,-0.419,2.759,10.914,11.069,3.398,-0.050,0.984,-0.135,-1.190,-1.312,0.610,73.333,725738.000,1.000
-4.442,-4.196,-2.860,-2.493,-0.140,3.239,2.539,1.028,-0.049,0.984,-0.136,-1.282,-1.373,0.580,73.333,725739.000,1.000
-4.947,-6.432,-4.601,-5.748,-4.850,-6.082,-6.917,-3.147,-0.048,0.984,-0.133,-1.251,-1.312,0.702,73.333,725740.000,1.000
-6.341,-8.800,-6.947,-9.060,-9.211,-12.272,-12.646,-7.128,-0.047,0.986,-0.133,-1.190,-1.404,0.824,73.333,725741.000,1.000
-7.602,-10.149,-8.621,-11.300,-11.464,-12.557,-12.455,-9.169,-0.045,0.986,-0.133,-1.190,-1.373,0.732,73.333,725742.000,1.000
-8.000,-10.228,-9.061,-12.103,-11.420,-7.965,-7.639,-9.003,-0.047,0.985,-0.132,-1.282,-1.343,0.732,73.333,725743.000,1.000
-7.462,-9.824,-8.710,-11.921,-10.307,-2.485,-1.898,-7.734,-0.048,0.983,-0.132,-1.251,-1.312,0.763,73.333,725744.000,1.000
-6.376,-9.932,-8.445,-11.453,-9.599,-0.131,0.998,-6.643,-0.048,0.983,-0.130,-1.221,-1.373,0.763,73.333,725745.000,1.000
-5.302,-10.905,-8.964,-11.212,-10.063,-2.291,-0.744,-6.412,-0.048,0.983,-0.133,-1.190,-1.434,0.732,73.333,725746.000,1.000
-4.600,-12.042,-10.132,-11.237,-11.221,-6.641,-5.322,-6.867,-0.049,0.983,-0.132,-1.190,-1.373,0.732,73.333,725747.000,1.000
-4.161,-11.849,-10.924,-10.994,-11.418,-8.443,-7.767,-6.918,-0.048,0.983,-0.133,-1.099,-1.282,0.732,73.333,725748.000,1.000
-3.770,-9.278,-10.426,-9.952,-9.319,-4.563,-4.231,-5.519,-0.049,0.980,-0.135,-1.099,-1.373,0.763,73.333,725749.000,1.000
-3.739,-4.956,-8.939,-8.411,-5.646,3.276,3.775,-3.234,-0.049,0.980,-0.134,-1.038,-1.343,0.763,73.333,725750.000,1.000
-4.845,-0.903,-7.898,-7.463,-2.798,10.035,10.564,-2.251,-0.050,0.979,-0.131,-0.946,-1.343,0.793,73.333,725751.000,1.000
-7.513,1.031,-8.467,-7.985,-2.697,11.870,11.352,-4.469,-0.050,0.977,-0.131,-0.916,-1.282,0.763,73.333,725752.000,1.000
-11.208,0.313,-10.597,-9.795,-5.324,8.473,5.618,-9.629,-0.049,0.975,-0.131,-0.732,-1.251,0.671,73.333,725753.000,1.000
-14.721,-2.395,-13.323,-11.810,-9.180,1.699,-3.469,-15.300,-0.048,0.976,-0.130,-0.610,-1.282,0.763,73.333,725754.000,1.000
-17.048,-6.000,-15.661,-12.965,-12.741,-6.425,-11.806,-18.821,-0.049,0.976,-0.131,-0.519,-1.312,0.824,73.333,725755.000,1.000
-17.952,-9.459,-17.217,-12.935,-15.278,-13.948,-16.670,-19.259,-0.047,0.975,-0.134,-0.336,-1.251,0.854,73.333,725756.000,1.000
-17.761,-11.903,-17.964,-12.011,-16.675,-18.790,-17.307,-17.497,-0.049,0.977,-0.133,-0.305,-1.221,0.732,73.333,725757.000,1.000
-16.826,-12.704,-17.874,-10.523,-16.811,-19.236,-13.931,-14.710,-0.048,0.977,-0.134,-0.214,-1.190,0.702,73.333,725758.000,1.000
-15.280,-11.652,-16.840,-8.601,-15.423,-14.868,-7.029,-11.288,-0.047,0.981,-0.134,-0.153,-1.251,0.702,73.333,725759.000,1.000
-13.288,-9.360,-15.050,-6.572,-12.901,-7.788,1.092,-7.540,-0.046,0.983,-0.134,-0.061,-1.221,0.793,73.333,725760.000,1.000
-11.238,-7.263,-13.265,-5.139,-10.681,-2.377,5.712,-4.540,-0.048,0.984,-0.134,-0.031,-1.129,0.671,73.333,725761.000,1.000
-9.496,-6.688,-12.204,-4.726,-10.047,-2.214,3.520,-3.288,-0.050,0.985,-0.137,-0.092,-1.099,0.732,73.333,725762.000,1.000
-8.163,-7.860,-11.952,-4.955,-10.787,-6.926,-3.633,-3.407,-0.049,0.985,-0.136,-0.305,-1.221,0.793,73.333,725763.000,1.000
-7.144,-9.848,-11.973,-5.040,-11.392,-12.458,-10.217,-3.342,-0.049,0.986,-0.135,-0.336,-1.312,0.702,73.333,725764.000,1.000
-6.304,-11.356,-11.524,-4.571,-10.524,-14.579,-11.937,-1.921,-0.048,0.987,-0.137,-0.397,-1.160,0.549,73.333,725765.000,1.000
-5.549,-11.682,-10.339,-3.953,-8.325,-12.351,-9.159,0.190,-0.049,0.987,-0.136,-0.488,-1.068,0.488,73.333,725766.000,1.000
-4.872,-11.079,-8.841,-4.174,-6.376,-8.474,-5.966,0.721,-0.046,0.985,-0.136,-0.610,-1.068,0.458,73.333,725767.000,1.000
-4.359,-10.278,-7.736,-5.962,-6.217,-6.437,-6.041,-2.122,-0.043,0.984,-0.138,-0.702,-1.007,0.427,73.333,725768.000,1.000
-4.063,-9.636,-7.244,-8.917,-7.712,-7.214,-9.167,-7.470,-0.041,0.980,-0.138,-0.671,-0.977,0.427,73.333,725769.000,1.000
-3.798,-8.730,-6.693,-11.437,-8.840,-8.366,-11.228,-11.685,-0.038,0.979,-0.137,-0.702,-0.946,0.488,73.333,725770.000,1.000
-3.190,-6.848,-5.160,-11.800,-7.363,-6.507,-7.990,-11.120,-0.037,0.978,-0.139,-0.671,-0.793,0.488,73.333,725771.000,1.000
-2.175,-3.997,-2.539,-9.643,-3.118,-0.930,0.270,-5.747,-0.038,0.977,-0.139,-0.549,-0.671,0.580,73.333,725772.000,1.000
-1.330,-1.196,0.024,-6.344,1.519,5.392,8.172,0.346,-0.040,0.978,-0.137,-0.488,-0.549,0.732,73.333,725773.000,1.000
-1.398,0.446,1.113,-3.759,3.801,8.582,10.137,2.671,-0.043,0.980,-0.137,-0.427,-0.488,0.793,73.333,725774.000,1.000
-2.514,0.753,0.352,-2.767,2.911,7.252,5.321,-0.023,-0.047,0.979,-0.137,-0.519,-0.336,0.824,73.333,725775.000,1.000
-4.005,0.514,-1.410,-2.939,0.282,3.217,-2.322,-5.386,-0.048,0.982,-0.139,-0.519,-0.336,0.793,73.333,725776.000,1.000
-4.806,0.782,-2.710,-3.077,-1.691,-0.403,-7.524,-9.219,-0.048,0.986,-0.135,-0.488,-0.305,0.824,73.333,725777.000,1.000
-4.180,2.060,-2.519,-2.216,-1.371,-1.440,-7.338,-8.186,-0.048,0.986,-0.139,-0.519,-0.366,0.885,73.333,725778.000,1.000
-2.221,3.974,-0.956,-0.431,1.076,0.415,-2.385,-2.249,-0.046,0.986,-0.141,-0.641,-0.336,0.885,73.333,725779.000,1.000
0.266,5.631,0.990,1.368,4.176,4.189,4.707,5.572,-0.048,0.987,-0.142,-0.580,-0.458,1.038,73.333,725780.000,1.000
2.324,6.317,2.275,2.372,6.559,8.702,11.624,12.004,-0.047,0.985,-0.139,-0.671,-0.549,1.129,73.333,725781.000,1.000
3.362,5.965,2.545,2.549,7.867,13.241,17.534,15.840,-0.048,0.984,-0.140,-0.763,-0.488,1.251,73.333,725782.000,1.000
3.289,4.972,1.967,2.323,8.272,17.079,21.833,17.387,-0.052,0.985,-0.138,-0.671,-0.427,1.251,73.333,725783.000,1.000
2.272,3.487,0.542,1.724,7.293,18.374,22.009,16.221,-0.051,0.985,-0.137,-0.824,-0.427,1.129,73.333,725784.000,1.000
0.620,1.319,-1.834,0.346,4.022,15.032,15.250,11.048,-0.054,0.984,-0.136,-0.885,-0.641,1.099,73.333,725785.000,1.000
-1.046,-1.323,-4.696,-1.722,-1.194,7.268,2.928,2.319,-0.056,0.983,-0.135,-0.916,-0.641,0.977,73.333,725786.000,1.000
-1.912,-3.568,-6.789,-3.495,-6.191,-1.788,-8.829,-6.487,-0.058,0.983,-0.137,-1.038,-0.916,0.824,73.333,725787.000,1.000
-1.507,-4.500,-6.950,-3.891,-8.472,-8.005,-13.754,-11.155,-0.057,0.984,-0.135,-1.099,-1.068,0.641,73.333,725788.000,1.000
-0.025,-3.808,-4.961,-2.644,-7.008,-8.724,-9.950,-9.923,-0.052,0.987,-0.134,-1.099,-1.190,0.458,73.333,725789.000,1.000
1.924,-1.995,-1.614,-0.426,-2.911,-4.654,-0.678,-4.446,-0.049,0.987,-0.134,-1.221,-1.312,0.427,73.333,725790.000,1.000
3.690,-0.143,1.676,1.549,1.259,0.338,8.099,1.511,-0.049,0.987,-0.135,-1.312,-1.251,0.366,73.333,725791.000,1.000
4.787,0.728,3.695,2.082,3.123,2.227,11.439,4.323,-0.048,0.988,-0.135,-1.312,-1.373,0.305,73.333,725792.000,1.000
5.103,0.430,4.158,0.693,2.038,-0.054,8.121,2.668,-0.041,0.986,-0.135,-1.373,-1.404,0.214,73.333,725793.000,1.000
5.067,-0.249,3.800,-1.959,-0.705,-4.539,0.750,-1.744,-0.041,0.988,-0.135,-1.465,-1.404,0.275,73.333,725794.000,1.000
5.325,-0.256,3.671,-4.533,-3.181,-8.443,-6.590,-5.852,-0.041,0.985,-0.135,-1.556,-1.343,0.336,73.333,725795.000,1.000
6.158,0.951,4.221,-5.917,-4.123,-9.729,-10.743,-7.501,-0.042,0.983,-0.136,-1.495,-1.251,0.488,73.333,725796.000,1.000
7.269,3.199,5.191,-5.682,-3.209,-7.542,-10.261,-6.110,-0.042,0.980,-0.136,-1.343,-1.190,0.458,73.333,725797.000,1.000
8.077,5.806,5.961,-4.031,-0.834,-2.449,-5.370,-2.243,-0.040,0.981,-0.136,-1.343,-1.129,0.549,73.333,725798.000,1.000
8.176,7.958,6.040,-1.530,2.192,3.768,2.308,2.879,-0.039,0.980,-0.136,-1.312,-1.038,0.549,73.333,725799.000,1.000
7.569,9.084,5.396,1.180,4.956,9.044,10.436,7.802,-0.043,0.979,-0.135,-1.251,-0.824,0.580,73.333,725800.000,1.000
6.521,8.941,4.244,3.483,6.612,11.807,16.481,11.114,-0.046,0.980,-0.135,-1.068,-0.824,0.580,73.333,725801.000,1.000
5.240,7.422,2.749,4.824,6.390,10.991,17.931,11.667,-0.046,0.982,-0.135,-1.038,-0.793,0.671,73.333,725802.000,1.000
3.755,4.590,0.940,4.913,3.943,6.264,13.416,9.084,-0.048,0.981,-0.133,-0.977,-0.824,0.610,73.333,725803.000,1.000
2.109,1.034,-0.938,4.019,0.069,-0.730,4.826,4.339,-0.048,0.980,-0.133,-0.977,-0.763,0.519,73.333,725804.000,1.000
0.512,-2.146,-2.227,2.871,-3.299,-6.190,-2.687,-0.526,-0.050,0.979,-0.134,-0.793,-0.854,0.549,73.333,725805.000,1.000
-0.798,-4.011,-2.397,2.111,-4.349,-6.620,-4.211,-3.557,-0.050,0.978,-0.135,-0.793,-0.916,0.366,73.333,725806.000,1.000
-1.731,-4.409,-1.492,1.871,-2.821,-1.977,0.878,-3.932,-0.049,0.979,-0.134,-0.641,-0.946,0.336,73.333,725807.000,1.000
-2.300,-3.899,-0.109,1.828,-0.119,4.072,8.421,-2.099,-0.049,0.979,-0.131,-0.641,-0.977,0.275,73.333,725808.000,1.000
-2.431,-3.026,1.177,1.738,2.203,7.698,13.628,1.129,-0.048,0.978,-0.135,-0.641,-0.977,0.244,73.333,725809.000,1.000
-1.981,-1.914,2.290,1.728,3.703,7.980,14.800,5.257,-0.048,0.978,-0.135,-0.519,-1.007,0.275,73.333,725810.000,1.000
-1.034,-0.675,3.302,1.918,4.603,6.146,12.601,9.546,-0.048,0.979,-0.133,-0.519,-0.946,0.214,73.333,725811.000,1.000
0.060,0.371,4.162,2.130,5.008,3.730,8.574,12.549,-0.048,0.979,-0.132,-0.366,-1.160,0.214,73.333,725812.000,1.000
1.005,1.084,4.753,2.123,5.017,2.154,4.965,12.860,-0.048,0.979,-0.132,-0.397,-1.160,0.275,73.333,725813.000,1.000
1.683,1.592,4.943,1.762,4.754,2.240,3.387,9.942,-0.047,0.979,-0.134,-0.336,-1.221,0.336,73.333,725814.000,1.000
1.950,1.853,4.524,0.853,3.953,3.196,2.968,4.171,-0.049,0.980,-0.133,-0.275,-1.190,0.458,73.333,725815.000,1.000
1.607,1.625,3.309,-0.769,2.212,3.179,1.464,-3.069,-0.047,0.981,-0.135,-0.275,-1.160,0.458,73.333,725816.000,1.000
0.677,0.949,1.610,-2.824,-0.102,1.394,-1.642,-9.250,-0.048,0.980,-0.135,-0.153,-1.160,0.427,73.333,725817.000,1.000
-0.581,0.167,0.088,-4.745,-1.994,-1.247,-4.685,-12.046,-0.047,0.980,-0.135,-0.061,-1.129,0.488,73.333,725818.000,1.000
-1.986,-0.653,-0.944,-6.338,-3.003,-3.566,-6.211,-11.224,-0.047,0.981,-0.134,-0.061,-1.221,0.580,73.333,725819.000,1.000
-3.401,-1.772,-1.601,-7.725,-3.432,-5.068,-6.231,-8.295,-0.046,0.980,-0.133,0.061,-1.251,0.702,73.333,725820.000,1.000
-4.333,-3.081,-1.893,-8.575,-3.345,-5.288,-4.922,-4.329,-0.045,0.980,-0.139,0.061,-1.282,0.793,73.333,725821.000,1.000
-4.108,-3.978,-1.525,-8.119,-2.359,-3.640,-1.892,0.600,-0.046,0.982,-0.140,0.122,-1.251,0.793,73.333,725822.000,1.000
-2.724,-4.319,-0.700,-6.311,-0.901,-0.860,2.016,5.531,-0.047,0.982,-0.139,0.000,-1.312,0.885,73.333,725823.000,1.000
-1.186,-4.908,-0.456,-4.303,-0.603,0.676,4.156,7.941,-0.045,0.983,-0.138,0.092,-1.434,0.885,73.333,725824.000,1.000
-0.733,-6.598,-1.708,-3.377,-2.748,-0.892,2.662,5.914,-0.045,0.983,-0.135,-0.061,-1.404,0.885,73.333,725825.000,1.000
-1.856,-9.353,-4.429,-3.842,-6.987,-5.290,-1.845,0.039,-0.047,0.984,-0.138,-0.214,-1.373,1.007,73.333,725826.000,1.000
-3.959,-12.293,-7.619,-4.944,-11.713,-10.748,-7.362,-7.063,-0.046,0.986,-0.136,-0.122,-1.434,1.038,73.333,725827.000,1.000
-5.705,-14.271,-9.876,-5.443,-15.107,-15.251,-12.091,-12.411,-0.046,0.985,-0.137,-0.183,-1.373,1.099,73.333,725828.000,1.000
-5.764,-14.356,-9.997,-4.288,-15.859,-17.282,-14.797,-13.927,-0.046,0.984,-0.137,-0.305,-1.312,1.068,73.333,725829.000,1.000
-3.642,-12.274,-7.553,-1.280,-13.764,-16.496,-14.938,-11.263,-0.046,0.984,-0.136,-0.244,-1.312,1.129,73.333,725830.000,1.000
-0.066,-8.658,-3.282,2.674,-9.888,-13.892,-12.968,-5.976,-0.047,0.985,-0.136,-0.366,-1.221,1.068,73.333,725831.000,1.000
3.571,-4.575,1.506,6.284,-5.544,-10.577,-9.443,-0.117,-0.045,0.987,-0.137,-0.488,-1.190,1.038,73.333,725832.000,1.000
6.178,-0.852,5.806,8.864,-1.273,-6.715,-4.282,5.395,-0.044,0.985,-0.135,-0.580,-1.190,1.007,73.333,725833.000,1.000
7.332,1.968,9.080,10.315,2.691,-2.382,1.996,10.337,-0.046,0.986,-0.137,-0.763,-1.129,1.007,73.333,725834.000,1.000
7.107,3.429,11.036,10.575,5.613,1.567,7.480,13.730,-0.046,0.987,-0.135,-0.854,-1.221,0.916,73.333,725835.000,1.000
5.947,3.368,11.560,9.586,6.630,4.027,10.072,13.990,-0.045,0.988,-0.134,-0.854,-1.221,0.854,73.333,725836.000,1.000
4.525,2.048,10.796,7.571,5.426,3.925,8.341,10.408,-0.045,0.986,-0.132,-1.038,-1.190,0.854,73.333,725837.000,1.000
3.395,-0.056,8.959,4.972,2.287,0.370,1.618,3.806,-0.046,0.985,-0.135,-1.099,-1.038,0.793,73.333,725838.000,1.000
2.823,-2.318,6.388,2.288,-1.915,-6.140,-8.988,-3.956,-0.046,0.983,-0.136,-1.160,-1.038,0.854,73.333,725839.000,1.000
2.937,-3.887,3.747,0.085,-5.727,-13.036,-19.992,-10.587,-0.043,0.981,-0.134,-1.373,-1.099,0.824,73.333,725840.000,1.000
3.724,-4.042,1.657,-1.230,-7.670,-17.043,-27.027,-14.051,-0.043,0.980,-0.135,-1.221,-1.007,0.793,73.333,725841.000,1.000
4.809,-2.812,0.276,-1.792,-7.183,-16.463,-27.520,-13.617,-0.043,0.977,-0.135,-1.312,-1.038,0.732,73.333,725842.000,1.000
5.572,-0.997,-0.691,-2.135,-4.947,-12.134,-22.313,-10.304,-0.042,0.976,-0.136,-1.221,-0.916,0.702,73.333,725843.000,1.000
5.652,0.634,-1.442,-2.489,-2.036,-6.051,-14.281,-5.831,-0.042,0.975,-0.139,-1.160,-0.824,0.702,73.333,725844.000,1.000
5.168,1.916,-1.775,-2.540,0.913,0.299,-6.097,-1.501,-0.042,0.976,-0.136,-1.007,-0.763,0.763,73.333,725845.000,1.000
4.441,3.002,-1.539,-2.023,3.483,5.786,0.098,1.689,-0.042,0.979,-0.135,-0.916,-0.763,0.763,73.333,725846.000,1.000
3.715,3.927,-0.888,-1.092,5.211,9.219,3.088,3.054,-0.041,0.979,-0.135,-0.793,-0.641,0.702,73.333,725847.000,1.000
3.137,4.588,-0.152,-0.055,5.918,10.032,3.480,2.821,-0.041,0.979,-0.138,-0.793,-0.580,0.793,73.333,725848.000,1.000
2.808,4.816,0.365,0.805,5.689,8.526,2.665,1.792,-0.042,0.977,-0.132,-0.793,-0.458,0.885,73.333,725849.000,1.000
2.710,4.438,0.522,1.226,4.543,5.226,0.963,0.399,-0.041,0.975,-0.134,-0.732,-0.488,0.946,73.333,725850.000,1.000
2.713,3.522,0.478,1.248,2.695,0.978,-1.989,-1.135,-0.044,0.975,-0.137,-0.763,-0.488,0.946,73.333,725851.000,1.000
2.775,2.602,0.870,1.494,1.012,-2.413,-5.370,-2.141,-0.048,0.977,-0.136,-0.519,-0.519,0.916,73.333,725852.000,1.000
3.082,2.450,2.398,2.815,0.705,-2.882,-7.038,-1.620,-0.054,0.979,-0.134,-0.397,-0.519,0.732,73.333,725853.000,1.000
3.807,3.429,5.107,5.610,2.445,-0.086,-5.508,1.169,-0.056,0.980,-0.134,-0.397,-0.671,0.641,73.333,725854.000,1.000
4.715,5.076,8.186,9.378,5.767,4.105,-1.359,5.916,-0.059,0.982,-0.135,-0.549,-0.763,0.519,73.333,725855.000,1.000
5.164,6.416,10.339,12.812,9.271,7.594,3.554,10.666,-0.058,0.981,-0.137,-0.549,-0.977,0.305,73.333,725856.000,1.000
4.616,6.668,10.596,14.459,11.374,9.549,7.370,12.541,-0.054,0.984,-0.135,-0.610,-1.190,0.214,73.333,725857.000,1.000
3.075,5.653,8.813,13.550,11.046,9.768,8.444,9.660,-0.053,0.986,-0.134,-0.793,-1.312,0.122,73.333,725858.000,1.000
1.064,3.764,5.697,10.461,8.342,8.018,5.724,2.792,-0.051,0.989,-0.134,-0.793,-1.404,0.092,73.333,725859.000,1.000
-0.696,1.707,2.462,6.519,4.434,4.439,-0.366,-4.757,-0.052,0.988,-0.133,-0.824,-1.434,0.031,73.333,725860.000,1.000
-1.651,0.207,0.201,3.277,1.004,0.038,-7.574,-9.216,-0.052,0.987,-0.135,-0.824,-1.587,-0.092,73.333,725861.000,1.000
-1.655,-0.238,-0.473,1.748,-0.624,-3.513,-12.710,-8.772,-0.048,0.986,-0.135,-0.885,-1.648,0.000,73.333,725862.000,1.000
-0.970,0.446,0.374,2.027,-0.111,-4.711,-13.549,-4.459,-0.047,0.984,-0.138,-0.885,-1.770,-0.061,73.333,725863.000,1.000
0.055,2.001,2.220,3.565,2.135,-2.719,-9.485,1.311,-0.046,0.982,-0.135,-0.824,-1.740,0.000,73.333,725864.000,1.000
1.301,4.140,4.585,5.745,5.690,2.762,-0.624,6.988,-0.044,0.985,-0.135,-0.824,-1.770,0.122,73.333,725865.000,1.000
2.836,6.625,7.107,8.084,10.241,11.229,12.225,12.417,-0.046,0.985,-0.135,-0.885,-1.709,0.275,73.333,725866.000,1.000
4.599,8.998,9.356,9.976,14.863,20.371,26.052,17.373,-0.046,0.984,-0.135,-0.916,-1.770,0.458,73.333,725867.000,1.000
6.174,10.376,10.601,10.481,17.597,25.989,35.092,20.153,-0.044,0.984,-0.137,-1.007,-1.678,0.580,73.333,725868.000,1.000
6.964,9.970,10.154,8.852,16.595,24.537,34.148,18.597,-0.046,0.985,-0.136,-0.977,-1.587,0.671,73.333,725869.000,1.000
6.730,7.970,8.180,5.441,12.039,16.462,23.419,12.724,-0.048,0.985,-0.138,-0.946,-1.678,0.763,73.333,725870.000,1.000
5.816,5.559,5.717,1.677,6.268,6.088,8.586,5.249,-0.050,0.983,-0.139,-0.916,-1.740,0.763,73.333,725871.000,1.000
4.727,3.846,3.887,-1.016,1.791,-2.087,-3.894,-0.734,-0.049,0.985,-0.138,-1.007,-1.770,0.854,73.333,725872.000,1.000
3.684,3.106,3.153,-2.020,-0.247,-6.141,-10.473,-3.673,-0.046,0.986,-0.139,-0.946,-1.831,0.793,73.333,725873.000,1.000
2.686,3.083,3.436,-1.382,0.133,-6.276,-10.503,-3.436,-0.047,0.985,-0.137,-0.977,-1.770,0.793,73.333,725874.000,1.000
1.740,3.478,4.492,0.486,2.329,-3.526,-5.144,-0.737,-0.049,0.985,-0.135,-1.007,-1.831,0.732,73.333,725875.000,1.000
0.857,3.906,5.787,2.801,5.183,0.447,2.762,2.924,-0.049,0.984,-0.135,-1.007,-1.801,0.824,73.333,725876.000,1.000
0.056,3.888,6.635,4.612,7.292,3.752,9.614,5.751,-0.047,0.983,-0.136,-0.946,-1.770,0.763,73.333,725877.000,1.000
-0.507,3.308,6.703,5.422,8.030,5.738,13.603,6.911,-0.048,0.983,-0.137,-0.977,-1.709,0.793,73.333,725878.000,1.000
-0.614,2.577,6.268,5.465,7.929,7.319,15.526,6.970,-0.045,0.983,-0.140,-1.068,-1.709,0.732,73.333,725879.000,1.000
-0.303,2.076,5.806,5.195,7.577,9.001,16.261,6.661,-0.044,0.980,-0.134,-1.038,-1.617,0.641,73.333,725880.000,1.000
0.135,1.797,5.542,4.873,6.892,9.814,15.241,6.050,-0.043,0.980,-0.135,-0.946,-1.678,0.519,73.333,725881.000,1.000
0.529,1.718,5.664,4.720,5.795,8.855,12.183,5.316,-0.045,0.978,-0.136,-0.977,-1.617,0.488,73.333,725882.000,1.000
0.985,2.058,6.365,4.922,4.713,6.745,8.400,5.082,-0.045,0.977,-0.140,-0.916,-1.434,0.519,73.333,725883.000,1.000
1.753,3.092,7.677,5.446,4.229,5.283,6.080,5.751,-0.043,0.977,-0.139,-0.763,-1.495,0.458,73.333,725884.000,1.000
3.039,4.878,9.427,6.110,4.616,5.912,6.725,7.121,-0.044,0.976,-0.137,-0.702,-1.465,0.549,73.333,725885.000,1.000
4.782,6.936,11.010,6.611,5.340,8.007,9.352,8.258,-0.045,0.976,-0.136,-0.702,-1.373,0.549,73.333,725886.000,1.000
6.594,8.346,11.574,6.585,5.223,9.237,10.973,7.851,-0.045,0.976,-0.135,-0.641,-1.343,0.427,73.333,725887.000,1.000
8.161,8.599,10.823,6.044,3.787,8.481,10.057,5.582,-0.045,0.976,-0.135,-0.488,-1.312,0.458,73.333,725888.000,1.000
9.537,8.155,9.483,5.554,2.035,7.247,8.241,2.847,-0.044,0.975,-0.134,-0.427,-1.343,0.366,73.333,725889.000,1.000
10.832,7.824,8.660,5.671,1.332,7.325,7.564,1.485,-0.048,0.976,-0.134,-0.366,-1.373,0.366,73.333,725890.000,1.000
11.756,7.858,8.762,6.315,1.884,8.108,7.381,2.045,-0.048,0.977,-0.136,-0.336,-1.312,0.305,73.333,725891.000,1.000
11.716,7.872,9.342,6.887,2.726,7.314,5.408,3.638,-0.049,0.979,-0.137,-0.397,-1.312,0.305,73.333,725892.000,1.000
10.383,7.498,9.691,6.862,2.999,4.045,1.141,5.081,-0.049,0.979,-0.135,-0.336,-1.343,0.366,73.333,725893.000,1.000
8.174,6.861,9.482,6.186,2.756,0.088,-3.190,5.618,-0.049,0.980,-0.135,-0.305,-1.312,0.397,73.333,725894.000,1.000
6.186,6.488,9.038,5.256,2.636,-1.742,-4.924,4.838,-0.050,0.979,-0.133,-0.366,-1.373,0.366,73.333,725895.000,1.000
5.556,6.940,9.025,4.744,3.298,0.268,-3.155,2.868,-0.052,0.979,-0.135,-0.336,-1.343,0.305,73.333,725896.000,1.000
6.591,8.269,9.868,5.232,4.883,5.327,0.660,0.589,-0.052,0.980,-0.134,-0.366,-1.465,0.244,73.333,725897.000,1.000
8.319,9.528,11.041,6.566,6.442,9.732,2.955,-1.257,-0.050,0.981,-0.135,-0.366,-1.526,0.244,73.333,725898.000,1.000
9.108,9.306,11.314,7.872,6.470,9.167,0.329,-2.711,-0.052,0.983,-0.132,-0.397,-1.495,0.122,73.333,725899.000,1.000
7.989,7.072,10.002,8.547,4.566,2.787,-6.811,-3.750,-0.052,0.981,-0.131,-0.549,-1.709,0.214,73.333,725900.000,1.000
5.348,3.729,7.556,8.848,2.127,-5.478,-13.612,-3.572,-0.052,0.983,-0.132,-0.732,-1.678,0.214,73.333,725901.000,1.000
2.463,0.721,5.102,9.309,0.957,-10.370,-14.969,-1.542,-0.053,0.983,-0.134,-0.702,-1.709,0.244,73.333,725902.000,1.000
0.509,-1.215,3.414,9.893,1.404,-10.029,-10.475,1.469,-0.051,0.983,-0.133,-0.702,-1.831,0.183,73.333,725903.000,1.000
-0.131,-2.375,2.394,9.929,2.133,-7.024,-4.506,3.368,-0.051,0.983,-0.133,-0.763,-1.862,0.244,73.333,725904.000,1.000
0.108,-3.447,1.406,8.723,1.512,-5.279,-1.866,2.465,-0.051,0.983,-0.132,-0.946,-1.892,0.305,73.333,725905.000,1.000
0.538,-4.641,-0.037,6.184,-0.861,-6.331,-3.783,-1.226,-0.050,0.982,-0.135,-0.885,-1.831,0.336,73.333,725906.000,1.000
0.934,-5.259,-1.602,3.134,-3.582,-8.061,-7.182,-5.778,-0.050,0.983,-0.135,-0.977,-1.770,0.427,73.333,725907.000,1.000
1.628,-4.211,-2.327,0.941,-4.427,-6.986,-7.586,-8.491,-0.051,0.984,-0.136,-1.068,-1.740,0.427,73.333,725908.000,1.000
2.930,-1.070,-1.489,0.588,-2.142,-1.644,-2.704,-7.627,-0.050,0.984,-0.136,-1.099,-1.740,0.488,73.333,725909.000,1.000
4.636,3.383,0.766,1.989,2.596,6.192,6.099,-3.343,-0.049,0.984,-0.136,-1.129,-1.709,0.549,73.333,725910.000,1.000
6.172,7.540,3.446,4.076,7.577,12.708,14.457,2.491,-0.049,0.983,-0.135,-1.282,-1.740,0.549,73.333,725911.000,1.000
7.091,9.987,5.516,5.577,10.541,14.802,17.913,7.350,-0.049,0.984,-0.138,-1.282,-1.740,0.549,73.333,725912.000,1.000
7.318,10.339,6.504,5.742,10.555,12.326,14.986,9.321,-0.047,0.983,-0.134,-1.312,-1.678,0.610,73.333,725913.000,1.000
6.958,9.090,6.380,4.456,8.040,7.216,7.266,7.774,-0.048,0.983,-0.135,-1.404,-1.740,0.610,73.333,725914.000,1.000
6.101,6.986,5.346,2.102,4.102,1.198,-2.338,3.495,-0.047,0.984,-0.136,-1.373,-1.678,0.671,73.333,725915.000,1.000
4.913,4.685,3.822,-0.550,0.126,-4.737,-10.915,-1.690,-0.045,0.982,-0.138,-1.404,-1.648,0.702,73.333,725916.000,1.000
3.683,2.723,2.484,-2.628,-2.560,-9.411,-16.154,-5.833,-0.047,0.983,-0.137,-1.434,-1.556,0.702,73.333,725917.000,1.000
2.711,1.475,1.933,-3.515,-3.138,-11.288,-16.687,-7.631,-0.049,0.981,-0.137,-1.465,-1.495,0.763,73.333,725918.000,1.000
2.115,0.952,2.277,-3.109,-1.744,-9.924,-12.894,-6.751,-0.048,0.979,-0.136,-1.404,-1.434,0.824,73.333,725919.000,1.000
1.669,0.603,3.016,-1.922,0.350,-7.208,-7.702,-4.094,-0.049,0.981,-0.133,-1.282,-1.465,0.824,73.333,725920.000,1.000
1.051,-0.155,3.494,-0.681,1.644,-5.720,-4.821,-1.227,-0.050,0.982,-0.132,-1.434,-1.282,0.854,73.333,725921.000,1.000
0.374,-1.054,3.713,0.418,1.882,-5.744,-5.189,0.954,-0.047,0.982,-0.131,-1.404,-1.251,0.854,73.333,725922.000,1.000
0.199,-1.146,4.226,1.705,2.063,-5.201,-6.565,2.434,-0.045,0.981,-0.131,-1.465,-1.251,0.885,73.333,725923.000,1.000
0.949,0.088,5.310,3.350,3.024,-2.432,-6.496,3.217,-0.046,0.979,-0.130,-1.404,-1.282,0.854,73.333,725924.000,1.000
2.535,2.175,6.658,5.063,4.606,2.136,-4.421,3.113,-0.047,0.980,-0.130,-1.312,-1.190,0.885,73.333,725925.000,1.000
4.426,4.090,7.620,6.353,6.062,6.811,-1.399,2.138,-0.050,0.979,-0.130,-1.343,-1.068,0.946,73.333,725926.000,1.000
5.786,4.921,7.561,6.781,6.702,10.050,1.202,0.656,-0.048,0.981,-0.132,-1.373,-0.977,0.946,73.333,725927.000,1.000
5.758,4.258,6.032,6.057,6.258,11.205,2.780,-0.646,-0.048,0.982,-0.132,-1.251,-0.946,1.007,73.333,725928.000,1.000
4.064,2.380,3.069,4.244,5.009,10.658,3.821,-0.872,-0.047,0.982,-0.129,-1.251,-0.824,1.038,73.333,725929.000,1.000
1.318,0.098,-0.614,1.809,3.505,9.325,4.989,0.348,-0.046,0.981,-0.132,-1.190,-0.885,1.007,73.333,725930.000,1.000
-1.433,-1.807,-4.126,-0.736,1.978,7.793,5.836,2.129,-0.045,0.981,-0.134,-1.190,-0.732,1.007,73.333,725931.000,1.000
-3.372,-3.005,-6.851,-3.059,0.278,5.987,5.220,2.993,-0.046,0.981,-0.133,-1.007,-0.824,0.946,73.333,725932.000,1.000
-4.104,-3.462,-8.511,-4.866,-1.573,3.787,2.911,2.268,-0.047,0.978,-0.132,-0.916,-0.793,1.007,73.333,725933.000,1.000
-3.647,-3.208,-9.099,-5.978,-3.234,1.526,-0.280,0.293,-0.046,0.979,-0.135,-0.824,-0.793,0.916,73.333,725934.000,1.000
-2.514,-2.532,-9.020,-6.697,-4.648,-0.639,-3.940,-2.484,-0.047,0.978,-0.133,-0.732,-0.702,0.824,73.333,725935.000,1.000
-1.597,-2.053,-9.094,-7.748,-6.236,-3.266,-8.327,-5.833,-0.048,0.981,-0.134,-0.671,-0.671,0.824,73.333,725936.000,1.000
-1.672,-2.246,-9.869,-9.621,-8.279,-6.829,-13.148,-9.256,-0.048,0.982,-0.134,-0.641,-0.610,0.854,73.333,725937.000,1.000
-2.912,-2.986,-11.099,-12.041,-10.341,-10.667,-17.116,-11.792,-0.044,0.980,-0.136,-0.610,-0.610,0.854,73.333,725938.000,1.000
-4.754,-3.615,-11.893,-14.039,-11.346,-13.042,-18.518,-12.354,-0.045,0.981,-0.133,-0.610,-0.641,0.824,73.333,725939.000,1.000
-6.250,-3.475,-11.382,-14.615,-10.306,-12.391,-16.331,-10.318,-0.046,0.983,-0.134,-0.580,-0.641,0.824,73.333,725940.000,1.000
-6.703,-2.487,-9.476,-13.531,-7.249,-8.817,-11.356,-6.259,-0.047,0.984,-0.134,-0.580,-0.580,0.793,73.333,725941.000,1.000
-6.113,-1.208,-6.866,-11.437,-3.376,-4.265,-5.848,-1.921,-0.044,0.984,-0.131,-0.519,-0.427,0.732,73.333,725942.000,1.000
-5.096,-0.332,-4.495,-9.210,-0.159,-1.031,-1.937,0.991,-0.047,0.983,-0.132,-0.427,-0.488,0.854,73.333,725943.000,1.000
-4.407,-0.095,-2.955,-7.226,1.721,0.153,-0.220,2.100,-0.047,0.983,-0.133,-0.488,-0.488,0.732,73.333,725944.000,1.000
-4.398,-0.119,-2.173,-5.245,2.655,0.566,0.509,2.349,-0.047,0.985,-0.134,-0.427,-0.427,0.793,73.333,725945.000,1.000
-4.858,0.139,-1.724,-2.876,3.394,1.743,1.791,2.884,-0.045,0.983,-0.132,-0.519,-0.427,0.793,73.333,725946.000,1.000
-5.333,0.801,-1.306,-0.095,4.230,3.738,3.822,4.116,-0.048,0.984,-0.134,-0.488,-0.458,0.854,73.333,725947.000,1.000
-5.576,1.442,-1.024,2.615,4.867,5.430,5.605,5.643,-0.048,0.984,-0.133,-0.458,-0.488,0.854,73.333,725948.000,1.000
-5.709,1.418,-1.238,4.601,4.855,5.839,6.322,6.837,-0.049,0.983,-0.132,-0.519,-0.488,0.946,73.333,725949.000,1.000
-5.985,0.337,-2.128,5.516,4.057,4.750,6.114,7.496,-0.049,0.983,-0.133,-0.397,-0.549,0.946,73.333,725950.000,1.000
-6.512,-1.714,-3.589,5.417,2.674,2.464,5.483,7.813,-0.049,0.984,-0.130,-0.397,-0.488,0.916,73.333,725951.000,1.000
-7.242,-4.339,-5.340,4.445,0.866,-0.704,4.374,7.730,-0.048,0.984,-0.133,-0.519,-0.580,0.854,73.333,725952.000,1.000
-8.065,-6.966,-7.068,2.713,-1.232,-4.191,2.525,6.846,-0.049,0.983,-0.133,-0.610,-0.610,0.793,73.333,725953.000,1.000
-8.743,-8.814,-8.355,0.598,-3.016,-6.613,0.709,5.189,-0.051,0.983,-0.133,-0.671,-0.580,0.793,73.333,725954.000,1.000
-8.956,-9.179,-8.735,-1.256,-3.575,-6.435,0.402,3.534,-0.049,0.981,-0.133,-0.549,-0.702,0.763,73.333,725955.000,1.000
-8.585,-8.034,-8.200,-2.477,-2.684,-3.577,2.005,2.528,-0.050,0.980,-0.134,-0.519,-0.671,0.854,73.333,725956.000,1.000
-7.784,-6.128,-7.274,-3.239,-1.237,0.140,4.300,1.883,-0.051,0.981,-0.137,-0.488,-0.732,0.824,73.333,725957.000,1.000
-6.637,-4.312,-6.522,-3.890,-0.438,2.390,5.496,0.781,-0.050,0.980,-0.135,-0.427,-0.824,0.732,73.333,725958.000,1.000
-4.926,-2.871,-6.011,-4.466,-0.768,2.085,4.377,-1.152,-0.050,0.980,-0.132,-0.427,-0.885,0.763,73.333,725959.000,1.000
-2.465,-1.604,-5.418,-4.724,-1.790,-0.086,1.063,-3.498,-0.048,0.981,-0.135,-0.336,-1.038,0.793,73.333,725960.000,1.000
0.455,-0.327,-4.611,-4.519,-2.614,-2.373,-2.739,-5.259,-0.049,0.983,-0.133,-0.366,-1.038,0.793,73.333,725961.000,1.000
3.195,0.928,-3.705,-3.931,-2.510,-3.290,-4.745,-5.336,-0.049,0.981,-0.134,-0.183,-1.007,0.732,73.333,725962.000,1.000
5.208,1.958,-2.868,-3.272,-1.541,-2.793,-4.283,-3.567,-0.047,0.980,-0.134,-0.244,-1.007,0.732,73.333,725963.000,1.000
6.143,2.370,-2.357,-3.142,-0.775,-2.367,-3.195,-1.377,-0.048,0.979,-0.134,-0.244,-1.038,0.793,73.333,725964.000,1.000
5.755,1.745,-2.491,-4.158,-1.510,-3.582,-3.745,-0.834,-0.049,0.979,-0.135,-0.305,-1.160,0.641,73.333,725965.000,1.000
4.052,0.136,-3.337,-6.328,-3.948,-6.218,-5.958,-2.732,-0.048,0.981,-0.133,-0.244,-1.160,0.641,73.333,725966.000,1.000
1.555,-1.631,-4.305,-8.655,-6.668,-8.090,-7.449,-5.467,-0.047,0.982,-0.131,-0.275,-1.251,0.641,73.333,725967.000,1.000
-0.806,-2.478,-4.486,-9.624,-7.626,-6.918,-5.675,-6.103,-0.047,0.981,-0.131,-0.183,-1.251,0.641,73.333,725968.000,1.000
-2.305,-2.069,-3.534,-8.405,-6.004,-2.495,-0.564,-3.299,-0.046,0.981,-0.132,-0.214,-1.251,0.610,73.333,725969.000,1.000
-2.948,-1.285,-2.153,-5.640,-3.195,2.569,4.528,0.853,-0.047,0.980,-0.133,-0.183,-1.282,0.671,73.333,725970.000,1.000
-3.312,-1.541,-1.655,-2.883,-1.624,4.466,5.326,2.747,-0.046,0.979,-0.137,-0.153,-1.373,0.641,73.333,725971.000,1.000
-3.934,-3.563,-2.815,-1.321,-2.616,1.189,0.644,0.783,-0.046,0.981,-0.138,-0.153,-1.343,0.763,73.333,725972.000,1.000
-4.936,-6.874,-5.337,-1.205,-5.654,-5.965,-6.870,-3.764,-0.045,0.981,-0.135,-0.183,-1.282,0.732,73.333,725973.000,1.000
-6.077,-10.201,-8.186,-2.153,-9.183,-13.457,-13.163,-8.432,-0.045,0.981,-0.136,-0.122,-1.312,0.641,73.333,725974.000,1.000
-6.955,-12.100,-10.102,-3.528,-11.466,-17.416,-14.818,-11.029,-0.045,0.983,-0.137,-0.183,-1.343,0.641,73.333,725975.000,1.000
-7.191,-11.537,-10.147,-4.574,-11.076,-15.286,-9.970,-10.045,-0.045,0.984,-0.135,-0.214,-1.343,0.641,73.333,725976.000,1.000
-6.656,-8.535,-8.212,-4.689,-7.609,-7.413,0.680,-5.122,-0.045,0.984,-0.136,-0.214,-1.251,0.610,73.333,725977.000,1.000
-5.749,-4.539,-5.486,-4.048,-2.547,2.370,12.851,1.912,-0.045,0.984,-0.136,-0.336,-1.251,0.580,73.333,725978.000,1.000
-5.326,-1.771,-4.011,-3.761,1.120,8.741,19.937,7.196,-0.046,0.986,-0.138,-0.488,-1.190,0.641,73.333,725979.000,1.000
-6.016,-1.742,-5.151,-4.852,1.036,8.480,17.319,7.550,-0.046,0.984,-0.136,-0.519,-1.282,0.641,73.333,725980.000,1.000
-7.592,-4.237,-8.516,-7.188,-2.649,2.359,6.018,3.125,-0.047,0.982,-0.135,-0.610,-1.312,0.580,73.333,725981.000,1.000
-9.184,-7.713,-12.331,-9.732,-7.763,-6.082,-8.244,-3.313,-0.047,0.981,-0.140,-0.610,-1.251,0.702,73.333,725982.000,1.000
-10.067,-10.527,-14.856,-11.615,-11.993,-12.970,-19.091,-9.190,-0.047,0.983,-0.135,-0.671,-1.190,0.702,73.333,725983.000,1.000
-10.082,-11.776,-15.316,-12.569,-13.999,-15.698,-22.419,-13.428,-0.047,0.983,-0.136,-0.702,-1.251,0.702,73.333,725984.000,1.000
-9.450,-11.464,-13.939,-12.704,-13.674,-13.980,-18.095,-15.982,-0.046,0.983,-0.139,-0.793,-1.190,0.610,73.333,725985.000,1.000
-8.534,-10.373,-11.750,-12.378,-12.187,-10.425,-10.659,-17.297,-0.048,0.984,-0.137,-0.793,-1.251,0.580,73.333,725986.000,1.000
-7.729,-9.486,-9.874,-11.975,-11.040,-8.596,-6.000,-17.582,-0.048,0.983,-0.134,-0.793,-1.251,0.488,73.333,725987.000,1.000
-7.259,-9.190,-8.765,-11.499,-10.582,-9.740,-6.207,-16.083,-0.047,0.983,-0.137,-0.885,-1.282,0.519,73.333,725988.000,1.000
-7.073,-9.173,-8.147,-10.643,-9.978,-12.215,-8.803,-11.847,-0.047,0.982,-0.137,-1.038,-1.343,0.519,73.333,725989.000,1.000
-6.966,-8.870,-7.507,-9.327,-8.473,-13.336,-9.940,-5.609,-0.048,0.982,-0.140,-1.007,-1.312,0.549,73.333,725990.000,1.000
-6.751,-7.814,-6.588,-7.917,-6.120,-11.016,-7.219,-0.145,-0.050,0.981,-0.136,-1.007,-1.373,0.580,73.333,725991.000,1.000
-6.437,-5.935,-5.538,-6.899,-3.590,-5.007,-0.958,1.799,-0.050,0.983,-0.133,-1.068,-1.373,0.519,73.333,725992.000,1.000
-6.344,-3.839,-4.922,-6.524,-1.746,2.386,5.833,-0.311,-0.048,0.981,-0.135,-1.007,-1.373,0.458,73.333,725993.000,1.000
-6.928,-2.541,-5.340,-6.662,-1.142,7.403,9.514,-4.435,-0.049,0.982,-0.134,-1.099,-1.404,0.458,73.333,725994.000,1.000
-8.358,-2.763,-6.852,-6.877,-1.660,7.424,8.707,-7.400,-0.048,0.981,-0.133,-1.068,-1.526,0.458,73.333,725995.000,1.000
-10.278,-4.432,-8.935,-6.727,-2.672,2.907,5.132,-7.139,-0.050,0.983,-0.135,-1.129,-1.526,0.397,73.333,725996.000,1.000
-11.923,-6.598,-10.717,-5.955,-3.352,-2.791,2.158,-3.730,-0.050,0.980,-0.135,-1.068,-1.587,0.427,73.333,725997.000,1.000
-12.494,-7.849,-11.359,-4.461,-2.842,-5.536,2.776,1.527,-0.051,0.981,-0.135,-1.160,-1.587,0.458,73.333,725998.000,1.000
-11.646,-7.255,-10.580,-2.429,-0.813,-3.504,7.460,7.118,-0.052,0.982,-0.135,-1.038,-1.709,0.427,73.333,725999.000,1.000
-9.823,-5.201,-9.022,-0.554,1.814,1.126,13.186,11.342,-0.049,0.981,-0.134,-1.007,-1.648,0.488,73.333,726000.000,1.000
-8.016,-3.059,-7.952,0.228,3.362,4.394,15.801,12.560,-0.050,0.981,-0.133,-1.099,-1.709,0.488,73.333,726001.000,1.000
-7.026,-2.028,-8.274,-0.621,2.754,4.375,13.573,9.974,-0.051,0.981,-0.134,-1.038,-1.709,0.580,73.333,726002.000,1.000
-6.915,-2.385,-9.845,-2.845,0.215,2.116,7.972,4.179,-0.051,0.981,-0.134,-1.007,-1.770,0.549,73.333,726003.000,1.000
-6.998,-3.419,-11.453,-5.350,-2.825,0.032,2.467,-2.503,-0.050,0.981,-0.137,-0.916,-1.709,0.580,73.333,726004.000,1.000
-6.342,-3.912,-11.545,-6.656,-4.505,0.173,0.616,-6.808,-0.050,0.981,-0.136,-0.946,-1.770,0.641,73.333,726005.000,1.000
-4.422,-3.039,-9.401,-5.852,-3.825,2.908,3.345,-6.746,-0.049,0.983,-0.134,-0.916,-1.770,0.610,73.333,726006.000,1.000
-1.468,-1.054,-5.587,-3.305,-1.480,6.453,7.899,-3.251,-0.048,0.983,-0.132,-0.763,-1.801,0.702,73.333,726007.000,1.000
1.729,0.897,-1.539,-0.447,0.621,7.970,10.011,0.439,-0.046,0.982,-0.134,-0.885,-1.801,0.702,73.333,726008.000,1.000
4.369,1.746,1.366,1.275,0.834,5.735,7.288,1.315,-0.048,0.983,-0.136,-0.824,-1.709,0.732,73.333,726009.000,1.000
6.104,1.367,2.625,1.408,-0.950,0.646,1.145,-1.179,-0.047,0.981,-0.133,-0.824,-1.617,0.702,73.333,726010.000,1.000
7.090,0.584,2.708,0.620,-3.297,-4.348,-4.192,-5.139,-0.044,0.983,-0.137,-0.793,-1.587,0.732,73.333,726011.000,1.000
7.732,0.428,2.634,0.053,-4.427,-6.609,-5.170,-7.887,-0.045,0.983,-0.136,-0.854,-1.556,0.671,73.333,726012.000,1.000
8.320,1.338,3.208,0.433,-3.542,-5.796,-2.028,-7.751,-0.045,0.981,-0.136,-0.885,-1.465,0.824,73.333,726013.000,1.000
8.805,2.965,4.498,1.601,-1.185,-3.608,1.852,-4.810,-0.046,0.984,-0.134,-0.793,-1.495,0.702,73.333,726014.000,1.000
8.825,4.559,5.915,2.799,1.438,-1.931,3.487,-0.499,-0.047,0.983,-0.133,-0.854,-1.434,0.702,73.333,726015.000,1.000
7.988,5.481,6.656,3.336,3.268,-1.360,2.439,3.275,-0.046,0.984,-0.134,-0.916,-1.404,0.793,73.333,726016.000,1.000
6.264,5.517,6.323,3.093,3.808,-1.215,0.171,5.042,-0.046,0.982,-0.134,-0.916,-1.282,0.763,73.333,726017.000,1.000
4.145,4.876,5.124,2.577,3.182,-0.716,-1.525,4.537,-0.047,0.984,-0.133,-0.977,-1.282,0.641,73.333,726018.000,1.000
2.304,3.832,3.544,2.488,1.858,-0.160,-1.859,2.804,-0.047,0.983,-0.133,-1.007,-1.190,0.580,73.333,726019.000,1.000
1.159,2.494,2.022,3.174,0.310,-0.649,-1.475,1.368,-0.047,0.983,-0.132,-0.946,-1.251,0.549,73.333,726020.000,1.000
0.845,1.112,0.944,4.446,-0.953,-2.379,-1.203,1.178,-0.047,0.984,-0.133,-1.068,-1.160,0.580,73.333,726021.000,1.000
1.348,0.243,0.659,5.786,-1.409,-3.905,-0.824,2.145,-0.048,0.982,-0.134,-1.099,-1.129,0.580,73.333,726022.000,1.000
2.487,0.327,1.199,6.717,-0.867,-3.560,0.342,3.648,-0.049,0.982,-0.132,-1.129,-1.282,0.610,73.333,726023.000,1.000
3.941,1.365,2.291,7.194,0.536,-0.854,2.749,5.503,-0.048,0.984,-0.135,-1.129,-1.221,0.580,73.333,726024.000,1.000
5.423,2.995,3.713,7.581,2.563,3.496,6.642,8.034,-0.049,0.985,-0.132,-1.099,-1.129,0.641,73.333,726025.000,1.000
6.705,4.544,5.197,8.051,4.657,7.893,11.082,10.943,-0.048,0.983,-0.131,-1.129,-1.068,0.793,73.333,726026.000,1.000
7.528,5.105,6.262,8.156,5.672,10.148,13.191,12.563,-0.049,0.981,-0.132,-1.190,-1.007,0.793,73.333,726027.000,1.000
7.752,4.132,6.496,7.260,4.629,8.923,10.398,10.971,-0.049,0.982,-0.133,-1.160,-1.068,0.763,73.333,726028.000,1.000
7.597,2.135,6.070,5.364,1.917,5.477,3.691,5.971,-0.048,0.985,-0.133,-1.190,-1.099,0.793,73.333,726029.000,1.000
7.428,0.322,5.600,3.166,-0.889,2.701,-2.931,-0.481,-0.049,0.983,-0.132,-0.977,-1.129,0.793,73.333,726030.000,1.000
7.326,-0.461,5.447,1.419,-2.332,2.323,-5.891,-5.530,-0.048,0.983,-0.133,-1.007,-1.068,0.793,73.333,726031.000,1.000
7.081,-0.154,5.638,0.541,-1.797,4.104,-3.724,-6.774,-0.048,0.982,-0.134,-1.068,-1.129,0.854,73.333,726032.000,1.000
6.524,0.808,6.059,0.593,0.423,6.850,2.874,-3.502,-0.049,0.981,-0.133,-1.038,-1.007,0.793,73.333,726033.000,1.000
5.708,1.852,6.507,1.316,3.223,9.040,11.040,2.657,-0.049,0.982,-0.133,-0.946,-1.007,0.824,73.333,726034.000,1.000
4.814,2.511,6.774,2.217,5.207,9.267,17.014,8.621,-0.050,0.983,-0.132,-0.885,-1.038,0.916,73.333,726035.000,1.000
3.923,2.454,6.628,2.693,5.364,6.866,18.199,11.595,-0.049,0.983,-0.134,-0.854,-1.129,0.885,73.333,726036.000,1.000
2.977,1.514,5.846,2.278,3.421,2.247,13.974,10.406,-0.048,0.983,-0.132,-0.916,-1.068,0.854,73.333,726037.000,1.000
2.010,-0.092,4.387,1.009,0.023,-3.054,5.763,5.921,-0.048,0.982,-0.132,-0.885,-1.068,0.793,73.333,726038.000,1.000
1.258,-1.648,2.690,-0.459,-3.343,-6.838,-2.975,0.484,-0.049,0.983,-0.133,-0.885,-1.160,0.854,73.333,726039.000,1.000
0.997,-2.213,1.722,-1.122,-4.913,-7.248,-8.184,-3.238,-0.050,0.982,-0.131,-0.793,-1.160,0.854,73.333,726040.000,1.000
1.322,-1.107,2.436,-0.069,-3.413,-3.579,-7.563,-3.202,-0.048,0.980,-0.135,-0.824,-1.190,0.854,73.333,726041.000,1.000
1.982,1.584,5.017,3.017,1.229,3.260,-1.503,1.322,-0.049,0.982,-0.133,-0.732,-1.099,0.732,73.333,726042.000,1.000
2.348,4.724,8.382,7.376,7.421,10.603,7.171,9.015,-0.047,0.980,-0.133,-0.580,-1.129,0.854,73.333,726043.000,1.000
1.702,6.555,10.574,11.336,12.380,15.020,14.027,16.613,-0.049,0.981,-0.135,-0.641,-1.190,0.824,73.333,726044.000,1.000
-0.253,5.758,9.962,13.233,13.717,14.412,15.195,20.610,-0.049,0.981,-0.134,-0.580,-1.129,0.793,73.333,726045.000,1.000
-3.074,2.397,6.282,12.403,10.992,9.542,10.155,19.502,-0.051,0.981,-0.133,-0.580,-1.099,0.824,73.333,726046.000,1.000
-5.756,-1.986,0.944,9.496,5.986,3.566,2.496,14.618,-0.050,0.979,-0.133,-0.397,-1.160,0.854,73.333,726047.000,1.000
-7.436,-5.452,-3.881,5.764,1.211,-0.404,-3.003,8.638,-0.050,0.977,-0.132,-0.397,-1.129,0.854,73.333,726048.000,1.000
-7.996,-7.105,-6.697,2.031,-2.075,-1.803,-4.482,3.400,-0.049,0.978,-0.134,-0.366,-1.160,0.916,73.333,726049.000,1.000
-7.893,-7.411,-7.267,-1.464,-4.284,-2.482,-3.792,-0.621,-0.049,0.978,-0.135,-0.336,-1.251,0.946,73.333,726050.000,1.000
-7.512,-7.245,-6.197,-4.431,-6.155,-4.004,-3.428,-3.275,-0.050,0.980,-0.135,-0.244,-1.282,0.977,73.333,726051.000,1.000
-6.876,-6.999,-4.182,-6.211,-7.569,-5.744,-3.587,-4.009,-0.050,0.983,-0.134,-0.244,-1.282,0.977,73.333,726052.000,1.000
-5.842,-6.553,-1.741,-6.195,-7.764,-5.717,-2.506,-2.405,-0.047,0.982,-0.134,-0.275,-1.251,0.977,73.333,726053.000,1.000
-4.497,-5.853,0.527,-4.592,-6.554,-3.073,0.621,0.591,-0.048,0.983,-0.135,-0.214,-1.190,0.977,73.333,726054.000,1.000
-3.324,-5.295,1.844,-2.610,-4.942,0.582,4.078,2.675,-0.049,0.983,-0.134,-0.275,-1.312,0.854,73.333,726055.000,1.000
-2.826,-5.310,1.726,-1.563,-4.131,2.764,5.686,2.240,-0.052,0.984,-0.136,-0.305,-1.099,0.702,73.333,726056.000,1.000
-3.060,-5.810,0.526,-1.869,-4.384,2.221,5.144,-0.130,-0.051,0.984,-0.134,-0.397,-1.312,0.641,73.333,726057.000,1.000
-3.659,-6.286,-0.904,-3.029,-5.111,-0.699,3.645,-2.618,-0.052,0.984,-0.138,-0.488,-1.282,0.610,73.333,726058.000,1.000
-4.105,-6.114,-1.791,-4.220,-5.379,-4.260,2.784,-3.831,-0.049,0.986,-0.137,-0.641,-1.282,0.549,73.333,726059.000,1.000
-3.960,-4.839,-1.667,-4.847,-4.469,-6.093,3.484,-3.655,-0.048,0.987,-0.137,-0.702,-1.312,0.427,73.333,726060.000,1.000
-3.140,-2.659,-0.615,-4.939,-2.708,-5.469,4.268,-3.367,-0.045,0.983,-0.139,-0.977,-1.312,0.519,73.333,726061.000,1.000
-2.125,-0.555,0.714,-5.074,-1.490,-4.439,1.807,-4.693,-0.043,0.982,-0.137,-1.160,-1.221,0.641,73.333,726062.000,1.000
-1.731,0.425,1.515,-5.813,-1.921,-5.582,-5.341,-8.125,-0.039,0.981,-0.134,-1.190,-1.129,0.763,73.333,726063.000,1.000
-2.480,0.042,1.424,-7.105,-3.599,-9.119,-14.478,-12.127,-0.038,0.978,-0.134,-0.977,-0.977,0.824,73.333,726064.000,1.000
-4.161,-1.017,0.753,-8.201,-4.923,-12.709,-20.852,-14.141,-0.040,0.976,-0.134,-1.007,-0.793,0.854,73.333,726065.000,1.000
-6.061,-1.822,0.017,-8.260,-4.493,-13.647,-21.348,-12.623,-0.042,0.977,-0.136,-0.854,-0.671,0.916,73.333,726066.000,1.000
-7.552,-1.969,-0.578,-7.102,-2.300,-11.194,-16.427,-8.400,-0.043,0.977,-0.138,-0.946,-0.610,1.007,73.333,726067.000,1.000
-8.368,-1.733,-1.216,-5.321,0.307,-7.041,-9.590,-4.075,-0.047,0.976,-0.137,-0.885,-0.549,1.038,73.333,726068.000,1.000
-8.489,-1.569,-2.094,-3.690,1.796,-3.490,-4.694,-1.958,-0.046,0.979,-0.133,-0.885,-0.488,1.068,73.333,726069.000,1.000
-7.996,-1.643,-3.123,-2.608,1.540,-1.488,-3.131,-2.585,-0.046,0.982,-0.138,-0.702,-0.488,1.190,73.333,726070.000,1.000
-7.067,-1.877,-4.033,-2.073,-0.077,-0.714,-3.643,-4.876,-0.047,0.983,-0.137,-0.763,-0.488,1.190,73.333,726071.000,1.000
-5.944,-2.167,-4.485,-1.888,-2.202,-0.698,-4.219,-7.153,-0.046,0.985,-0.138,-0.854,-0.488,1.312,73.333,726072.000,1.000
-4.876,-2.430,-4.298,-1.875,-4.038,-1.062,-3.723,-8.201,-0.046,0.985,-0.141,-0.946,-0.488,1.465,73.333,726073.000,1.000
-4.099,-2.578,-3.684,-2.053,-5.225,-1.392,-2.366,-7.989,-0.048,0.984,-0.141,-1.007,-0.458,1.373,73.333,726074.000,1.000
-3.778,-2.509,-3.092,-2.552,-5.820,-1.358,-0.905,-7.349,-0.047,0.986,-0.136,-0.763,-0.488,1.434,73.333,726075.000,1.000
-3.848,-1.998,-2.773,-3.225,-5.802,-0.508,0.616,-6.769,-0.052,0.988,-0.137,-0.854,-0.397,1.343,73.333,726076.000,1.000
-3.916,-0.712,-2.460,-3.559,-4.901,1.781,2.758,-5.969,-0.056,0.989,-0.135,-0.885,-0.519,1.221,73.333,726077.000,1.000
-3.454,1.430,-1.725,-3.162,-3.100,5.450,5.261,-4.703,-0.059,0.987,-0.132,-0.916,-0.610,1.099,73.333,726078.000,1.000
-2.157,4.000,-0.485,-2.135,-0.893,9.215,7.182,-3.077,-0.057,0.989,-0.133,-0.977,-0.824,0.977,73.333,726079.000,1.000
-0.063,6.429,1.099,-0.814,1.343,11.834,8.987,-0.947,-0.057,0.991,-0.129,-1.068,-0.916,0.763,73.333,726080.000,1.000
2.609,8.441,2.902,0.562,3.632,13.114,12.059,1.976,-0.055,0.990,-0.132,-1.343,-1.038,0.641,73.333,726081.000,1.000
5.482,9.845,4.776,1.755,5.631,12.785,15.191,5.142,-0.053,0.991,-0.133,-1.587,-1.190,0.458,73.333,726082.000,1.000
7.985,10.381,6.351,2.481,6.481,10.315,14.728,7.119,-0.051,0.990,-0.137,-1.648,-1.312,0.366,73.333,726083.000,1.000
9.546,10.037,7.187,2.667,5.759,6.467,8.847,6.803,-0.048,0.990,-0.135,-1.678,-1.373,0.397,73.333,726084.000,1.000
9.873,9.052,7.007,2.461,3.764,2.701,-1.092,4.152,-0.047,0.990,-0.135,-1.862,-1.465,0.275,73.333,726085.000,1.000
9.030,7.567,5.746,1.989,1.014,-0.787,-12.531,0.007,-0.045,0.989,-0.134,-1.892,-1.373,0.244,73.333,726086.000,1.000
7.316,5.671,3.670,1.322,-1.869,-4.615,-22.635,-4.232,-0.044,0.986,-0.135,-1.862,-1.404,0.305,73.333,726087.000,1.000
5.192,3.754,1.391,0.650,-3.961,-8.305,-28.432,-6.967,-0.043,0.984,-0.136,-1.801,-1.251,0.336,73.333,726088.000,1.000
3.311,2.583,-0.244,0.375,-4.257,-10.085,-28.042,-6.940,-0.043,0.985,-0.134,-1.770,-1.160,0.427,73.333,726089.000,1.000
2.350,2.851,-0.490,0.929,-2.349,-8.570,-22.157,-3.945,-0.042,0.984,-0.133,-1.740,-1.160,0.610,73.333,726090.000,1.000
2.606,4.654,0.791,2.446,1.176,-3.954,-13.811,0.754,-0.044,0.982,-0.133,-1.678,-1.099,0.641,73.333,726091.000,1.000
3.837,7.428,3.079,4.609,5.123,2.346,-6.324,4.899,-0.043,0.983,-0.130,-1.648,-1.007,0.763,73.333,726092.000,1.000
5.497,10.229,5.551,6.783,8.321,8.450,-1.549,6.420,-0.046,0.982,-0.130,-1.617,-1.007,0.824,73.333,726093.000,1.000
7.164,12.245,7.648,8.508,10.232,12.892,0.599,4.834,-0.048,0.980,-0.134,-1.495,-0.977,0.824,73.333,726094.000,1.000
8.818,13.349,9.513,9.948,11.293,15.609,1.779,1.796,-0.048,0.980,-0.132,-1.495,-0.916,0.824,73.333,726095.000,1.000
10.601,13.980,11.587,11.547,12.315,17.585,3.663,-0.308,-0.050,0.978,-0.131,-1.404,-0.885,0.763,73.333,726096.000,1.000
12.275,14.405,13.847,13.237,13.342,18.988,6.015,-0.439,-0.051,0.977,-0.131,-1.251,-0.977,0.732,73.333,726097.000,1.000
13.233,14.489,15.716,14.431,13.678,18.679,7.162,0.944,-0.050,0.976,-0.129,-1.129,-1.068,0.702,73.333,726098.000,1.000
13.129,14.214,16.754,14.762,13.030,15.970,6.432,3.214,-0.051,0.976,-0.130,-0.977,-1.129,0.732,73.333,726099.000,1.000
12.232,13.881,16.944,14.305,11.851,11.813,4.867,5.796,-0.050,0.977,-0.129,-0.977,-1.282,0.610,73.333,726100.000,1.000
11.165,13.770,16.367,13.219,10.728,8.255,3.992,7.595,-0.049,0.976,-0.130,-0.916,-1.251,0.580,73.333,726101.000,1.000
10.503,13.955,15.178,11.671,10.063,7.269,4.931,7.637,-0.048,0.976,-0.129,-0.824,-1.282,0.519,73.333,726102.000,1.000
10.507,14.265,13.665,9.939,9.941,9.241,7.513,6.031,-0.049,0.976,-0.130,-0.732,-1.251,0.580,73.333,726103.000,1.000
11.014,14.251,12.090,8.257,9.899,12.072,9.595,3.669,-0.051,0.979,-0.131,-0.610,-1.099,0.519,73.333,726104.000,1.000
11.593,13.423,10.640,6.700,9.188,12.569,8.565,1.338,-0.049,0.976,-0.128,-0.519,-1.190,0.549,73.333,726105.000,1.000
11.932,11.784,9.535,5.383,7.634,9.431,4.176,-0.492,-0.047,0.977,-0.130,-0.458,-1.190,0.488,73.333,726106.000,1.000
12.144,10.135,9.150,4.685,6.183,4.789,-0.559,-1.313,-0.048,0.976,-0.131,-0.488,-1.190,0.549,73.333,726107.000,1.000
12.666,9.632,9.820,5.055,6.243,2.457,-1.976,-0.720,-0.047,0.978,-0.134,-0.397,-1.190,0.580,73.333,726108.000,1.000
13.745,10.763,11.449,6.504,8.315,4.293,0.605,1.038,-0.048,0.979,-0.131,-0.305,-1.190,0.610,73.333,726109.000,1.000
14.991,12.755,13.336,8.399,11.411,8.389,4.292,3.176,-0.047,0.980,-0.134,-0.244,-1.221,0.641,73.333,726110.000,1.000
15.521,14.124,14.409,9.757,13.819,11.111,5.622,4.847,-0.048,0.980,-0.135,-0.153,-1.221,0.641,73.333,726111.000,1.000
14.618,13.768,13.874,9.796,14.238,10.404,3.437,5.275,-0.047,0.981,-0.134,-0.214,-1.190,0.641,73.333,726112.000,1.000
12.317,11.577,11.725,8.462,12.434,6.939,-0.802,4.025,-0.046,0.981,-0.133,-0.061,-1.129,0.793,73.333,726113.000,1.000
9.456,8.436,8.856,6.621,9.405,3.340,-4.007,1.647,-0.046,0.980,-0.131,-0.061,-1.190,0.916,73.333,726114.000,1.000
7.182,5.749,6.622,5.541,6.811,2.360,-3.466,-0.403,-0.045,0.983,-0.133,-0.031,-1.221,0.977,73.333,726115.000,1.000
6.190,4.430,5.774,5.834,5.561,4.216,0.279,-1.004,-0.044,0.982,-0.132,0.061,-1.190,0.946,73.333,726116.000,1.000
6.346,4.276,5.966,6.992,5.143,6.016,3.568,-0.157,-0.044,0.982,-0.134,0.031,-1.190,1.038,73.333,726117.000,1.000
6.984,4.409,6.328,8.005,4.574,4.770,3.514,1.502,-0.046,0.984,-0.135,-0.031,-1.129,1.068,73.333,726118.000,1.000
7.322,4.033,6.211,8.102,3.383,0.130,0.347,3.190,-0.045,0.983,-0.135,0.000,-1.129,1.190,73.333,726119.000,1.000
6.698,2.809,5.398,6.985,1.679,-5.737,-3.695,4.018,-0.045,0.985,-0.136,-0.061,-1.068,1.190,73.333,726120.000,1.000
4.896,1.023,4.049,4.934,0.014,-9.751,-6.135,3.513,-0.044,0.985,-0.136,-0.214,-0.946,1.282,73.333,726121.000,1.000
2.392,-0.569,2.660,2.737,-0.890,-9.809,-5.636,2.055,-0.046,0.987,-0.135,-0.427,-1.038,1.282,73.333,726122.000,1.000
0.053,-1.374,1.676,1.087,-0.830,-6.250,-3.088,0.154,-0.047,0.986,-0.137,-0.427,-0.946,1.251,73.333,726123.000,1.000
-1.452,-1.404,1.123,0.063,-0.388,-1.399,-0.998,-2.252,-0.044,0.987,-0.134,-0.488,-0.916,1.160,73.333,726124.000,1.000
-1.997,-1.081,0.742,-0.699,-0.293,2.415,-1.298,-5.199,-0.047,0.985,-0.132,-0.549,-0.946,1.190,73.333,726125.000,1.000
-1.884,-0.771,0.360,-1.389,-0.619,4.131,-3.745,-7.623,-0.047,0.984,-0.133,-0.763,-0.977,1.190,73.333,726126.000,1.000
-1.446,-0.488,0.230,-1.626,-0.601,3.891,-6.011,-7.340,-0.047,0.985,-0.135,-0.732,-1.007,1.099,73.333,726127.000,1.000
-0.873,-0.096,0.724,-0.963,0.426,2.353,-5.956,-3.256,-0.046,0.984,-0.137,-0.702,-0.916,1.038,73.333,726128.000,1.000
-0.348,0.259,1.663,0.165,1.775,0.058,-4.099,2.188,-0.045,0.984,-0.135,-0.854,-0.885,0.946,73.333,726129.000,1.000
-0.036,0.282,2.396,0.610,1.924,-2.349,-2.459,4.524,-0.046,0.987,-0.134,-0.885,-0.885,0.824,73.333,726130.000,1.000
0.125,0.068,2.533,-0.219,0.393,-3.576,-1.461,1.678,-0.047,0.987,-0.134,-0.854,-0.946,0.824,73.333,726131.000,1.000
0.295,0.005,2.234,-1.833,-1.858,-2.657,-0.264,-4.411,-0.047,0.987,-0.133,-1.068,-0.854,0.763,73.333,726132.000,1.000
0.311,0.044,1.660,-3.420,-3.801,-0.633,0.652,-10.100,-0.046,0.986,-0.130,-1.099,-0.885,0.702,73.333,726133.000,1.000
-0.306,-0.367,0.697,-4.492,-5.099,0.026,-0.129,-12.499,-0.045,0.983,-0.133,-1.221,-0.946,0.641,73.333,726134.000,1.000
-1.804,-1.603,-0.699,-4.842,-5.776,-2.254,-2.807,-10.581,-0.044,0.978,-0.133,-1.282,-0.946,0.763,73.333,726135.000,1.000
-3.889,-3.496,-2.359,-4.520,-6.044,-7.092,-6.277,-5.661,-0.042,0.975,-0.134,-1.312,-0.885,0.671,73.333,726136.000,1.000
-5.950,-5.475,-3.991,-3.895,-6.151,-12.359,-8.849,-0.649,-0.041,0.977,-0.133,-1.099,-0.854,0.671,73.333,726137.000,1.000
-7.342,-6.701,-5.198,-3.330,-5.886,-14.801,-8.372,2.201,-0.041,0.976,-0.134,-1.099,-0.824,0.702,73.333,726138.000,1.000
-7.621,-6.436,-5.559,-2.793,-4.670,-11.984,-3.599,2.767,-0.042,0.979,-0.134,-0.977,-0.732,0.702,73.333,726139.000,1.000
-6.873,-4.847,-5.000,-2.138,-2.585,-4.907,3.639,2.054,-0.042,0.980,-0.135,-0.793,-0.702,0.763,73.333,726140.000,1.000
-5.786,-3.277,-4.127,-1.589,-0.894,1.991,8.944,0.530,-0.042,0.980,-0.134,-0.793,-0.732,0.946,73.333,726141.000,1.000
-5.114,-3.190,-3.779,-1.521,-0.935,4.419,9.052,-1.759,-0.043,0.979,-0.136,-0.885,-0.641,1.007,73.333,726142.000,1.000
-4.966,-4.721,-4.173,-1.728,-2.464,1.978,5.021,-3.760,-0.042,0.977,-0.136,-0.885,-0.488,1.007,73.333,726143.000,1.000
-4.748,-6.461,-4.569,-1.277,-3.473,-1.836,1.463,-3.245,-0.045,0.977,-0.135,-0.824,-0.549,1.099,73.333,726144.000,1.000
-3.864,-6.785,-3.963,0.535,-2.099,-3.219,2.134,1.044,-0.045,0.978,-0.135,-0.671,-0.488,1.038,73.333,726145.000,1.000
-2.349,-5.246,-2.153,3.227,1.466,-1.249,6.596,7.447,-0.047,0.977,-0.133,-0.641,-0.488,1.038,73.333,726146.000,1.000
-0.750,-2.645,0.152,5.430,5.249,2.293,11.365,12.226,-0.053,0.978,-0.133,-0.610,-0.641,1.007,73.333,726147.000,1.000
0.435,-0.138,2.002,5.995,7.259,5.084,13.376,12.301,-0.056,0.979,-0.133,-0.488,-0.885,0.885,73.333,726148.000,1.000
1.124,1.565,2.836,4.807,6.908,5.808,12.234,7.527,-0.059,0.981,-0.132,-0.488,-0.916,0.702,73.333,726149.000,1.000
1.619,2.533,2.764,2.854,5.280,4.915,10.048,0.915,-0.056,0.982,-0.133,-0.549,-1.068,0.519,73.333,726150.000,1.000
2.319,3.430,2.370,1.537,4.304,4.646,9.627,-3.447,-0.055,0.985,-0.133,-0.641,-1.221,0.366,73.333,726151.000,1.000
3.302,4.726,2.155,1.644,5.248,6.929,12.374,-3.188,-0.054,0.987,-0.133,-0.702,-1.373,0.244,73.333,726152.000,1.000
4.070,5.892,1.976,2.685,7.469,10.354,16.676,0.781,-0.050,0.986,-0.133,-0.793,-1.495,0.122,73.333,726153.000,1.000
3.832,5.659,1.150,3.241,8.767,10.699,18.462,4.953,-0.049,0.986,-0.135,-0.885,-1.556,0.153,73.333,726154.000,1.000
2.168,3.197,-0.823,2.115,7.319,5.151,14.524,5.832,-0.046,0.984,-0.136,-1.007,-1.678,0.153,73.333,726155.000,1.000
-0.608,-1.077,-3.793,-0.693,3.294,-4.866,5.477,2.617,-0.046,0.983,-0.135,-0.946,-1.648,0.183,73.333,726156.000,1.000
-3.686,-5.741,-7.059,-4.047,-1.373,-14.767,-4.577,-2.435,-0.043,0.984,-0.135,-0.946,-1.556,0.183,73.333,726157.000,1.000
-6.325,-9.319,-9.950,-6.612,-4.540,-19.844,-10.867,-6.102,-0.044,0.984,-0.135,-0.793,-1.617,0.214,73.333,726158.000,1.000
-8.204,-11.098,-12.223,-7.698,-5.156,-17.896,-10.613,-6.426,-0.044,0.984,-0.135,-0.824,-1.617,0.214,73.333,726159.000,1.000
-9.409,-11.323,-13.955,-7.438,-3.651,-10.436,-4.394,-3.520,-0.045,0.983,-0.133,-0.824,-1.648,0.336,73.333,726160.000,1.000
-10.269,-10.867,-15.311,-6.538,-1.601,-1.872,4.050,0.775,-0.044,0.984,-0.132,-0.702,-1.617,0.397,73.333,726161.000,1.000
-11.102,-10.525,-16.309,-5.794,-0.628,3.562,10.422,4.189,-0.042,0.984,-0.133,-0.854,-1.556,0.519,73.333,726162.000,1.000
-11.953,-10.381,-16.708,-5.517,-1.108,4.867,13.084,5.644,-0.045,0.987,-0.132,-0.763,-1.617,0.519,73.333,726163.000,1.000
-12.605,-9.958,-16.203,-5.438,-2.133,3.963,13.180,5.573,-0.045,0.989,-0.134,-0.854,-1.556,0.641,73.333,726164.000,1.000
-12.877,-8.988,-14.857,-5.280,-2.856,2.834,11.965,4.509,-0.047,0.989,-0.136,-0.793,-1.556,0.671,73.333,726165.000,1.000
-12.786,-7.744,-13.252,-5.192,-3.346,1.961,9.336,2.146,-0.049,0.987,-0.138,-0.916,-1.495,0.702,73.333,726166.000,1.000
-12.416,-6.600,-11.917,-5.364,-3.950,1.169,5.231,-1.542,-0.050,0.988,-0.135,-1.007,-1.495,0.732,73.333,726167.000,1.000
-11.777,-5.548,-10.831,-5.540,-4.407,0.888,1.193,-5.095,-0.051,0.986,-0.137,-1.099,-1.526,0.641,73.333,726168.000,1.000
-10.850,-4.329,-9.649,-5.220,-4.111,1.935,-0.536,-6.409,-0.049,0.985,-0.138,-1.190,-1.587,0.641,73.333,726169.000,1.000
-9.724,-2.993,-8.317,-4.313,-3.135,4.132,0.654,-4.851,-0.048,0.984,-0.134,-1.160,-1.495,0.580,73.333,726170.000,1.000
-8.661,-2.155,-7.404,-3.451,-2.645,5.713,2.761,-2.201,-0.048,0.983,-0.133,-1.007,-1.587,0.580,73.333,726171.000,1.000
-7.955,-2.541,-7.628,-3.528,-4.038,4.617,2.767,-1.289,-0.046,0.981,-0.135,-1.099,-1.587,0.488,73.333,726172.000,1.000
-7.690,-4.283,-9.100,-4.935,-7.626,0.448,-0.729,-3.708,-0.047,0.981,-0.134,-1.160,-1.526,0.519,73.333,726173.000,1.000
-7.600,-6.621,-10.984,-7.118,-12.063,-4.963,-6.273,-8.415,-0.047,0.982,-0.133,-0.946,-1.495,0.458,73.333,726174.000,1.000
-7.158,-8.235,-11.888,-8.792,-14.991,-8.905,-10.559,-12.102,-0.047,0.980,-0.134,-0.916,-1.495,0.488,73.333,726175.000,1.000
-5.901,-7.997,-10.828,-8.737,-14.475,-9.523,-10.653,-11.407,-0.049,0.980,-0.134,-0.916,-1.495,0.397,73.333,726176.000,1.000
-3.855,-5.831,-8.045,-6.719,-10.516,-7.180,-6.630,-5.821,-0.047,0.981,-0.133,-0.793,-1.373,0.397,73.333,726177.000,1.000
-1.802,-3.153,-5.132,-3.901,-5.643,-5.066,-2.785,1.141,-0.049,0.979,-0.134,-0.885,-1.465,0.366,73.333,726178.000,1.000
-0.953,-2.074,-4.056,-2.082,-3.251,-7.064,-4.256,4.558,-0.047,0.980,-0.135,-0.793,-1.465,0.366,73.333,726179.000,1.000
-2.067,-3.763,-5.596,-2.208,-4.724,-13.855,-11.742,2.473,-0.047,0.979,-0.134,-0.641,-1.526,0.397,73.333,726180.000,1.000
-4.865,-7.672,-8.881,-3.764,-8.558,-22.112,-20.986,-2.941,-0.047,0.976,-0.135,-0.549,-1.556,0.366,73.333,726181.000,1.000
-8.319,-12.196,-12.327,-5.563,-12.145,-27.503,-27.008,-8.127,-0.050,0.978,-0.133,-0.549,-1.465,0.336,73.333,726182.000,1.000
-11.289,-15.628,-14.707,-6.681,-13.657,-27.574,-27.391,-10.709,-0.052,0.978,-0.132,-0.488,-1.465,0.397,73.333,726183.000,1.000
-12.852,-16.686,-15.411,-6.671,-12.488,-22.308,-22.381,-9.850,-0.052,0.979,-0.131,-0.336,-1.617,0.397,73.333,726184.000,1.000
-12.508,-14.999,-14.385,-5.580,-9.239,-13.766,-14.271,-6.223,-0.049,0.979,-0.131,-0.305,-1.587,0.366,73.333,726185.000,1.000
-10.403,-11.437,-12.148,-3.953,-5.544,-5.418,-6.605,-1.842,-0.048,0.980,-0.130,-0.214,-1.678,0.458,73.333,726186.000,1.000
-7.195,-7.411,-9.321,-2.313,-2.798,0.047,-1.543,1.598,-0.048,0.981,-0.134,-0.153,-1.648,0.427,73.333,726187.000,1.000
-3.679,-3.767,-6.147,-0.719,-0.955,2.843,1.999,4.080,-0.050,0.983,-0.134,-0.183,-1.678,0.488,73.333,726188.000,1.000
-0.632,-0.710,-2.819,0.870,0.807,5.033,6.152,6.299,-0.051,0.982,-0.132,-0.092,-1.740,0.519,73.333,726189.000,1.000
1.231,1.553,0.067,2.086,2.665,7.760,10.830,8.231,-0.050,0.983,-0.134,-0.214,-1.801,0.488,73.333,726190.000,1.000
1.520,2.595,1.724,2.317,3.881,10.113,13.518,9.145,-0.051,0.984,-0.130,-0.214,-1.740,0.519,73.333,726191.000,1.000
0.352,1.996,1.735,1.195,3.419,9.808,11.420,8.284,-0.050,0.985,-0.132,-0.153,-1.709,0.519,73.333,726192.000,1.000
-1.719,-0.311,0.333,-1.110,0.730,5.120,3.835,5.389,-0.050,0.985,-0.131,-0.214,-1.740,0.488,73.333,726193.000,1.000
-3.832,-3.660,-1.589,-3.879,-3.559,-2.971,-6.673,1.066,-0.048,0.986,-0.135,-0.336,-1.740,0.519,73.333,726194.000,1.000
-5.140,-6.800,-2.876,-6.246,-7.834,-10.983,-15.697,-3.439,-0.049,0.986,-0.134,-0.397,-1.709,0.610,73.333,726195.000,1.000
-5.263,-8.598,-2.872,-7.737,-10.537,-15.445,-19.723,-6.979,-0.049,0.984,-0.135,-0.427,-1.740,0.702,73.333,726196.000,1.000
-4.461,-8.674,-1.781,-8.392,-11.016,-15.009,-17.669,-8.917,-0.049,0.984,-0.134,-0.488,-1.801,0.671,73.333,726197.000,1.000
-3.418,-7.668,-0.550,-8.590,-9.838,-11.177,-11.465,-9.247,-0.049,0.983,-0.135,-0.641,-1.740,0.702,73.333,726198.000,1.000
-2.817,-6.851,-0.321,-8.746,-8.331,-7.258,-5.078,-8.398,-0.050,0.986,-0.130,-0.580,-1.801,0.641,73.333,726199.000,1.000
-2.866,-7.038,-1.538,-8.871,-7.343,-5.569,-1.327,-6.546,-0.051,0.986,-0.126,-0.641,-1.770,0.580,73.333,726200.000,1.000
-3.153,-7.907,-3.537,-8.465,-6.593,-5.787,-0.104,-3.331,-0.051,0.985,-0.127,-0.793,-1.740,0.610,73.333,726201.000,1.000
-3.072,-8.557,-5.117,-7.052,-5.437,-6.333,0.047,1.359,-0.049,0.985,-0.130,-0.854,-1.740,0.519,73.333,726202.000,1.000
-2.468,-8.526,-5.590,-4.874,-3.980,-6.322,-0.130,6.387,-0.049,0.985,-0.136,-0.946,-1.678,0.610,73.333,726203.000,1.000
-1.918,-8.214,-5.387,-2.999,-3.313,-6.023,-1.082,9.298,-0.048,0.987,-0.133,-0.916,-1.587,0.702,73.333,726204.000,1.000
-2.394,-8.493,-5.683,-2.646,-4.675,-6.367,-3.548,7.710,-0.048,0.987,-0.132,-0.885,-1.678,0.671,73.333,726205.000,1.000
-4.480,-9.872,-7.394,-4.158,-8.187,-8.092,-7.196,1.487,-0.047,0.984,-0.131,-0.885,-1.587,0.763,73.333,726206.000,1.000
-7.784,-11.919,-10.312,-6.604,-12.350,-10.882,-10.421,-6.453,-0.046,0.983,-0.131,-0.977,-1.617,0.732,73.333,726207.000,1.000
-11.076,-13.519,-13.188,-8.446,-14.984,-13.336,-11.731,-12.041,-0.044,0.983,-0.129,-1.007,-1.526,0.732,73.333,726208.000,1.000
-13.028,-13.694,-14.653,-8.653,-14.823,-14.027,-11.097,-13.069,-0.047,0.984,-0.131,-0.977,-1.404,0.732,73.333,726209.000,1.000
-12.913,-12.144,-13.983,-7.174,-12.132,-12.400,-9.392,-10.195,-0.046,0.983,-0.136,-1.129,-1.495,0.793,73.333,726210.000,1.000
-10.708,-9.079,-11.134,-4.506,-7.828,-8.449,-6.399,-5.237,-0.049,0.983,-0.136,-0.977,-1.434,0.732,73.333,726211.000,1.000
-6.863,-4.902,-6.451,-1.152,-2.594,-2.246,-0.512,0.551,-0.047,0.982,-0.134,-0.946,-1.373,0.671,73.333,726212.000,1.000
-2.197,-0.324,-0.802,2.343,2.723,5.148,8.145,6.123,-0.049,0.982,-0.133,-0.977,-1.312,0.763,73.333,726213.000,1.000
2.173,3.425,4.287,5.087,6.369,10.610,15.136,9.628,-0.047,0.983,-0.135,-1.007,-1.190,0.732,73.333,726214.000,1.000
5.179,5.062,7.234,6.093,6.398,10.361,14.543,9.041,-0.046,0.980,-0.131,-1.007,-1.129,0.793,73.333,726215.000,1.000
6.421,4.295,7.476,5.128,2.551,3.471,4.839,4.154,-0.045,0.981,-0.133,-1.007,-1.068,0.854,73.333,726216.000,1.000
6.467,2.295,5.958,3.151,-2.942,-6.465,-9.049,-2.533,-0.046,0.981,-0.137,-1.038,-1.099,0.793,73.333,726217.000,1.000
6.481,0.978,4.431,1.699,-6.723,-13.677,-19.243,-7.177,-0.047,0.980,-0.131,-1.038,-0.977,0.793,73.333,726218.000,1.000
7.482,1.795,4.280,1.838,-6.439,-14.122,-20.000,-6.938,-0.048,0.982,-0.128,-0.885,-0.885,0.763,73.333,726219.000,1.000
9.649,4.841,5.733,3.510,-2.142,-7.878,-11.251,-1.773,-0.046,0.983,-0.128,-0.854,-0.885,0.732,73.333,726220.000,1.000
12.081,8.697,7.688,5.447,3.599,0.964,0.945,5.113,-0.046,0.981,-0.130,-0.885,-0.854,0.824,73.333,726221.000,1.000
13.405,11.338,8.486,5.901,7.269,7.011,8.367,9.004,-0.045,0.981,-0.130,-0.824,-0.763,0.732,73.333,726222.000,1.000
12.799,11.557,7.199,3.931,6.891,7.291,6.758,7.053,-0.045,0.981,-0.133,-0.702,-0.824,0.824,73.333,726223.000,1.000
10.518,9.743,4.368,0.241,3.457,3.059,-1.135,0.710,-0.046,0.980,-0.131,-0.793,-0.610,0.854,73.333,726224.000,1.000
7.532,7.413,1.571,-3.243,0.067,-1.561,-8.224,-5.230,-0.045,0.980,-0.132,-0.610,-0.610,0.885,73.333,726225.000,1.000
4.732,5.999,0.129,-4.758,-0.522,-2.697,-8.975,-6.430,-0.046,0.980,-0.134,-0.519,-0.580,0.854,73.333,726226.000,1.000
2.462,5.947,0.232,-3.790,2.169,0.695,-3.356,-2.317,-0.047,0.984,-0.133,-0.549,-0.488,0.824,73.333,726227.000,1.000
0.613,6.706,1.086,-1.083,6.353,6.383,4.087,3.956,-0.048,0.985,-0.133,-0.519,-0.427,0.916,73.333,726228.000,1.000
-0.944,7.512,1.847,2.270,9.887,11.186,8.987,8.723,-0.047,0.984,-0.134,-0.580,-0.397,0.977,73.333,726229.000,1.000
-1.940,8.285,2.526,5.724,12.225,14.189,11.237,10.952,-0.047,0.986,-0.134,-0.610,-0.336,0.824,73.333,726230.000,1.000
-1.884,9.428,3.732,9.150,14.098,16.519,13.270,11.911,-0.047,0.983,-0.134,-0.641,-0.275,0.885,73.333,726231.000,1.000
-0.800,10.683,5.533,12.034,15.604,18.092,15.253,12.601,-0.049,0.984,-0.133,-0.702,-0.366,0.916,73.333,726232.000,1.000
0.547,10.934,7.086,13.474,15.878,17.022,14.965,12.944,-0.048,0.987,-0.130,-0.580,-0.336,0.916,73.333,726233.000,1.000
1.397,9.446,7.566,13.080,14.519,12.410,11.550,12.791,-0.047,0.987,-0.130,-0.580,-0.305,0.885,73.333,726234.000,1.000
1.621,6.680,6.999,11.378,12.135,5.568,6.370,12.142,-0.048,0.985,-0.130,-0.671,-0.366,0.977,73.333,726235.000,1.000
1.551,3.780,6.041,9.298,9.559,-1.224,1.182,10.685,-0.048,0.985,-0.131,-0.732,-0.336,1.007,73.333,726236.000,1.000
1.637,1.832,5.491,7.646,7.479,-5.558,-2.316,8.253,-0.047,0.983,-0.131,-0.732,-0.397,1.068,73.333,726237.000,1.000
2.213,1.361,5.846,6.806,6.358,-5.841,-2.942,5.265,-0.049,0.984,-0.133,-0.702,-0.397,1.007,73.333,726238.000,1.000
3.264,1.977,6.905,6.537,5.944,-2.889,-1.531,2.146,-0.050,0.982,-0.134,-0.671,-0.366,0.946,73.333,726239.000,1.000
4.422,2.747,7.968,6.264,5.487,0.658,-0.104,-0.756,-0.052,0.983,-0.130,-0.549,-0.488,1.038,73.333,726240.000,1.000
5.199,2.960,8.335,5.571,4.583,2.721,0.488,-2.609,-0.051,0.982,-0.131,-0.488,-0.519,0.946,73.333,726241.000,1.000
5.125,2.367,7.546,4.228,3.255,2.778,0.585,-2.628,-0.049,0.982,-0.132,-0.366,-0.641,0.854,73.333,726242.000,1.000
3.957,1.066,5.478,2.089,1.577,1.400,0.326,-1.088,-0.048,0.981,-0.130,-0.336,-0.641,0.916,73.333,726243.000,1.000
1.959,-0.523,2.502,-0.701,-0.327,-0.312,-0.560,0.829,-0.048,0.983,-0.132,-0.366,-0.732,0.854,73.333,726244.000,1.000
-0.191,-1.878,-0.653,-3.651,-2.228,-1.388,-2.237,1.904,-0.048,0.982,-0.131,-0.397,-0.732,0.763,73.333,726245.000,1.000
-1.828,-2.660,-3.294,-6.177,-3.866,-1.454,-4.302,1.515,-0.048,0.981,-0.133,-0.244,-0.732,0.824,73.333,726246.000,1.000
-2.545,-2.609,-4.809,-7.728,-4.722,-0.252,-5.160,0.135,-0.048,0.982,-0.132,-0.244,-0.763,0.793,73.333,726247.000,1.000
-2.171,-1.392,-4.641,-7.770,-3.971,2.665,-2.608,-0.653,-0.049,0.980,-0.132,0.000,-0.946,0.824,73.333,726248.000,1.000
-0.887,0.997,-2.730,-6.168,-1.315,7.016,3.689,0.494,-0.049,0.980,-0.130,-0.031,-1.007,0.793,73.333,726249.000,1.000
0.680,3.857,0.111,-3.610,2.257,11.268,10.925,3.036,-0.048,0.980,-0.136,0.031,-1.007,0.671,73.333,726250.000,1.000
1.847,6.192,2.684,-1.227,5.103,13.621,15.269,4.857,-0.050,0.981,-0.138,0.122,-0.946,0.641,73.333,726251.000,1.000
2.438,7.415,4.393,0.369,6.267,13.046,14.964,4.477,-0.050,0.980,-0.136,0.153,-1.068,0.702,73.333,726252.000,1.000
2.801,7.533,5.487,1.434,5.960,9.541,11.085,2.339,-0.049,0.982,-0.134,0.153,-1.038,0.671,73.333,726253.000,1.000
3.241,6.754,6.359,2.419,4.848,3.952,5.702,-0.265,-0.048,0.980,-0.137,0.336,-1.129,0.641,73.333,726254.000,1.000
3.547,5.056,6.883,3.209,3.233,-2.494,0.119,-2.790,-0.046,0.981,-0.136,0.214,-1.129,0.641,73.333,726255.000,1.000
3.214,2.386,6.633,3.333,1.230,-8.293,-4.782,-5.277,-0.045,0.980,-0.138,0.336,-1.068,0.519,73.333,726256.000,1.000
2.116,-0.746,5.659,2.744,-0.606,-11.755,-7.871,-7.267,-0.046,0.981,-0.136,0.458,-1.190,0.488,73.333,726257.000,1.000
0.700,-3.362,4.570,1.919,-1.549,-12.120,-8.576,-7.926,-0.047,0.982,-0.135,0.519,-1.160,0.488,73.333,726258.000,1.000
-0.444,-4.707,3.901,1.297,-1.344,-10.203,-7.313,-6.916,-0.046,0.982,-0.136,0.519,-1.160,0.458,73.333,726259.000,1.000
-0.984,-4.608,3.790,1.012,-0.151,-7.332,-4.669,-4.486,-0.046,0.981,-0.135,0.488,-1.221,0.458,73.333,726260.000,1.000
-0.980,-3.445,4.019,0.953,1.634,-4.456,-1.389,-1.280,-0.047,0.982,-0.134,0.488,-1.160,0.580,73.333,726261.000,1.000
-0.902,-2.041,4.082,0.734,3.221,-2.286,1.126,1.477,-0.048,0.982,-0.134,0.549,-1.221,0.549,73.333,726262.000,1.000
-1.304,-1.238,3.530,-0.036,3.805,-1.003,1.868,2.395,-0.046,0.984,-0.135,0.519,-1.190,0.549,73.333,726263.000,1.000
-2.163,-1.201,2.577,-1.122,3.467,0.324,1.653,1.320,-0.046,0.986,-0.131,0.610,-1.251,0.458,73.333,726264.000,1.000
-2.692,-1.293,2.163,-1.618,3.195,2.975,2.359,-0.199,-0.047,0.985,-0.131,0.366,-1.221,0.519,73.333,726265.000,1.000
-1.977,-0.740,3.095,-0.772,3.881,7.332,5.133,-0.359,-0.045,0.983,-0.136,0.305,-1.160,0.610,73.333,726266.000,1.000
0.200,0.738,5.257,1.267,5.609,12.801,9.785,1.281,-0.046,0.983,-0.137,0.275,-1.221,0.549,73.333,726267.000,1.000
3.107,2.740,7.552,3.427,7.563,18.073,14.668,3.467,-0.046,0.983,-0.136,0.244,-1.129,0.519,73.333,726268.000,1.000
5.464,4.332,8.502,4.296,8.312,21.065,16.941,4.115,-0.047,0.983,-0.136,0.214,-1.099,0.488,73.333,726269.000,1.000
6.238,4.593,7.215,3.017,6.702,19.838,14.445,1.942,-0.047,0.983,-0.135,0.153,-1.190,0.458,73.333,726270.000,1.000
5.320,3.388,4.093,0.007,3.046,14.525,7.866,-2.124,-0.048,0.983,-0.137,0.214,-1.190,0.488,73.333,726271.000,1.000
3.494,1.533,0.590,-3.239,-0.847,7.763,0.412,-5.339,-0.049,0.984,-0.136,0.092,-1.190,0.427,73.333,726272.000,1.000
1.684,0.044,-1.909,-5.280,-3.183,2.635,-4.770,-5.592,-0.049,0.984,-0.136,0.061,-1.221,0.519,73.333,726273.000,1.000
0.349,-0.549,-2.870,-5.580,-3.417,0.811,-6.183,-3.164,-0.048,0.983,-0.138,-0.122,-1.282,0.580,73.333,726274.000,1.000
-0.454,-0.166,-2.442,-4.385,-2.003,2.527,-3.597,0.088,-0.047,0.981,-0.136,0.000,-1.343,0.458,73.333,726275.000,1.000
-0.754,0.999,-1.089,-2.337,0.171,6.816,1.907,2.278,-0.047,0.978,-0.134,0.000,-1.373,0.366,73.333,726276.000,1.000
-0.547,2.426,0.571,-0.321,1.902,11.426,7.377,2.034,-0.049,0.980,-0.136,-0.092,-1.434,0.427,73.333,726277.000,1.000
0.183,3.447,2.027,0.873,2.162,13.774,9.434,-0.942,-0.049,0.978,-0.136,-0.031,-1.434,0.336,73.333,726278.000,1.000
1.390,3.717,3.156,1.077,0.972,12.705,7.083,-5.033,-0.049,0.978,-0.138,-0.092,-1.526,0.397,73.333,726279.000,1.000
2.833,3.335,4.116,0.729,-0.702,8.880,2.153,-7.544,-0.051,0.978,-0.140,-0.092,-1.526,0.305,73.333,726280.000,1.000
4.143,2.566,4.970,0.334,-1.973,3.571,-2.904,-7.005,-0.051,0.979,-0.137,-0.214,-1.434,0.366,73.333,726281.000,1.000
5.150,1.795,5.742,0.245,-2.395,-1.847,-6.309,-3.983,-0.049,0.979,-0.136,-0.153,-1.434,0.427,73.333,726282.000,1.000
6.066,1.580,6.659,0.718,-1.658,-5.473,-6.926,-0.077,-0.048,0.981,-0.140,-0.061,-1.526,0.275,73.333,726283.000,1.000
7.179,2.299,7.956,1.687,0.166,-5.502,-4.813,2.833,-0.047,0.979,-0.136,-0.122,-1.526,0.305,73.333,726284.000,1.000
8.490,3.693,9.532,2.678,2.305,-1.839,-1.458,3.277,-0.048,0.981,-0.139,-0.092,-1.495,0.244,73.333,726285.000,1.000
9.737,5.004,10.973,3.287,3.870,3.551,1.470,1.379,-0.048,0.982,-0.138,-0.183,-1.465,0.397,73.333,726286.000,1.000
10.672,5.579,11.904,3.599,4.599,8.172,3.366,-0.909,-0.049,0.983,-0.134,-0.122,-1.648,0.336,73.333,726287.000,1.000
11.232,5.299,12.207,3.952,4.852,10.714,4.663,-1.313,-0.049,0.984,-0.137,-0.214,-1.648,0.275,73.333,726288.000,1.000
11.528,4.584,12.012,4.447,5.088,11.542,6.086,0.885,-0.049,0.984,-0.137,-0.336,-1.740,0.244,73.333,726289.000,1.000
11.680,3.967,11.489,4.787,5.370,11.481,7.697,4.385,-0.050,0.985,-0.138,-0.366,-1.709,0.305,73.333,726290.000,1.000
11.662,3.528,10.560,4.465,5.165,10.278,8.285,6.921,-0.049,0.984,-0.137,-0.549,-1.709,0.366,73.333,726291.000,1.000
11.320,2.922,8.962,3.093,3.744,7.078,6.347,6.685,-0.049,0.981,-0.137,-0.488,-1.770,0.427,73.333,726292.000,1.000
10.545,1.972,6.670,0.766,1.046,2.319,2.138,3.425,-0.049,0.982,-0.135,-0.549,-1.831,0.427,73.333,726293.000,1.000
9.507,1.110,4.209,-1.689,-1.786,-1.741,-1.779,-1.001,-0.050,0.983,-0.134,-0.641,-1.740,0.397,73.333,726294.000,1.000
8.687,1.073,2.462,-3.027,-3.102,-2.931,-2.756,-3.663,-0.050,0.983,-0.136,-0.549,-1.709,0.275,73.333,726295.000,1.000
8.412,1.974,1.850,-2.620,-2.397,-1.643,-0.917,-3.136,-0.050,0.984,-0.139,-0.763,-1.740,0.244,73.333,726296.000,1.000
8.373,2.943,1.903,-1.095,-0.879,-0.554,1.102,-0.784,-0.047,0.984,-0.137,-0.702,-1.831,0.244,73.333,726297.000,1.000
7.916,2.971,1.858,0.370,-0.056,-1.619,1.287,1.043,-0.048,0.983,-0.137,-0.763,-1.862,0.305,73.333,726298.000,1.000
6.721,1.837,1.441,1.191,-0.267,-4.367,-0.056,1.397,-0.050,0.983,-0.136,-0.885,-1.831,0.336,73.333,726299.000,1.000
4.981,0.084,0.914,1.570,-0.850,-6.986,-1.583,0.824,-0.049,0.983,-0.136,-0.854,-1.801,0.397,73.333,726300.000,1.000
3.075,-1.526,0.629,1.906,-1.087,-7.790,-2.404,0.100,-0.049,0.982,-0.137,-0.793,-1.831,0.458,73.333,726301.000,1.000
1.320,-2.377,0.813,2.448,-0.594,-5.794,-1.869,-0.225,-0.049,0.983,-0.136,-0.854,-1.801,0.427,73.333,726302.000,1.000
-0.070,-2.258,1.489,3.293,0.615,-1.338,0.497,0.335,-0.049,0.982,-0.134,-0.793,-1.831,0.458,73.333,726303.000,1.000
-0.985,-1.522,2.369,4.297,2.000,3.545,3.906,1.920,-0.049,0.983,-0.136,-0.854,-1.862,0.519,73.333,726304.000,1.000
-1.366,-0.706,3.023,5.077,2.819,6.729,6.732,4.046,-0.049,0.982,-0.137,-0.824,-1.770,0.427,73.333,726305.000,1.000
-1.148,0.016,3.167,5.262,2.787,8.021,8.377,5.806,-0.051,0.983,-0.138,-0.916,-1.801,0.488,73.333,726306.000,1.000
-0.445,0.579,2.584,4.555,1.883,8.150,8.692,5.986,-0.049,0.981,-0.136,-0.977,-1.801,0.427,73.333,726307.000,1.000
0.282,0.434,0.921,2.664,-0.312,6.398,5.954,3.291,-0.049,0.981,-0.135,-1.068,-1.801,0.397,73.333,726308.000,1.000
0.567,-1.083,-1.971,-0.396,-4.206,1.352,-1.783,-2.586,-0.050,0.981,-0.137,-1.007,-1.923,0.427,73.333,726309.000,1.000
0.473,-3.816,-5.474,-3.936,-9.129,-6.311,-13.122,-10.015,-0.049,0.980,-0.138,-0.916,-1.862,0.488,73.333,726310.000,1.000
0.593,-6.640,-8.399,-6.847,-13.339,-13.339,-23.140,-16.118,-0.050,0.981,-0.137,-0.885,-1.862,0.427,73.333,726311.000,1.000
1.553,-8.182,-9.743,-8.226,-15.101,-16.125,-26.807,-18.352,-0.050,0.982,-0.136,-0.946,-1.770,0.366,73.333,726312.000,1.000
3.547,-7.657,-9.197,-7.768,-13.699,-13.244,-22.089,-15.595,-0.049,0.983,-0.135,-0.916,-1.831,0.397,73.333,726313.000,1.000
6.121,-5.425,-7.364,-5.950,-9.959,-6.657,-11.148,-8.702,-0.050,0.983,-0.133,-0.732,-1.831,0.397,73.333,726314.000,1.000
8.294,-2.894,-5.630,-4.052,-6.106,-0.606,0.549,-0.734,-0.050,0.985,-0.137,-0.763,-1.801,0.519,73.333,726315.000,1.000
9.048,-1.669,-5.508,-3.685,-4.690,1.189,7.035,3.954,-0.049,0.983,-0.133,-0.946,-1.770,0.427,73.333,726316.000,1.000
7.943,-2.556,-7.664,-5.741,-6.994,-2.387,5.101,2.372,-0.049,0.984,-0.135,-1.007,-1.678,0.458,73.333,726317.000,1.000
5.425,-5.001,-11.345,-9.556,-11.917,-9.329,-3.446,-4.529,-0.050,0.985,-0.137,-0.977,-1.678,0.458,73.333,726318.000,1.000
2.617,-7.321,-14.754,-13.217,-16.393,-15.292,-12.403,-12.308,-0.049,0.984,-0.133,-0.916,-1.648,0.519,73.333,726319.000,1.000
0.644,-7.868,-16.216,-14.878,-17.519,-16.326,-15.823,-16.402,-0.049,0.985,-0.134,-0.854,-1.648,0.519,73.333,726320.000,1.000
-0.131,-6.324,-15.327,-13.942,-14.729,-12.120,-12.783,-15.153,-0.047,0.984,-0.134,-0.916,-1.495,0.549,73.333,726321.000,1.000
-0.261,-3.800,-13.013,-11.098,-9.872,-6.103,-6.995,-10.005,-0.047,0.983,-0.134,-0.977,-1.465,0.641,73.333,726322.000,1.000
-0.643,-1.806,-10.660,-7.578,-5.521,-2.339,-2.801,-3.868,-0.048,0.985,-0.135,-0.946,-1.465,0.641,73.333,726323.000,1.000
-1.843,-1.318,-9.314,-4.517,-3.508,-2.800,-2.721,0.211,-0.049,0.984,-0.134,-1.038,-1.373,0.641,73.333,726324.000,1.000
-3.755,-2.353,-9.144,-2.418,-4.156,-6.654,-6.731,0.495,-0.050,0.982,-0.137,-1.068,-1.434,0.671,73.333,726325.000,1.000
-5.596,-3.866,-9.242,-0.771,-5.934,-10.841,-11.836,-1.839,-0.051,0.983,-0.134,-1.099,-1.404,0.702,73.333,726326.000,1.000
-6.388,-4.322,-8.267,1.410,-6.392,-11.800,-13.492,-3.311,-0.050,0.984,-0.134,-1.007,-1.282,0.610,73.333,726327.000,1.000
-5.695,-2.849,-5.645,4.378,-4.084,-7.702,-8.902,-1.203,-0.051,0.983,-0.135,-1.007,-1.373,0.702,73.333,726328.000,1.000
-3.950,0.066,-2.152,7.178,0.289,0.389,0.757,4.018,-0.050,0.985,-0.135,-1.068,-1.404,0.671,73.333,726329.000,1.000
-2.148,2.924,0.638,8.352,4.482,9.151,11.244,9.159,-0.049,0.984,-0.134,-1.038,-1.312,0.671,73.333,726330.000,1.000
-1.228,4.175,1.368,7.063,6.366,14.943,18.160,11.027,-0.050,0.981,-0.138,-0.916,-1.251,0.702,73.333,726331.000,1.000
-1.601,3.062,-0.356,3.630,5.179,15.693,19.124,8.680,-0.051,0.981,-0.139,-0.946,-1.251,0.702,73.333,726332.000,1.000
-3.057,-0.069,-3.835,-0.745,1.662,11.718,14.374,3.525,-0.052,0.982,-0.139,-0.946,-1.343,0.732,73.333,726333.000,1.000
-5.054,-4.064,-7.756,-4.680,-2.550,5.265,6.628,-1.818,-0.054,0.979,-0.136,-0.854,-1.343,0.763,73.333,726334.000,1.000
-7.024,-7.608,-10.841,-7.195,-5.747,-0.823,0.103,-4.791,-0.053,0.977,-0.138,-0.916,-1.434,0.763,73.333,726335.000,1.000
-8.475,-9.729,-12.284,-8.001,-6.930,-4.488,-1.946,-4.305,-0.052,0.977,-0.136,-0.854,-1.495,0.763,73.333,726336.000,1.000
-9.046,-10.173,-12.088,-7.640,-6.488,-5.669,-0.100,-1.865,-0.051,0.977,-0.136,-0.763,-1.526,0.732,73.333,726337.000,1.000
-8.611,-9.518,-11.120,-7.230,-6.065,-6.515,1.327,-0.728,-0.051,0.976,-0.136,-0.732,-1.556,0.763,73.333,726338.000,1.000
-7.228,-8.597,-10.395,-7.582,-7.026,-9.308,-1.423,-2.988,-0.051,0.977,-0.134,-0.610,-1.495,0.824,73.333,726339.000,1.000
-5.046,-7.672,-10.141,-8.471,-9.011,-13.846,-7.707,-7.517,-0.054,0.978,-0.136,-0.610,-1.587,0.854,73.333,726340.000,1.000
-2.306,-6.311,-9.706,-8.898,-10.205,-17.263,-13.218,-10.969,-0.055,0.979,-0.136,-0.427,-1.587,0.824,73.333,726341.000,1.000
0.653,-3.984,-8.226,-7.991,-9.012,-16.468,-13.857,-10.756,-0.053,0.980,-0.136,-0.305,-1.617,0.854,73.333,726342.000,1.000
3.410,-0.824,-5.432,-5.739,-5.564,-11.141,-9.084,-7.182,-0.053,0.982,-0.135,-0.397,-1.709,0.824,73.333,726343.000,1.000
5.440,2.163,-2.020,-3.005,-1.705,-4.436,-2.230,-2.865,-0.053,0.983,-0.137,-0.519,-1.801,0.793,73.333,726344.000,1.000
6.192,3.687,0.769,-0.943,0.413,-0.552,1.912,-0.581,-0.052,0.984,-0.135,-0.488,-1.678,0.793,73.333,726345.000,1.000
5.334,3.040,2.006,-0.288,-0.158,-1.563,0.321,-1.567,-0.051,0.982,-0.135,-0.641,-1.617,0.732,73.333,726346.000,1.000
3.043,0.686,1.768,-0.811,-2.435,-5.843,-5.590,-4.827,-0.051,0.983,-0.134,-0.610,-1.617,0.702,73.333,726347.000,1.000
0.062,-1.840,1.142,-1.372,-4.062,-9.104,-10.508,-7.759,-0.051,0.981,-0.137,-0.702,-1.617,0.671,73.333,726348.000,1.000
-2.619,-2.948,1.412,-0.740,-3.112,-7.963,-9.916,-8.048,-0.049,0.980,-0.137,-0.671,-1.587,0.580,73.333,726349.000,1.000
-4.217,-2.092,3.108,1.507,0.411,-2.865,-4.010,-5.221,-0.043,0.979,-0.138,-0.732,-1.465,0.610,73.333,726350.000,1.000
-4.405,0.066,5.649,4.763,4.745,2.623,3.201,-0.571,-0.040,0.976,-0.140,-0.854,-1.404,0.671,73.333,726351.000,1.000
-3.259,2.371,7.879,7.878,7.732,4.884,7.522,3.912,-0.041,0.974,-0.136,-0.885,-1.404,0.885,73.333,726352.000,1.000
-1.139,4.049,8.955,9.844,8.184,2.921,7.427,6.553,-0.041,0.974,-0.138,-0.824,-1.190,0.916,73.333,726353.000,1.000
1.358,5.057,8.771,10.215,6.405,-1.136,4.445,6.597,-0.045,0.975,-0.137,-0.610,-1.038,0.824,73.333,726354.000,1.000
3.524,5.723,7.766,9.175,3.649,-4.182,1.253,4.467,-0.049,0.977,-0.136,-0.580,-0.916,0.824,73.333,726355.000,1.000
4.922,6.346,6.628,7.472,1.326,-4.605,-0.073,1.786,-0.052,0.981,-0.136,-0.763,-0.916,0.854,73.333,726356.000,1.000
5.715,7.235,6.130,6.238,0.627,-2.587,1.546,0.938,-0.052,0.985,-0.136,-0.854,-0.885,0.793,73.333,726357.000,1.000
6.310,8.487,6.573,6.213,1.831,0.510,5.326,3.167,-0.052,0.984,-0.136,-0.977,-0.977,0.824,73.333,726358.000,1.000
6.596,9.403,7.048,6.829,3.582,2.520,8.238,6.624,-0.048,0.981,-0.136,-0.977,-1.038,0.916,73.333,726359.000,1.000
5.950,8.886,6.012,6.630,3.910,1.921,7.779,7.794,-0.049,0.982,-0.139,-1.007,-0.977,0.946,73.333,726360.000,1.000
4.057,6.667,2.863,4.779,2.207,-0.603,4.691,5.079,-0.048,0.982,-0.138,-1.038,-0.885,0.977,73.333,726361.000,1.000
1.366,3.606,-1.483,1.750,-0.432,-2.903,1.565,-0.047,-0.050,0.981,-0.137,-0.977,-0.946,1.038,73.333,726362.000,1.000
-1.217,0.848,-5.401,-1.271,-2.543,-3.660,-0.333,-4.888,-0.052,0.983,-0.141,-1.007,-0.977,1.129,73.333,726363.000,1.000
-2.835,-0.911,-7.607,-3.273,-3.416,-3.618,-2.015,-7.431,-0.052,0.987,-0.142,-1.099,-0.946,1.068,73.333,726364.000,1.000
-3.025,-1.443,-7.590,-3.825,-3.081,-4.374,-4.772,-6.942,-0.057,0.988,-0.136,-1.129,-1.099,0.946,73.333,726365.000,1.000
-1.831,-0.762,-5.610,-3.066,-1.749,-6.196,-7.954,-3.972,-0.058,0.991,-0.134,-1.099,-1.190,0.793,73.333,726366.000,1.000
0.142,0.752,-2.555,-1.596,0.247,-7.918,-9.592,-0.153,-0.058,0.994,-0.132,-1.343,-1.282,0.702,73.333,726367.000,1.000
1.917,2.289,0.444,-0.197,2.307,-8.506,-8.657,2.713,-0.058,0.993,-0.135,-1.526,-1.373,0.610,73.333,726368.000,1.000
2.716,3.177,2.650,0.697,3.901,-7.637,-5.774,3.803,-0.056,0.992,-0.132,-1.678,-1.587,0.641,73.333,726369.000,1.000
2.352,3.290,4.039,1.181,4.838,-5.586,-2.372,3.456,-0.053,0.990,-0.133,-1.801,-1.678,0.702,73.333,726370.000,1.000
1.044,2.744,4.868,1.455,5.037,-3.340,0.045,2.401,-0.050,0.989,-0.134,-1.831,-1.617,0.519,73.333,726371.000,1.000
-0.851,1.697,5.292,1.579,4.548,-1.814,0.714,1.290,-0.049,0.990,-0.135,-1.892,-1.678,0.488,73.333,726372.000,1.000
-2.832,0.578,5.516,1.739,3.964,-0.730,0.508,0.937,-0.047,0.988,-0.140,-1.953,-1.648,0.458,73.333,726373.000,1.000
-4.391,0.015,5.798,2.279,4.172,0.842,1.241,2.102,-0.050,0.986,-0.135,-1.984,-1.678,0.488,73.333,726374.000,1.000
-5.340,0.295,6.129,3.263,5.408,3.046,3.563,4.485,-0.048,0.987,-0.137,-1.892,-1.587,0.458,73.333,726375.000,1.000
-5.817,1.139,6.236,4.325,6.948,4.991,6.193,6.593,-0.048,0.985,-0.137,-2.014,-1.587,0.488,73.333,726376.000,1.000
-5.943,2.019,6.010,5.130,7.958,5.702,7.716,7.310,-0.044,0.985,-0.134,-2.045,-1.556,0.519,73.333,726377.000,1.000
-5.638,2.521,5.719,5.714,8.326,5.018,8.402,7.062,-0.044,0.984,-0.132,-2.014,-1.404,0.671,73.333,726378.000,1.000
-4.833,2.395,5.631,6.225,8.405,3.552,9.298,6.994,-0.042,0.982,-0.133,-1.923,-1.434,0.732,73.333,726379.000,1.000
-3.718,1.544,5.672,6.524,8.257,1.971,10.194,7.517,-0.042,0.979,-0.133,-2.045,-1.282,0.763,73.333,726380.000,1.000
-2.725,0.041,5.414,6.108,7.368,0.503,9.449,7.692,-0.047,0.979,-0.132,-2.045,-1.160,0.763,73.333,726381.000,1.000
-2.345,-1.939,4.248,4.353,5.002,-0.999,5.593,5.689,-0.052,0.978,-0.131,-1.923,-0.977,0.793,73.333,726382.000,1.000
-2.855,-4.121,1.820,1.070,1.054,-2.529,-0.820,0.531,-0.053,0.978,-0.133,-1.831,-1.038,0.732,73.333,726383.000,1.000
-4.057,-6.014,-1.475,-2.995,-3.335,-3.464,-6.708,-6.259,-0.055,0.976,-0.135,-1.648,-1.099,0.671,73.333,726384.000,1.000
-5.338,-7.034,-4.520,-6.411,-6.325,-2.966,-8.428,-11.400,-0.057,0.979,-0.130,-1.495,-1.160,0.549,73.333,726385.000,1.000
-6.047,-6.884,-6.224,-7.980,-6.721,-1.009,-4.983,-12.353,-0.054,0.977,-0.132,-1.434,-1.221,0.519,73.333,726386.000,1.000
-5.870,-5.719,-6.212,-7.431,-4.780,1.279,0.829,-8.898,-0.055,0.976,-0.132,-1.343,-1.343,0.458,73.333,726387.000,1.000
-4.946,-3.936,-4.827,-5.385,-1.786,2.536,4.843,-2.809,-0.055,0.976,-0.128,-1.251,-1.434,0.458,73.333,726388.000,1.000
-3.679,-1.924,-2.681,-2.786,1.026,2.394,4.952,3.454,-0.053,0.976,-0.130,-1.190,-1.343,0.427,73.333,726389.000,1.000
-2.526,0.015,-0.335,-0.389,3.141,1.833,2.328,8.028,-0.052,0.977,-0.133,-1.160,-1.373,0.397,73.333,726390.000,1.000
-1.925,1.612,1.708,1.389,4.689,2.426,0.060,10.292,-0.052,0.978,-0.133,-1.068,-1.404,0.275,73.333,726391.000,1.000
-2.226,2.608,3.013,2.423,5.979,5.023,0.712,10.705,-0.051,0.977,-0.134,-0.916,-1.526,0.336,73.333,726392.000,1.000
-3.510,2.785,3.353,2.833,7.051,8.711,4.266,10.203,-0.052,0.978,-0.133,-0.916,-1.556,0.397,73.333,726393.000,1.000
-5.438,2.097,2.818,2.910,7.550,11.216,8.001,9.660,-0.053,0.978,-0.132,-0.885,-1.465,0.397,73.333,726394.000,1.000
-7.331,0.811,1.821,2.960,7.027,10.714,8.709,9.445,-0.052,0.980,-0.130,-0.763,-1.526,0.366,73.333,726395.000,1.000
-8.537,-0.589,0.875,3.111,5.344,7.294,5.275,9.205,-0.049,0.979,-0.134,-0.793,-1.587,0.519,73.333,726396.000,1.000
-8.769,-1.523,0.357,3.361,3.062,3.169,-0.076,8.458,-0.047,0.980,-0.134,-0.854,-1.465,0.580,73.333,726397.000,1.000
-8.030,-1.198,0.669,3.935,1.716,2.119,-2.229,7.678,-0.049,0.982,-0.135,-0.854,-1.465,0.763,73.333,726398.000,1.000
-6.407,1.049,2.194,5.266,2.964,7.056,3.137,8.199,-0.047,0.984,-0.131,-0.824,-1.404,0.824,73.333,726399.000,1.000
-4.298,4.626,4.577,7.226,6.504,15.966,13.993,10.452,-0.050,0.985,-0.133,-0.854,-1.343,0.916,73.333,726400.000,1.000
-2.584,7.434,6.398,8.707,9.507,21.941,21.948,12.788,-0.049,0.985,-0.135,-1.007,-1.373,0.977,73.333,726401.000,1.000
-2.170,7.409,6.097,8.387,8.936,19.226,19.682,12.556,-0.049,0.985,-0.132,-1.007,-1.373,1.068,73.333,726402.000,1.000
-3.436,3.989,3.108,5.676,3.901,8.016,7.022,8.110,-0.049,0.985,-0.132,-1.129,-1.251,1.129,73.333,726403.000,1.000
-6.160,-1.819,-1.891,1.000,-4.054,-6.527,-10.052,-0.055,-0.047,0.984,-0.133,-1.282,-1.221,1.221,73.333,726404.000,1.000
-9.579,-7.977,-7.222,-4.282,-11.880,-17.793,-23.874,-9.362,-0.048,0.985,-0.133,-1.343,-1.129,1.282,73.333,726405.000,1.000
-12.539,-12.143,-10.835,-8.333,-16.362,-20.923,-28.867,-16.255,-0.047,0.985,-0.130,-1.404,-1.221,1.434,73.333,726406.000,1.000
-14.081,-12.900,-11.483,-9.849,-15.908,-15.562,-24.203,-18.099,-0.043,0.989,-0.133,-1.465,-1.099,1.556,73.333,726407.000,1.000
-14.122,-10.769,-9.641,-8.934,-11.696,-6.495,-14.502,-14.742,-0.041,0.990,-0.136,-1.404,-1.099,1.556,73.333,726408.000,1.000
-13.328,-7.563,-7.002,-6.761,-6.533,0.213,-6.311,-8.324,-0.040,0.990,-0.132,-1.617,-0.916,1.709,73.333,726409.000,1.000
-12.314,-4.703,-4.952,-4.482,-2.515,2.233,-2.897,-1.723,-0.038,0.989,-0.133,-1.678,-0.824,1.678,73.333,726410.000,1.000
-11.263,-2.538,-3.823,-2.726,-0.128,1.405,-3.099,2.807,-0.039,0.989,-0.134,-1.801,-0.641,1.709,73.333,726411.000,1.000
-10.164,-0.806,-3.249,-1.726,1.110,0.719,-3.869,4.335,-0.039,0.988,-0.133,-1.862,-0.610,1.831,73.333,726412.000,1.000
-9.035,0.826,-2.707,-1.437,1.829,1.930,-2.837,3.259,-0.038,0.989,-0.133,-1.923,-0.519,1.923,73.333,726413.000,1.000
-7.986,2.373,-1.981,-1.685,2.112,4.365,-0.389,0.468,-0.037,0.987,-0.129,-2.045,-0.305,1.923,73.333,726414.000,1.000
-7.244,3.405,-1.359,-2.355,1.366,5.293,0.203,-3.364,-0.036,0.990,-0.127,-2.045,-0.153,1.892,73.333,726415.000,1.000
-7.047,3.450,-1.325,-3.274,-0.795,2.417,-4.046,-7.579,-0.038,0.991,-0.131,-2.106,0.000,1.923,73.333,726416.000,1.000
-7.430,2.474,-2.041,-4.043,-3.763,-3.992,-12.847,-11.203,-0.038,0.991,-0.130,-2.167,0.000,1.862,73.333,726417.000,1.000
-8.049,1.054,-2.978,-4.057,-6.106,-11.169,-22.553,-13.087,-0.043,0.991,-0.130,-2.258,0.061,1.801,73.333,726418.000,1.000
-8.178,0.282,-2.995,-2.668,-6.134,-14.992,-27.629,-12.146,-0.045,0.989,-0.129,-2.136,0.092,1.648,73.333,726419.000,1.000
-7.077,1.192,-1.074,0.459,-2.757,-11.997,-23.362,-7.805,-0.047,0.987,-0.128,-2.167,0.214,1.587,73.333,726420.000,1.000
-4.569,3.893,2.667,4.885,3.491,-2.111,-9.633,-0.766,-0.046,0.985,-0.125,-2.167,0.061,1.465,73.333,726421.000,1.000
-1.215,7.395,6.843,9.382,10.379,10.671,7.920,6.801,-0.046,0.982,-0.127,-2.228,-0.061,1.221,73.333,726422.000,1.000
2.066,10.282,9.790,12.446,15.078,20.621,21.180,12.031,-0.046,0.978,-0.125,-2.258,-0.031,1.129,73.333,726423.000,1.000
4.513,11.450,10.574,12.957,15.547,23.277,24.332,12.654,-0.046,0.975,-0.124,-1.984,-0.153,1.007,73.333,726424.000,1.000
5.868,10.681,9.412,10.840,11.719,17.731,17.199,8.569,-0.047,0.974,-0.126,-1.892,-0.275,0.793,73.333,726425.000,1.000
6.411,8.812,7.381,7.312,5.815,7.277,5.119,2.458,-0.047,0.972,-0.128,-1.648,-0.305,0.793,73.333,726426.000,1.000
6.654,7.221,5.698,4.236,1.072,-2.548,-4.808,-1.803,-0.048,0.972,-0.129,-1.526,-0.336,0.732,73.333,726427.000,1.000
6.996,7.020,5.186,3.065,-0.102,-7.038,-7.613,-1.609,-0.049,0.974,-0.130,-1.251,-0.366,0.702,73.333,726428.000,1.000
7.631,8.618,6.127,4.209,2.918,-4.029,-1.906,3.226,-0.050,0.972,-0.128,-1.129,-0.488,0.702,73.333,726429.000,1.000
8.537,11.592,8.186,6.922,8.867,5.605,9.947,10.578,-0.049,0.974,-0.124,-0.824,-0.580,0.671,73.333,726430.000,1.000
9.352,14.593,10.249,9.572,14.889,17.537,22.016,16.776,-0.050,0.974,-0.123,-0.641,-0.732,0.732,73.333,726431.000,1.000
9.471,15.774,10.822,10.474,17.756,25.129,27.221,18.587,-0.053,0.972,-0.126,-0.519,-0.793,0.763,73.333,726432.000,1.000
8.588,14.040,9.210,8.958,15.900,23.577,21.948,15.438,-0.055,0.970,-0.127,-0.336,-0.824,0.671,73.333,726433.000,1.000
7.034,10.016,6.203,5.696,10.483,13.917,8.964,9.415,-0.057,0.973,-0.128,-0.122,-1.068,0.580,73.333,726434.000,1.000
5.510,5.697,3.542,2.149,4.596,2.663,-4.022,3.482,-0.058,0.973,-0.135,0.031,-1.160,0.488,73.333,726435.000,1.000
4.585,3.121,2.684,-0.194,1.337,-2.971,-9.419,0.030,-0.059,0.974,-0.130,0.214,-1.343,0.336,73.333,726436.000,1.000
4.302,2.902,3.750,-0.612,1.682,-0.756,-5.780,-0.145,-0.055,0.976,-0.130,0.244,-1.587,0.061,73.333,726437.000,1.000
4.123,3.799,5.411,0.329,3.676,4.881,0.683,1.472,-0.054,0.977,-0.128,0.427,-1.709,0.000,73.333,726438.000,1.000
3.358,3.939,5.925,1.293,4.306,7.274,2.083,2.172,-0.052,0.978,-0.128,0.336,-1.831,-0.031,73.333,726439.000,1.000
1.740,2.442,4.476,1.350,2.236,3.316,-3.938,0.508,-0.053,0.978,-0.129,0.427,-1.984,-0.092,73.333,726440.000,1.000
-0.362,-0.240,1.569,0.511,-1.578,-5.103,-13.641,-2.721,-0.052,0.976,-0.134,0.549,-2.045,-0.275,73.333,726441.000,1.000
-2.124,-3.007,-1.569,-0.665,-5.299,-13.545,-21.617,-5.874,-0.053,0.976,-0.138,0.580,-2.258,-0.275,73.333,726442.000,1.000
-2.710,-4.809,-3.728,-1.603,-7.506,-17.973,-24.392,-7.923,-0.050,0.976,-0.137,0.641,-2.350,-0.366,73.333,726443.000,1.000
-1.818,-5.098,-4.301,-1.961,-7.662,-16.748,-21.569,-8.525,-0.047,0.978,-0.136,0.702,-2.380,-0.427,73.333,726444.000,1.000
0.048,-4.088,-3.517,-1.694,-6.162,-11.274,-15.230,-7.657,-0.046,0.980,-0.135,0.732,-2.411,-0.488,73.333,726445.000,1.000
1.916,-2.517,-2.119,-0.979,-3.968,-4.738,-8.064,-5.575,-0.046,0.980,-0.136,0.671,-2.350,-0.458,73.333,726446.000,1.000
3.091,-0.997,-0.740,-0.039,-1.871,0.242,-1.579,-2.843,-0.045,0.981,-0.136,0.732,-2.380,-0.488,73.333,726447.000,1.000
3.559,0.296,0.449,0.947,-0.119,2.897,4.013,-0.225,-0.047,0.982,-0.138,0.763,-2.289,-0.336,73.333,726448.000,1.000
3.787,1.472,1.580,1.844,1.474,4.012,9.020,1.664,-0.048,0.984,-0.138,0.702,-2.258,-0.336,73.333,726449.000,1.000
4.222,2.619,2.790,2.555,3.163,4.900,13.488,2.649,-0.048,0.984,-0.137,0.549,-2.197,-0.244,73.333,726450.000,1.000
4.900,3.439,3.903,2.888,4.651,5.774,16.045,2.662,-0.049,0.985,-0.138,0.549,-2.228,-0.153,73.333,726451.000,1.000
5.477,3.286,4.441,2.562,5.049,5.201,14.340,1.619,-0.051,0.989,-0.140,0.366,-2.136,-0.092,73.333,726452.000,1.000
5.673,1.908,4.190,1.647,4.011,2.272,8.154,0.012,-0.050,0.988,-0.140,0.244,-2.075,-0.122,73.333,726453.000,1.000
5.552,-0.074,3.492,0.758,2.401,-1.594,0.712,-1.128,-0.052,0.989,-0.138,0.183,-2.106,-0.092,73.333,726454.000,1.000
5.357,-1.648,2.935,0.572,1.482,-4.017,-3.915,-1.146,-0.054,0.987,-0.137,-0.031,-2.197,-0.122,73.333,726455.000,1.000
5.324,-1.993,3.074,1.399,2.115,-3.342,-3.116,0.044,-0.057,0.985,-0.135,-0.122,-2.289,-0.092,73.333,726456.000,1.000
5.648,-0.700,4.307,3.189,4.645,1.092,3.806,2.589,-0.056,0.986,-0.136,-0.275,-2.228,-0.183,73.333,726457.000,1.000
6.272,1.816,6.415,5.473,8.364,7.928,14.379,6.327,-0.058,0.987,-0.137,-0.366,-2.350,-0.153,73.333,726458.000,1.000
6.701,4.171,8.161,7.211,11.121,13.017,22.486,9.660,-0.057,0.985,-0.139,-0.397,-2.441,-0.153,73.333,726459.000,1.000
6.336,4.933,8.080,7.331,10.653,12.071,22.204,10.159,-0.057,0.987,-0.137,-0.519,-2.380,-0.183,73.333,726460.000,1.000
5.053,3.815,5.896,5.697,6.608,4.597,12.828,6.848,-0.057,0.983,-0.137,-0.671,-2.441,-0.122,73.333,726461.000,1.000
3.319,1.796,2.821,3.288,0.855,-5.448,-0.502,1.115,-0.056,0.982,-0.138,-0.702,-2.502,-0.214,73.333,726462.000,1.000
1.824,0.240,0.542,1.408,-4.006,-12.650,-10.784,-4.587,-0.056,0.982,-0.138,-0.885,-2.472,-0.214,73.333,726463.000,1.000
1.092,-0.038,0.009,0.809,-6.266,-13.780,-13.813,-8.283,-0.056,0.983,-0.141,-0.885,-2.533,-0.244,73.333,726464.000,1.000
1.301,0.936,1.155,1.465,-5.621,-9.232,-9.713,-8.891,-0.057,0.982,-0.139,-0.916,-2.533,-0.153,73.333,726465.000,1.000
2.340,2.763,3.429,2.942,-2.647,-1.478,-1.093,-6.079,-0.056,0.982,-0.139,-1.038,-2.533,-0.244,73.333,726466.000,1.000
3.921,5.161,6.256,4.750,1.747,7.039,9.027,-0.579,-0.054,0.981,-0.139,-1.221,-2.533,-0.214,73.333,726467.000,1.000
5.520,7.653,8.899,6.260,6.140,13.933,17.293,5.325,-0.054,0.982,-0.139,-1.190,-2.502,-0.153,73.333,726468.000,1.000
6.315,9.074,10.158,6.665,8.568,16.151,19.914,8.725,-0.052,0.981,-0.139,-1.282,-2.533,-0.092,73.333,726469.000,1.000
5.634,8.198,8.980,5.497,7.692,11.674,15.149,8.255,-0.053,0.979,-0.139,-1.251,-2.441,-0.031,73.333,726470.000,1.000
3.588,4.960,5.504,3.089,3.978,2.117,5.631,4.796,-0.053,0.978,-0.142,-1.343,-2.411,0.092,73.333,726471.000,1.000
1.007,0.592,1.081,0.324,-0.759,-7.955,-3.554,0.211,-0.054,0.979,-0.141,-1.282,-2.319,0.153,73.333,726472.000,1.000
-1.102,-3.173,-2.491,-1.745,-4.472,-14.079,-8.413,-3.526,-0.054,0.980,-0.140,-1.312,-2.258,0.183,73.333,726473.000,1.000
-1.978,-4.958,-3.828,-2.200,-5.710,-14.236,-7.755,-4.775,-0.054,0.980,-0.140,-1.434,-2.167,0.275,73.333,726474.000,1.000
-1.476,-4.582,-2.752,-0.905,-4.535,-9.954,-3.643,-3.516,-0.055,0.982,-0.137,-1.373,-2.106,0.397,73.333,726475.000,1.000
-0.130,-3.134,-0.353,1.220,-2.535,-5.130,0.103,-1.671,-0.054,0.982,-0.138,-1.465,-2.014,0.488,73.333,726476.000,1.000
1.321,-1.866,1.955,2.954,-1.264,-2.600,1.348,-1.191,-0.055,0.982,-0.136,-1.526,-1.953,0.458,73.333,726477.000,1.000
2.414,-1.194,3.403,3.677,-0.953,-1.998,1.311,-2.316,-0.055,0.983,-0.135,-1.556,-1.923,0.519,73.333,726478.000,1.000
3.092,-0.693,4.024,3.602,-0.666,-0.763,2.957,-3.684,-0.056,0.983,-0.137,-1.617,-1.831,0.641,73.333,726479.000,1.000
3.554,0.232,4.300,3.382,0.620,3.028,8.087,-3.579,-0.057,0.985,-0.134,-1.770,-1.709,0.610,73.333,726480.000,1.000
3.884,1.539,4.549,3.345,2.779,8.289,15.161,-1.522,-0.055,0.986,-0.133,-1.770,-1.801,0.610,73.333,726481.000,1.000
3.793,2.363,4.493,3.093,4.314,11.371,19.823,1.047,-0.056,0.985,-0.135,-2.014,-1.709,0.793,73.333,726482.000,1.000
2.809,1.688,3.520,1.969,3.570,9.148,18.212,1.914,-0.055,0.985,-0.132,-1.953,-1.770,0.763,73.333,726483.000,1.000
0.764,-0.816,1.299,-0.203,0.087,1.500,9.990,-0.089,-0.057,0.985,-0.134,-2.136,-1.740,0.763,73.333,726484.000,1.000
-1.851,-4.503,-1.722,-2.809,-4.993,-8.745,-1.367,-4.072,-0.058,0.985,-0.139,-2.136,-1.678,0.763,73.333,726485.000,1.000
-4.000,-8.047,-4.420,-4.688,-9.453,-17.451,-10.607,-7.435,-0.057,0.984,-0.135,-2.197,-1.648,0.854,73.333,726486.000,1.000
-4.707,-10.054,-5.696,-4.829,-11.091,-20.960,-13.412,-7.555,-0.058,0.984,-0.137,-2.167,-1.678,0.793,73.333,726487.000,1.000
-3.653,-9.663,-5.071,-3.054,-8.894,-17.352,-8.280,-3.754,-0.057,0.985,-0.132,-2.289,-1.617,0.793,73.333,726488.000,1.000
-1.260,-6.914,-2.808,-0.102,-3.589,-7.384,2.802,2.329,-0.055,0.983,-0.134,-2.319,-1.587,0.885,73.333,726489.000,1.000
1.651,-2.878,0.169,2.838,2.554,4.744,14.537,8.043,-0.054,0.985,-0.130,-2.411,-1.556,0.885,73.333,726490.000,1.000
4.313,0.774,2.554,4.701,6.771,12.972,20.521,11.151,-0.051,0.984,-0.129,-2.502,-1.526,0.854,73.333,726491.000,1.000
6.330,2.830,3.362,5.036,7.491,13.833,17.792,10.827,-0.050,0.982,-0.130,-2.563,-1.373,1.068,73.333,726492.000,1.000
7.693,3.109,2.547,4.085,5.141,8.775,9.114,7.896,-0.050,0.983,-0.132,-2.533,-1.282,1.068,73.333,726493.000,1.000
8.549,2.108,0.773,2.394,1.271,1.786,-0.088,3.965,-0.050,0.983,-0.134,-2.502,-1.129,1.129,73.333,726494.000,1.000
9.021,0.571,-1.132,0.488,-2.561,-3.723,-5.875,0.490,-0.048,0.982,-0.136,-2.533,-1.038,1.190,73.333,726495.000,1.000
9.218,-0.654,-2.473,-1.164,-5.156,-5.908,-6.935,-1.532,-0.048,0.982,-0.135,-2.502,-1.038,1.251,73.333,726496.000,1.000
9.325,-0.844,-2.820,-2.131,-5.722,-4.384,-3.834,-1.608,-0.048,0.984,-0.132,-2.563,-0.885,1.343,73.333,726497.000,1.000
9.659,0.282,-1.967,-2.040,-3.991,-0.041,1.820,0.471,-0.048,0.984,-0.129,-2.502,-0.732,1.434,73.333,726498.000,1.000
10.446,2.398,-0.015,-0.752,-0.372,5.310,8.041,4.666,-0.046,0.984,-0.130,-2.502,-0.702,1.495,73.333,726499.000,1.000
11.523,4.704,2.497,1.324,3.958,9.649,13.021,10.014,-0.046,0.984,-0.129,-2.472,-0.641,1.495,73.333,726500.000,1.000
12.347,6.279,4.653,3.181,7.290,11.672,15.431,14.100,-0.046,0.986,-0.129,-2.563,-0.519,1.740,73.333,726501.000,1.000
12.291,6.423,5.483,3.716,8.100,11.194,14.514,14.248,-0.047,0.985,-0.129,-2.533,-0.366,1.678,73.333,726502.000,1.000
10.927,4.841,4.424,2.392,5.847,8.650,10.178,9.761,-0.047,0.986,-0.130,-2.533,-0.305,1.740,73.333,726503.000,1.000
8.265,1.857,1.657,-0.438,1.415,4.918,3.588,2.739,-0.047,0.986,-0.128,-2.533,-0.153,1.770,73.333,726504.000,1.000
4.912,-1.408,-1.748,-3.603,-3.030,1.848,-2.183,-3.111,-0.047,0.986,-0.124,-2.380,-0.061,1.709,73.333,726505.000,1.000
1.828,-3.537,-4.283,-5.713,-5.180,1.444,-3.733,-4.673,-0.048,0.984,-0.123,-2.350,0.000,1.648,73.333,726506.000,1.000
-0.291,-3.939,-5.057,-6.103,-4.328,3.548,-0.528,-1.624,-0.047,0.981,-0.125,-2.289,0.183,1.648,73.333,726507.000,1.000
-1.343,-3.225,-4.354,-5.191,-1.787,5.643,4.677,3.314,-0.049,0.981,-0.126,-2.319,0.214,1.617,73.333,726508.000,1.000
-1.544,-2.293,-3.170,-3.807,0.713,5.904,9.081,6.833,-0.051,0.983,-0.124,-2.502,0.305,1.556,73.333,726509.000,1.000
-1.103,-1.424,-2.286,-2.459,2.549,5.306,12.246,7.564,-0.052,0.983,-0.121,-2.289,0.275,1.434,73.333,726510.000,1.000
-0.263,-0.487,-1.887,-1.258,3.993,5.879,14.834,6.355,-0.052,0.983,-0.121,-2.289,0.275,1.434,73.333,726511.000,1.000
0.550,0.373,-1.892,-0.230,5.148,7.803,16.335,4.972,-0.052,0.984,-0.122,-2.228,0.244,1.404,73.333,726512.000,1.000
0.823,0.542,-2.363,0.410,5.473,8.832,14.928,4.506,-0.052,0.983,-0.122,-2.197,0.153,1.343,73.333,726513.000,1.000
0.162,-0.674,-3.649,0.200,4.100,6.324,9.132,4.398,-0.052,0.982,-0.120,-2.106,0.122,1.282,73.333,726514.000,1.000
-1.590,-3.504,-6.087,-1.253,0.569,-0.221,-0.546,2.985,-0.052,0.981,-0.119,-2.045,0.183,1.221,73.333,726515.000,1.000
-4.223,-7.364,-9.453,-3.768,-4.482,-8.271,-11.051,-0.743,-0.050,0.980,-0.121,-1.892,0.153,1.190,73.333,726516.000,1.000
-7.078,-10.934,-12.754,-6.449,-9.254,-13.700,-17.828,-5.802,-0.049,0.981,-0.122,-1.801,0.214,1.160,73.333,726517.000,1.000
-9.295,-12.835,-14.760,-8.192,-11.744,-13.563,-17.470,-9.697,-0.049,0.981,-0.121,-1.648,0.153,1.099,73.333,726518.000,1.000
-10.315,-12.444,-14.948,-8.496,-11.127,-8.029,-10.203,-10.409,-0.050,0.982,-0.122,-1.373,0.153,1.129,73.333,726519.000,1.000
-10.158,-10.244,-13.812,-7.775,-8.388,-0.256,-0.221,-8.050,-0.050,0.983,-0.122,-1.343,0.153,1.068,73.333,726520.000,1.000
-9.311,-7.540,-12.354,-6.961,-5.712,5.188,6.437,-4.642,-0.049,0.984,-0.124,-1.282,0.214,1.068,73.333,726521.000,1.000
-8.359,-5.619,-11.342,-6.743,-4.898,5.090,5.876,-2.347,-0.050,0.984,-0.124,-1.251,0.275,1.068,73.333,726522.000,1.000
-7.635,-4.895,-10.886,-7.113,-6.098,0.026,-0.793,-2.040,-0.048,0.982,-0.125,-1.160,0.183,1.007,73.333,726523.000,1.000
-7.143,-4.892,-10.727,-7.584,-8.080,-6.278,-8.940,-3.360,-0.048,0.983,-0.124,-1.099,0.092,1.038,73.333,726524.000,1.000
-6.666,-4.822,-10.539,-7.633,-9.247,-9.722,-13.821,-5.193,-0.049,0.983,-0.124,-1.007,0.183,1.038,73.333,726525.000,1.000
-5.823,-3.943,-9.810,-6.813,-8.211,-7.813,-12.370,-5.699,-0.049,0.984,-0.125,-0.854,0.122,1.129,73.333,726526.000,1.000
-4.262,-1.809,-8.012,-4.879,-4.347,-0.671,-4.339,-3.027,-0.050,0.985,-0.123,-0.763,-0.061,1.099,73.333,726527.000,1.000
-2.117,1.253,-5.254,-2.260,1.400,8.577,6.750,2.794,-0.049,0.984,-0.121,-0.671,0.031,1.068,73.333,726528.000,1.000
-0.229,4.018,-2.629,-0.261,6.583,15.324,15.056,8.781,-0.048,0.983,-0.124,-0.519,0.000,1.068,73.333,726529.000,1.000
0.295,5.043,-1.553,-0.332,8.636,16.310,15.970,10.585,-0.049,0.985,-0.126,-0.549,0.031,1.099,73.333,726530.000,1.000
-1.115,3.687,-2.668,-2.839,6.594,11.410,8.872,5.877,-0.048,0.986,-0.125,-0.488,0.061,1.129,73.333,726531.000,1.000
-4.002,0.666,-5.299,-6.488,1.878,3.524,-2.600,-3.394,-0.048,0.985,-0.125,-0.397,0.061,1.038,73.333,726532.000,1.000
-7.168,-2.397,-7.862,-9.129,-2.637,-3.301,-12.874,-12.177,-0.048,0.986,-0.122,-0.305,0.031,1.068,73.333,726533.000,1.000
-9.485,-4.114,-9.026,-9.306,-4.653,-6.416,-17.894,-16.033,-0.049,0.986,-0.124,-0.275,0.000,1.038,73.333,726534.000,1.000
-10.512,-4.199,-8.579,-7.190,-3.907,-5.880,-17.248,-14.097,-0.046,0.987,-0.126,-0.336,0.031,1.038,73.333,726535.000,1.000
-10.562,-3.443,-7.346,-4.273,-1.967,-3.714,-13.552,-8.977,-0.046,0.984,-0.125,-0.397,0.092,1.038,73.333,726536.000,1.000
-10.311,-2.892,-6.426,-2.281,-0.700,-1.878,-9.665,-4.244,-0.046,0.983,-0.126,-0.336,0.061,1.099,73.333,726537.000,1.000
-10.271,-3.014,-6.355,-2.130,-0.853,-0.846,-6.360,-1.982,-0.045,0.983,-0.127,-0.305,0.153,1.160,73.333,726538.000,1.000
-10.427,-3.514,-6.927,-3.506,-1.842,-0.046,-2.915,-1.937,-0.045,0.982,-0.127,-0.244,0.153,1.129,73.333,726539.000,1.000
-10.320,-3.792,-7.569,-5.260,-2.630,0.771,0.611,-2.285,-0.046,0.982,-0.125,-0.336,0.092,1.190,73.333,726540.000,1.000
-9.551,-3.565,-7.902,-6.373,-2.809,0.949,2.572,-1.554,-0.046,0.982,-0.128,-0.244,0.061,1.282,73.333,726541.000,1.000
-8.196,-3.120,-8.079,-6.743,-2.905,-0.276,1.360,-0.129,-0.046,0.982,-0.127,-0.244,0.092,1.251,73.333,726542.000,1.000
-6.653,-2.876,-8.435,-6.988,-3.643,-2.484,-2.553,0.206,-0.045,0.981,-0.129,-0.305,0.122,1.282,73.333,726543.000,1.000
-5.116,-2.763,-8.958,-7.533,-4.967,-3.818,-6.479,-1.744,-0.046,0.981,-0.131,-0.336,0.092,1.343,73.333,726544.000,1.000
-3.371,-2.301,-9.204,-8.098,-6.030,-2.748,-7.831,-5.183,-0.046,0.981,-0.130,-0.275,0.122,1.312,73.333,726545.000,1.000
-1.200,-1.368,-8.795,-8.195,-6.312,-0.258,-6.853,-8.214,-0.045,0.980,-0.131,-0.183,0.153,1.282,73.333,726546.000,1.000
1.157,-0.507,-7.872,-7.816,-6.256,0.814,-6.173,-9.716,-0.045,0.980,-0.130,-0.244,0.183,1.251,73.333,726547.000,1.000
3.152,-0.228,-6.826,-7.291,-6.488,-1.110,-7.536,-9.773,-0.043,0.982,-0.130,-0.183,0.092,1.343,73.333,726548.000,1.000
4.421,-0.362,-5.865,-6.704,-6.873,-4.681,-9.917,-8.762,-0.045,0.983,-0.128,-0.122,0.031,1.251,73.333,726549.000,1.000
5.015,-0.235,-4.890,-5.778,-6.611,-6.902,-10.746,-6.792,-0.045,0.985,-0.130,-0.214,0.000,1.190,73.333,726550.000,1.000
5.228,0.707,-3.677,-4.293,-5.114,-5.738,-8.644,-4.011,-0.047,0.984,-0.129,-0.244,-0.092,1.160,73.333,726551.000,1.000
5.294,2.354,-2.199,-2.495,-2.737,-1.848,-4.961,-1.055,-0.047,0.986,-0.128,-0.275,-0.122,1.129,73.333,726552.000,1.000
5.223,3.913,-0.738,-0.963,-0.563,2.093,-2.404,1.173,-0.050,0.987,-0.129,-0.366,-0.122,1.099,73.333,726553.000,1.000
4.902,4.545,0.298,-0.065,0.624,3.881,-2.375,2.366,-0.047,0.986,-0.131,-0.305,-0.183,0.977,73.333,726554.000,1.000
4.410,4.164,0.856,0.481,1.192,3.802,-3.446,3.392,-0.048,0.985,-0.129,-0.427,-0.244,1.068,73.333,726555.000,1.000
4.156,3.538,1.416,1.411,2.321,4.247,-2.449,5.409,-0.046,0.985,-0.128,-0.488,-0.275,1.038,73.333,726556.000,1.000
4.444,3.368,2.293,2.997,4.405,6.760,1.832,7.860,-0.046,0.984,-0.127,-0.580,-0.336,1.038,73.333,726557.000,1.000
4.966,3.371,2.973,4.478,6.042,9.660,6.315,8.179,-0.045,0.983,-0.129,-0.488,-0.397,1.038,73.333,726558.000,1.000
5.022,2.613,2.508,4.727,5.298,9.431,6.253,4.473,-0.045,0.982,-0.132,-0.458,-0.397,1.068,73.333,726559.000,1.000
4.135,0.565,0.515,3.266,1.673,4.193,-0.084,-2.273,-0.046,0.981,-0.130,-0.427,-0.519,0.946,73.333,726560.000,1.000
2.369,-2.392,-2.460,0.495,-3.493,-4.560,-9.831,-9.197,-0.047,0.982,-0.133,-0.488,-0.488,0.916,73.333,726561.000,1.000
0.368,-5.146,-5.269,-2.548,-7.893,-12.881,-17.636,-13.482,-0.046,0.982,-0.131,-0.519,-0.580,0.946,73.333,726562.000,1.000
-0.791,-6.387,-6.614,-4.515,-9.397,-16.745,-18.973,-13.249,-0.046,0.983,-0.132,-0.397,-0.671,0.885,73.333,726563.000,1.000
-0.133,-5.429,-5.759,-4.527,-7.345,-14.564,-12.923,-8.471,-0.047,0.981,-0.129,-0.397,-0.641,0.946,73.333,726564.000,1.000
2.536,-2.812,-3.089,-2.945,-3.196,-8.160,-2.623,-1.616,-0.048,0.980,-0.126,-0.336,-0.763,0.824,73.333,726565.000,1.000
6.527,0.147,0.196,-1.047,0.611,-0.986,7.391,3.715,-0.045,0.981,-0.128,-0.305,-0.793,0.763,73.333,726566.000,1.000
10.785,2.432,2.986,0.122,2.591,4.438,14.135,5.513,-0.046,0.980,-0.129,-0.366,-0.916,0.763,73.333,726567.000,1.000
14.408,3.794,4.892,0.447,2.897,7.225,16.691,4.732,-0.047,0.979,-0.126,-0.275,-0.763,0.763,73.333,726568.000,1.000
16.838,4.385,6.089,0.429,2.474,7.463,15.238,3.936,-0.046,0.981,-0.130,-0.366,-0.824,0.671,73.333,726569.000,1.000
17.802,4.241,6.768,0.342,1.864,5.754,10.531,4.426,-0.047,0.981,-0.130,-0.427,-0.916,0.641,73.333,726570.000,1.000
17.249,3.255,6.829,-0.116,0.874,3.207,4.078,4.843,-0.047,0.982,-0.130,-0.427,-0.885,0.610,73.333,726571.000,1.000
15.493,1.583,6.152,-1.257,-0.710,1.194,-1.875,3.065,-0.046,0.985,-0.128,-0.336,-0.977,0.580,73.333,726572.000,1.000
13.269,-0.255,5.076,-2.772,-2.604,0.122,-5.701,-1.163,-0.046,0.983,-0.132,-0.366,-1.099,0.580,73.333,726573.000,1.000
11.371,-1.805,4.235,-3.963,-4.412,-1.395,-7.886,-6.181,-0.047,0.981,-0.130,-0.244,-1.221,0.366,73.333,726574.000,1.000
10.240,-2.796,4.194,-4.305,-5.779,-4.707,-9.861,-9.985,-0.048,0.982,-0.125,-0.275,-1.190,0.305,73.333,726575.000,1.000
9.950,-2.854,5.305,-3.586,-6.026,-8.659,-11.494,-11.117,-0.049,0.984,-0.127,-0.275,-1.160,0.366,73.333,726576.000,1.000
10.387,-1.574,7.529,-1.820,-4.351,-10.308,-10.918,-8.989,-0.047,0.984,-0.125,-0.336,-1.190,0.305,73.333,726577.000,1.000
11.269,0.987,10.381,0.754,-0.670,-7.928,-6.791,-4.210,-0.049,0.984,-0.125,-0.427,-1.343,0.244,73.333,726578.000,1.000
12.096,4.107,13.085,3.618,3.994,-2.510,-0.065,1.424,-0.048,0.985,-0.127,-0.519,-1.404,0.214,73.333,726579.000,1.000
12.256,6.745,14.849,6.041,8.034,3.260,6.670,5.668,-0.049,0.984,-0.129,-0.519,-1.556,0.214,73.333,726580.000,1.000
11.266,7.926,15.040,7.263,9.984,6.528,10.726,6.801,-0.048,0.983,-0.130,-0.610,-1.587,0.092,73.333,726581.000,1.000
9.022,7.042,13.285,6.775,9.022,5.359,10.145,4.188,-0.050,0.982,-0.128,-0.641,-1.617,-0.061,73.333,726582.000,1.000
6.004,4.350,9.985,4.766,5.562,0.066,4.779,-1.380,-0.049,0.982,-0.128,-0.671,-1.648,-0.092,73.333,726583.000,1.000
3.101,1.119,6.432,2.206,1.358,-6.485,-3.055,-7.873,-0.046,0.981,-0.126,-0.702,-1.678,0.031,73.333,726584.000,1.000
1.056,-1.172,3.987,0.279,-1.601,-10.917,-9.996,-13.045,-0.046,0.983,-0.130,-0.732,-1.740,0.061,73.333,726585.000,1.000
0.155,-1.757,3.204,-0.170,-2.220,-11.529,-13.519,-15.146,-0.048,0.982,-0.130,-0.763,-1.831,0.031,73.333,726586.000,1.000
0.437,-0.688,3.838,1.218,-0.373,-8.303,-12.300,-13.012,-0.049,0.983,-0.130,-0.702,-1.862,-0.092,73.333,726587.000,1.000
1.794,1.479,5.375,4.143,3.310,-2.151,-6.263,-6.805,-0.049,0.982,-0.132,-0.732,-1.923,-0.183,73.333,726588.000,1.000
3.660,3.735,7.033,7.308,7.164,4.749,2.205,0.845,-0.049,0.983,-0.129,-0.641,-2.014,-0.092,73.333,726589.000,1.000
4.907,4.738,7.654,8.761,8.707,8.839,8.018,5.586,-0.050,0.983,-0.128,-0.702,-2.045,0.031,73.333,726590.000,1.000
4.414,3.481,6.326,7.211,6.246,7.114,6.582,4.513,-0.048,0.982,-0.127,-0.702,-1.923,0.122,73.333,726591.000,1.000
1.871,0.026,3.120,3.033,0.409,-0.313,-2.203,-1.636,-0.046,0.982,-0.130,-0.671,-1.892,0.092,73.333,726592.000,1.000
-2.022,-4.465,-0.926,-2.183,-6.288,-9.711,-13.688,-9.699,-0.048,0.983,-0.130,-0.702,-1.892,0.000,73.333,726593.000,1.000
-6.027,-8.385,-4.503,-6.715,-11.106,-15.977,-21.925,-16.388,-0.049,0.980,-0.133,-0.610,-2.045,0.061,73.333,726594.000,1.000
-8.942,-10.429,-6.552,-9.245,-12.304,-16.086,-23.241,-19.096,-0.048,0.981,-0.128,-0.519,-1.953,0.000,73.333,726595.000,1.000
-10.051,-10.134,-6.567,-9.157,-9.759,-11.263,-18.057,-16.429,-0.047,0.983,-0.131,-0.458,-1.862,0.000,73.333,726596.000,1.000
-9.451,-8.063,-4.956,-7.043,-5.165,-5.790,-10.445,-9.624,-0.047,0.983,-0.128,-0.336,-1.862,0.061,73.333,726597.000,1.000
-7.956,-5.343,-2.823,-4.587,-1.124,-3.228,-4.980,-2.722,-0.048,0.985,-0.130,-0.336,-1.862,0.122,73.333,726598.000,1.000
-6.418,-2.770,-1.114,-3.300,0.727,-3.735,-3.285,0.320,-0.050,0.986,-0.129,-0.336,-1.923,0.153,73.333,726599.000,1.000
-5.162,-0.458,0.041,-3.366,0.691,-5.018,-3.838,-1.179,-0.048,0.984,-0.128,-0.366,-1.862,0.122,73.333,726600.000,1.000
-4.224,1.604,0.966,-4.023,-0.013,-5.279,-4.696,-4.923,-0.050,0.984,-0.130,-0.336,-1.862,0.031,73.333,726601.000,1.000
-3.854,3.001,1.643,-4.679,-0.741,-4.649,-5.467,-8.414,-0.051,0.986,-0.130,-0.336,-1.892,0.031,73.333,726602.000,1.000
-4.459,3.170,1.792,-5.216,-1.600,-4.063,-6.818,-10.608,-0.052,0.988,-0.129,-0.519,-1.892,0.031,73.333,726603.000,1.000
-6.159,2.007,1.352,-5.578,-2.694,-3.741,-8.853,-11.528,-0.052,0.987,-0.128,-0.519,-1.892,-0.061,73.333,726604.000,1.000
-8.590,0.062,0.629,-5.501,-3.623,-2.909,-10.066,-11.219,-0.050,0.986,-0.128,-0.549,-1.831,-0.092,73.333,726605.000,1.000
-11.114,-1.705,0.102,-4.637,-3.587,-0.305,-8.024,-9.394,-0.053,0.987,-0.130,-0.641,-1.740,-0.031,73.333,726606.000,1.000
-13.243,-2.428,0.091,-2.868,-1.891,4.956,-1.483,-5.825,-0.051,0.988,-0.129,-0.610,-1.892,-0.061,73.333,726607.000,1.000
-14.943,-1.992,0.511,-0.556,1.323,12.067,7.971,-0.874,-0.053,0.985,-0.129,-0.732,-1.953,-0.092,73.333,726608.000,1.000
-16.597,-1.344,0.715,1.418,4.695,17.988,16.314,4.201,-0.053,0.986,-0.124,-0.793,-1.953,-0.031,73.333,726609.000,1.000
-18.590,-1.858,-0.092,2.066,6.343,19.266,19.576,7.761,-0.052,0.985,-0.125,-0.763,-1.953,0.000,73.333,726610.000,1.000
-20.829,-4.100,-2.070,1.009,5.322,14.928,16.464,9.024,-0.051,0.983,-0.128,-0.702,-1.923,0.000,73.333,726611.000,1.000
-22.668,-7.286,-4.593,-1.260,2.299,7.337,9.007,8.529,-0.052,0.982,-0.127,-0.732,-1.923,0.153,73.333,726612.000,1.000
-23.430,-10.049,-6.837,-3.912,-1.328,-0.020,0.722,7.096,-0.052,0.980,-0.131,-0.824,-1.862,0.244,73.333,726613.000,1.000
-23.007,-11.625,-8.469,-6.443,-4.755,-5.454,-6.094,4.778,-0.053,0.979,-0.130,-0.885,-1.770,0.244,73.333,726614.000,1.000
-21.838,-12.097,-9.536,-8.596,-7.810,-9.382,-10.911,1.486,-0.053,0.977,-0.127,-0.854,-1.801,0.397,73.333,726615.000,1.000
-20.301,-11.704,-9.848,-9.831,-9.986,-12.262,-13.305,-1.646,-0.052,0.978,-0.126,-0.549,-1.831,0.427,73.333,726616.000,1.000
-18.379,-10.399,-8.980,-9.359,-10.298,-13.458,-12.391,-2.627,-0.051,0.977,-0.129,-0.580,-1.740,0.458,73.333,726617.000,1.000
-15.989,-8.274,-6.904,-6.995,-8.505,-12.470,-8.608,-0.939,-0.052,0.980,-0.131,-0.397,-1.770,0.458,73.333,726618.000,1.000
-13.442,-6.042,-4.418,-3.705,-5.888,-10.308,-4.802,1.279,-0.053,0.982,-0.131,-0.397,-1.770,0.580,73.333,726619.000,1.000
-11.313,-4.652,-2.525,-0.942,-4.171,-8.804,-4.032,1.256,-0.052,0.981,-0.127,-0.336,-1.862,0.549,73.333,726620.000,1.000
-9.999,-4.548,-1.543,0.428,-4.024,-8.938,-6.948,-1.872,-0.053,0.983,-0.127,-0.275,-1.740,0.671,73.333,726621.000,1.000
-9.589,-5.504,-1.123,0.441,-4.871,-10.306,-11.880,-6.758,-0.054,0.984,-0.129,-0.336,-1.740,0.641,73.333,726622.000,1.000
-9.952,-6.903,-0.719,-0.269,-5.541,-11.701,-16.350,-10.873,-0.056,0.986,-0.132,-0.458,-1.770,0.580,73.333,726623.000,1.000
-10.744,-7.920,0.090,-0.875,-4.799,-11.650,-18.010,-11.638,-0.055,0.986,-0.128,-0.610,-1.770,0.458,73.333,726624.000,1.000
-11.495,-7.777,1.421,-0.826,-1.874,-8.946,-15.174,-7.792,-0.052,0.988,-0.130,-0.732,-1.740,0.458,73.333,726625.000,1.000
-11.980,-6.295,2.913,-0.226,2.854,-3.703,-7.820,-0.343,-0.051,0.989,-0.129,-0.854,-1.678,0.458,73.333,726626.000,1.000
-12.513,-4.272,3.704,0.201,7.628,2.029,1.482,7.742,-0.048,0.986,-0.128,-0.916,-1.709,0.519,73.333,726627.000,1.000
-13.759,-3.080,2.933,-0.418,10.077,5.284,8.338,12.853,-0.046,0.983,-0.132,-0.946,-1.617,0.519,73.333,726628.000,1.000
-16.061,-3.609,0.378,-2.415,8.797,4.423,9.582,12.698,-0.043,0.981,-0.132,-0.946,-1.495,0.519,73.333,726629.000,1.000
-18.895,-5.446,-3.128,-5.086,4.647,0.782,6.230,8.022,-0.044,0.979,-0.133,-1.007,-1.282,0.580,73.333,726630.000,1.000
-21.087,-7.155,-6.055,-7.028,0.245,-2.182,2.640,2.176,-0.044,0.979,-0.131,-0.854,-1.160,0.671,73.333,726631.000,1.000
-21.648,-7.424,-7.229,-7.122,-2.048,-1.923,2.417,-1.236,-0.047,0.979,-0.130,-0.885,-1.068,0.671,73.333,726632.000,1.000
-20.383,-6.043,-6.473,-5.148,-1.650,1.019,5.531,-0.212,-0.048,0.981,-0.127,-0.824,-1.038,0.702,73.333,726633.000,1.000
-17.859,-3.884,-4.480,-1.712,0.416,4.057,9.192,5.146,-0.050,0.982,-0.127,-0.854,-0.854,0.702,73.333,726634.000,1.000
-14.960,-2.165,-2.249,2.079,2.562,5.123,10.685,12.733,-0.050,0.984,-0.132,-0.946,-0.824,0.793,73.333,726635.000,1.000
-12.465,-1.801,-0.677,4.940,3.340,3.710,8.888,19.103,-0.050,0.986,-0.136,-0.793,-0.763,0.793,73.333,726636.000,1.000
-10.792,-3.081,-0.387,5.879,1.965,0.614,4.509,21.181,-0.049,0.985,-0.133,-0.916,-0.763,0.916,73.333,726637.000,1.000
-9.919,-5.460,-1.447,4.725,-1.163,-2.288,0.131,18.173,-0.048,0.983,-0.133,-0.977,-0.702,0.946,73.333,726638.000,1.000
-9.596,-7.904,-3.425,2.080,-4.824,-3.250,-1.698,11.785,-0.048,0.984,-0.135,-0.977,-0.580,1.099,73.333,726639.000,1.000
-9.711,-9.697,-5.832,-1.311,-8.153,-2.464,-1.306,4.618,-0.048,0.982,-0.132,-1.099,-0.580,1.129,73.333,726640.000,1.000
-10.310,-10.715,-8.318,-4.924,-11.019,-1.639,-1.291,-1.335,-0.051,0.984,-0.128,-1.068,-0.549,1.160,73.333,726641.000,1.000
-11.186,-10.859,-10.432,-8.162,-13.090,-1.573,-2.676,-4.623,-0.052,0.986,-0.132,-0.977,-0.519,1.129,73.333,726642.000,1.000
-11.628,-9.627,-11.300,-10.006,-13.045,-0.965,-2.791,-3.528,-0.056,0.988,-0.130,-0.854,-0.519,0.977,73.333,726643.000,1.000
-10.743,-6.484,-10.008,-9.400,-9.372,2.192,2.171,3.298,-0.057,0.988,-0.129,-0.916,-0.580,0.793,73.333,726644.000,1.000
-8.256,-1.778,-6.569,-6.315,-2.369,8.050,12.230,14.359,-0.060,0.988,-0.128,-0.977,-0.580,0.702,73.333,726645.000,1.000
-4.999,2.851,-2.415,-2.338,4.916,13.722,21.749,24.193,-0.060,0.987,-0.127,-1.099,-0.641,0.671,73.333,726646.000,1.000
-2.388,5.331,0.386,0.299,8.587,15.199,23.658,26.665,-0.059,0.988,-0.125,-1.251,-0.824,0.488,73.333,726647.000,1.000
-1.304,4.623,0.720,0.493,7.038,10.683,15.752,20.266,-0.058,0.989,-0.128,-1.190,-0.977,0.366,73.333,726648.000,1.000
-1.539,1.399,-0.914,-0.992,2.102,2.036,2.582,9.525,-0.055,0.989,-0.128,-1.282,-1.007,0.153,73.333,726649.000,1.000
-2.146,-2.446,-2.992,-2.394,-2.547,-6.328,-7.965,1.113,-0.053,0.990,-0.130,-1.282,-1.068,0.092,73.333,726650.000,1.000
-2.274,-5.024,-4.064,-2.433,-4.035,-10.151,-10.213,-1.169,-0.051,0.988,-0.131,-1.465,-1.221,0.153,73.333,726651.000,1.000
-1.844,-5.638,-3.722,-1.209,-2.131,-8.237,-4.569,1.623,-0.052,0.987,-0.130,-1.404,-1.190,0.092,73.333,726652.000,1.000
-1.552,-4.995,-2.640,0.163,1.016,-3.230,3.477,5.429,-0.049,0.988,-0.126,-1.526,-1.129,0.061,73.333,726653.000,1.000
-2.176,-4.282,-1.887,0.721,2.923,0.861,8.279,6.748,-0.048,0.988,-0.127,-1.526,-1.038,0.092,73.333,726654.000,1.000
-3.896,-4.148,-2.092,0.435,2.612,1.801,7.869,4.879,-0.048,0.988,-0.128,-1.495,-1.068,0.214,73.333,726655.000,1.000
-6.162,-4.495,-3.086,0.032,0.729,-0.208,3.679,1.572,-0.048,0.986,-0.131,-1.556,-0.977,0.305,73.333,726656.000,1.000
-8.011,-4.822,-4.195,0.303,-1.350,-3.615,-1.497,-0.689,-0.049,0.985,-0.130,-1.434,-0.946,0.366,73.333,726657.000,1.000
-8.521,-4.567,-4.623,1.618,-2.305,-6.342,-4.725,-0.234,-0.049,0.985,-0.129,-1.434,-0.824,0.519,73.333,726658.000,1.000
-7.260,-3.414,-3.901,3.775,-1.438,-6.570,-4.164,2.978,-0.050,0.983,-0.129,-1.404,-0.854,0.519,73.333,726659.000,1.000
-4.560,-1.509,-2.177,6.116,0.981,-3.754,-0.238,7.524,-0.051,0.983,-0.128,-1.404,-0.824,0.580,73.333,726660.000,1.000
-1.396,0.577,-0.133,7.821,3.859,0.952,4.666,11.424,-0.052,0.982,-0.126,-1.373,-0.946,0.702,73.333,726661.000,1.000
1.123,2.154,1.350,8.252,5.856,5.340,7.787,13.124,-0.053,0.983,-0.123,-1.221,-0.977,0.610,73.333,726662.000,1.000
2.349,2.798,1.726,7.250,6.100,7.463,7.662,12.157,-0.053,0.982,-0.124,-1.251,-0.916,0.641,73.333,726663.000,1.000
2.298,2.520,1.000,5.158,4.542,6.719,4.737,9.097,-0.055,0.979,-0.125,-1.221,-0.946,0.641,73.333,726664.000,1.000
1.462,1.688,-0.365,2.653,1.836,3.934,0.786,5.002,-0.056,0.979,-0.127,-1.160,-0.977,0.641,73.333,726665.000,1.000
0.637,0.980,-1.554,0.673,-0.827,0.804,-2.041,1.181,-0.056,0.978,-0.127,-1.007,-1.007,0.519,73.333,726666.000,1.000
0.714,1.152,-1.740,0.135,-2.126,-0.999,-2.381,-1.085,-0.054,0.976,-0.126,-0.977,-1.129,0.549,73.333,726667.000,1.000
2.188,2.383,-0.587,1.301,-1.556,-1.111,-0.865,-1.397,-0.053,0.977,-0.125,-0.854,-1.129,0.488,73.333,726668.000,1.000
4.846,4.042,1.486,3.553,0.213,-0.684,0.274,-0.466,-0.052,0.975,-0.126,-0.732,-1.129,0.488,73.333,726669.000,1.000
8.018,5.374,3.737,6.008,2.276,-0.721,-0.297,1.000,-0.052,0.976,-0.129,-0.641,-1.129,0.427,73.333,726670.000,1.000
10.986,6.127,5.646,8.132,4.310,-0.932,-1.672,2.992,-0.050,0.978,-0.130,-0.488,-1.099,0.488,73.333,726671.000,1.000
13.116,6.454,6.883,9.670,6.278,-0.477,-2.162,5.420,-0.051,0.979,-0.132,-0.336,-1.007,0.488,73.333,726672.000,1.000
13.943,6.620,7.292,10.417,8.026,1.177,-0.842,7.521,-0.051,0.977,-0.131,-0.244,-1.038,0.610,73.333,726673.000,1.000
13.393,6.932,7.026,10.318,9.407,4.280,2.190,8.476,-0.051,0.979,-0.131,-0.244,-1.007,0.610,73.333,726674.000,1.000
11.898,7.628,6.554,9.645,10.417,8.756,6.218,8.260,-0.050,0.980,-0.131,-0.153,-0.916,0.671,73.333,726675.000,1.000
10.194,8.622,6.401,8.890,11.041,13.695,10.357,7.682,-0.051,0.982,-0.129,0.000,-1.007,0.641,73.333,726676.000,1.000
8.893,9.392,6.676,8.362,10.974,17.042,13.343,7.317,-0.052,0.979,-0.126,-0.122,-0.916,0.671,73.333,726677.000,1.000
8.239,9.377,7.107,7.957,9.670,16.667,13.404,6.588,-0.049,0.982,-0.124,-0.183,-0.916,0.580,73.333,726678.000,1.000
8.142,8.507,7.351,7.318,6.767,11.977,8.920,4.159,-0.051,0.981,-0.128,-0.214,-0.977,0.580,73.333,726679.000,1.000
8.298,7.146,7.155,6.087,2.325,4.051,-0.481,-0.943,-0.049,0.981,-0.131,-0.183,-0.885,0.732,73.333,726680.000,1.000
8.395,5.784,6.504,4.316,-2.869,-4.844,-12.471,-8.081,-0.049,0.980,-0.131,-0.153,-0.885,0.824,73.333,726681.000,1.000
8.365,4.891,5.718,2.736,-7.195,-11.722,-22.304,-14.617,-0.050,0.979,-0.129,-0.061,-0.763,0.793,73.333,726682.000,1.000
8.336,4.584,5.208,2.261,-9.215,-14.749,-26.238,-17.586,-0.051,0.980,-0.130,0.061,-0.824,0.824,73.333,726683.000,1.000
8.447,4.432,5.024,3.193,-8.811,-14.603,-24.255,-16.088,-0.050,0.978,-0.128,0.000,-0.732,0.854,73.333,726684.000,1.000
8.873,3.978,4.995,5.135,-6.863,-12.984,-18.743,-11.632,-0.048,0.980,-0.131,0.031,-0.671,0.854,73.333,726685.000,1.000
9.821,3.247,5.096,7.390,-4.332,-10.731,-12.191,-6.704,-0.048,0.983,-0.129,0.031,-0.702,0.885,73.333,726686.000,1.000
