EEG 1,EEG 2,EEG 3,EEG 4,EEG 5,EEG 6,EEG 7,EEG 8,Accelerometer X,Accelerometer Y,Accelerometer Z,Gyroscope X,Gyroscope Y,Gyroscope Z,Battery Level,Counter,Validation Indicator
-0.846,2.539,2.283,-1.258,-5.416,6.622,11.016,-3.181,-0.062,0.971,-0.171,-0.977,-1.984,0.610,73.333,628513.000,1.000
-1.014,3.267,2.299,-1.579,-5.781,8.407,14.917,-1.534,-0.062,0.971,-0.170,-0.916,-2.045,0.641,73.333,628514.000,1.000
-1.725,2.783,1.623,-2.493,-6.832,6.953,15.739,0.643,-0.062,0.969,-0.172,-0.916,-1.923,0.580,73.333,628515.000,1.000
-3.174,0.952,-0.084,-4.245,-9.431,2.795,11.823,0.876,-0.062,0.969,-0.173,-0.824,-1.953,0.610,73.333,628516.000,1.000
-5.160,-1.613,-2.506,-6.456,-13.414,-1.825,4.515,-1.812,-0.060,0.971,-0.171,-0.763,-1.862,0.519,73.333,628517.000,1.000
-7.143,-3.971,-4.924,-8.300,-17.848,-4.848,-2.936,-6.299,-0.061,0.973,-0.171,-0.885,-1.831,0.488,73.333,628518.000,1.000
-8.665,-5.535,-6.697,-9.039,-21.754,-6.107,-7.796,-10.473,-0.061,0.971,-0.174,-0.763,-1.862,0.549,73.333,628519.000,1.000
-9.737,-6.388,-7.684,-8.454,-24.477,-7.011,-9.218,-12.611,-0.060,0.971,-0.172,-0.702,-1.953,0.519,73.333,628520.000,1.000
-10.748,-6.987,-8.231,-6.886,-25.717,-8.884,-8.257,-12.160,-0.061,0.970,-0.171,-0.702,-1.862,0.549,73.333,628521.000,1.000
-11.983,-7.614,-8.626,-4.908,-25.438,-11.884,-6.777,-9.765,-0.061,0.971,-0.172,-0.580,-1.923,0.336,73.333,628522.000,1.000
-13.345,-8.132,-8.925,-3.018,-23.665,-14.950,-5.963,-6.730,-0.060,0.969,-0.174,-0.610,-1.831,0.427,73.333,628523.000,1.000
-14.387,-8.058,-8.837,-1.419,-20.273,-16.069,-5.222,-4.108,-0.059,0.973,-0.174,-0.610,-1.801,0.427,73.333,628524.000,1.000
-14.520,-6.830,-7.901,0.061,-15.085,-13.096,-2.565,-1.973,-0.061,0.973,-0.172,-0.610,-1.740,0.397,73.333,628525.000,1.000
-13.316,-4.200,-5.888,1.786,-8.304,-5.405,3.515,0.373,-0.061,0.974,-0.169,-0.610,-1.740,0.366,73.333,628526.000,1.000
-10.808,-0.588,-3.008,3.867,-0.964,4.760,11.989,3.340,-0.062,0.976,-0.170,-0.519,-1.740,0.427,73.333,628527.000,1.000
-7.609,2.940,-0.057,5.812,5.150,13.042,19.168,6.312,-0.061,0.977,-0.168,-0.763,-1.617,0.305,73.333,628528.000,1.000
-4.555,5.377,2.174,6.902,8.625,16.141,21.798,8.314,-0.059,0.975,-0.173,-0.793,-1.770,0.397,73.333,628529.000,1.000
-2.191,6.444,3.447,6.842,9.512,14.275,19.873,9.098,-0.062,0.975,-0.170,-0.793,-1.740,0.366,73.333,628530.000,1.000
-0.657,6.410,3.857,5.836,8.893,10.068,15.502,8.980,-0.062,0.975,-0.171,-0.824,-1.617,0.336,73.333,628531.000,1.000
0.099,5.574,3.464,4.190,7.649,5.868,10.460,7.866,-0.062,0.973,-0.170,-0.824,-1.648,0.336,73.333,628532.000,1.000
0.202,4.134,2.192,2.059,6.026,2.744,5.767,5.246,-0.062,0.973,-0.172,-0.763,-1.678,0.275,73.333,628533.000,1.000
-0.131,2.308,0.255,-0.330,4.040,0.903,2.366,1.425,-0.063,0.975,-0.174,-0.916,-1.709,0.397,73.333,628534.000,1.000
-0.638,0.351,-1.828,-2.504,1.829,-0.094,0.827,-1.974,-0.062,0.972,-0.173,-0.916,-1.617,0.397,73.333,628535.000,1.000
-1.162,-1.563,-3.695,-4.046,-0.507,-1.448,0.353,-3.294,-0.064,0.972,-0.172,-0.946,-1.648,0.366,73.333,628536.000,1.000
-1.672,-3.348,-5.249,-4.935,-3.024,-4.461,-1.115,-2.375,-0.065,0.974,-0.173,-0.977,-1.648,0.397,73.333,628537.000,1.000
-2.098,-4.729,-6.448,-5.383,-5.408,-8.995,-4.934,-0.534,-0.061,0.973,-0.171,-0.793,-1.648,0.397,73.333,628538.000,1.000
-2.292,-5.115,-6.926,-5.415,-6.479,-12.818,-9.903,0.743,-0.063,0.973,-0.172,-0.793,-1.617,0.427,73.333,628539.000,1.000
-2.229,-4.037,-6.230,-4.867,-4.823,-13.163,-13.096,0.876,-0.063,0.973,-0.172,-0.793,-1.648,0.458,73.333,628540.000,1.000
-2.081,-1.567,-4.323,-3.615,-0.047,-8.977,-12.311,0.353,-0.063,0.974,-0.170,-0.885,-1.495,0.427,73.333,628541.000,1.000
-2.020,1.721,-1.570,-1.673,6.784,-1.675,-7.462,0.221,-0.061,0.973,-0.167,-0.916,-1.495,0.397,73.333,628542.000,1.000
-2.106,4.999,1.333,0.748,13.788,5.878,-0.474,1.406,-0.063,0.972,-0.169,-0.885,-1.495,0.397,73.333,628543.000,1.000
-2.306,7.429,3.641,3.241,19.199,11.118,5.936,4.158,-0.064,0.974,-0.175,-1.007,-1.526,0.397,73.333,628544.000,1.000
-2.564,8.476,4.822,5.236,21.981,13.014,9.784,7.560,-0.062,0.974,-0.173,-0.916,-1.526,0.397,73.333,628545.000,1.000
-2.890,8.147,4.740,6.180,22.118,12.271,10.636,9.872,-0.061,0.973,-0.171,-1.038,-1.495,0.397,73.333,628546.000,1.000
-3.364,6.953,3.803,5.911,20.516,10.619,9.387,9.937,-0.063,0.973,-0.171,-0.916,-1.526,0.397,73.333,628547.000,1.000
-3.953,5.582,2.622,4.840,18.394,9.528,7.409,8.099,-0.064,0.973,-0.170,-0.854,-1.556,0.488,73.333,628548.000,1.000
-4.368,4.536,1.699,3.708,16.514,9.186,5.919,5.761,-0.065,0.974,-0.171,-0.854,-1.556,0.336,73.333,628549.000,1.000
-4.234,3.993,1.219,3.077,14.821,8.767,5.508,4.206,-0.065,0.971,-0.174,-0.854,-1.434,0.336,73.333,628550.000,1.000
-3.340,3.911,1.065,3.045,12.786,7.712,5.955,3.805,-0.063,0.972,-0.171,-0.885,-1.373,0.366,73.333,628551.000,1.000
-1.735,4.171,1.173,3.439,10.178,6.433,6.783,4.268,-0.064,0.972,-0.171,-0.885,-1.434,0.397,73.333,628552.000,1.000
0.233,4.599,1.476,4.020,7.475,5.584,7.640,5.235,-0.064,0.973,-0.174,-0.916,-1.404,0.458,73.333,628553.000,1.000
1.926,4.835,1.659,4.394,5.308,4.797,7.755,6.185,-0.063,0.971,-0.172,-0.885,-1.404,0.458,73.333,628554.000,1.000
2.643,4.342,1.037,3.916,3.750,2.691,5.799,6.213,-0.062,0.972,-0.175,-1.038,-1.312,0.580,73.333,628555.000,1.000
2.119,2.860,-0.921,2.149,2.590,-1.306,1.564,4.851,-0.062,0.972,-0.172,-0.946,-1.343,0.610,73.333,628556.000,1.000
0.773,0.802,-3.808,-0.571,2.016,-5.618,-2.669,2.946,-0.064,0.972,-0.171,-0.885,-1.373,0.610,73.333,628557.000,1.000
-0.697,-1.066,-6.577,-3.330,2.386,-7.582,-3.923,1.894,-0.065,0.975,-0.167,-1.068,-1.312,0.641,73.333,628558.000,1.000
-1.874,-2.279,-8.299,-5.340,3.361,-5.829,-1.507,2.029,-0.063,0.976,-0.168,-1.068,-1.312,0.702,73.333,628559.000,1.000
-2.673,-2.835,-8.619,-6.311,3.879,-1.364,2.664,2.364,-0.063,0.974,-0.169,-1.038,-1.465,0.793,73.333,628560.000,1.000
-2.976,-2.746,-7.543,-6.128,3.372,3.547,6.430,2.178,-0.063,0.976,-0.165,-1.038,-1.343,0.763,73.333,628561.000,1.000
-2.504,-1.754,-5.021,-4.585,2.527,6.908,8.872,2.178,-0.063,0.974,-0.167,-1.099,-1.434,0.793,73.333,628562.000,1.000
-1.140,0.404,-1.240,-1.708,2.563,7.953,9.965,3.572,-0.065,0.973,-0.169,-1.129,-1.282,0.763,73.333,628563.000,1.000
0.760,3.606,3.098,1.930,4.046,7.504,10.190,6.629,-0.064,0.975,-0.168,-1.160,-1.251,0.732,73.333,628564.000,1.000
2.405,7.168,6.856,5.344,6.351,7.003,9.933,10.269,-0.063,0.976,-0.168,-1.190,-1.282,0.824,73.333,628565.000,1.000
3.010,10.033,8.923,7.601,8.142,7.193,9.055,12.724,-0.063,0.974,-0.171,-1.221,-1.282,0.702,73.333,628566.000,1.000
2.327,11.365,8.932,8.369,8.522,8.221,7.919,12.915,-0.061,0.972,-0.171,-1.251,-1.221,0.671,73.333,628567.000,1.000
0.809,11.069,7.360,8.089,7.735,10.279,8.047,11.474,-0.063,0.972,-0.168,-1.160,-1.343,0.793,73.333,628568.000,1.000
-0.779,9.678,5.221,7.581,6.674,13.255,10.672,10.148,-0.063,0.971,-0.168,-1.160,-1.373,0.793,73.333,628569.000,1.000
-2.025,7.667,3.335,7.276,5.651,15.824,14.492,9.908,-0.063,0.970,-0.169,-1.129,-1.251,0.824,73.333,628570.000,1.000
-3.152,5.047,1.751,6.864,3.872,15.583,15.767,9.983,-0.064,0.970,-0.167,-1.160,-1.312,0.732,73.333,628571.000,1.000
-4.606,1.831,0.156,5.826,0.376,11.032,11.778,9.029,-0.064,0.970,-0.167,-1.007,-1.343,0.763,73.333,628572.000,1.000
-6.375,-1.288,-1.458,4.164,-4.691,3.718,4.026,6.783,-0.064,0.970,-0.169,-1.038,-1.373,0.732,73.333,628573.000,1.000
-7.802,-3.028,-2.474,2.563,-9.927,-2.114,-2.491,4.429,-0.064,0.968,-0.170,-0.885,-1.312,0.671,73.333,628574.000,1.000
-8.084,-2.468,-2.207,1.832,-13.694,-2.779,-3.381,3.605,-0.063,0.968,-0.173,-0.763,-1.251,0.763,73.333,628575.000,1.000
-6.949,0.041,-0.728,2.227,-15.351,1.449,1.315,5.016,-0.063,0.969,-0.172,-0.732,-1.160,0.763,73.333,628576.000,1.000
-4.878,2.937,1.059,3.273,-15.664,6.367,7.168,7.779,-0.065,0.969,-0.172,-0.702,-1.099,0.824,73.333,628577.000,1.000
-2.737,4.499,1.937,4.140,-16.035,7.603,9.367,10.026,-0.065,0.970,-0.169,-0.580,-1.221,0.793,73.333,628578.000,1.000
-1.175,4.037,1.324,4.231,-17.323,4.332,6.703,10.200,-0.063,0.971,-0.172,-0.519,-1.282,0.732,73.333,628579.000,1.000
-0.305,2.270,-0.316,3.495,-19.345,-0.466,1.771,7.965,-0.064,0.972,-0.169,-0.519,-1.282,0.854,73.333,628580.000,1.000
0.161,0.679,-1.950,2.323,-21.156,-2.712,-1.688,4.308,-0.064,0.971,-0.170,-0.488,-1.373,0.763,73.333,628581.000,1.000
0.524,0.390,-2.679,1.187,-21.818,-0.407,-1.495,0.876,-0.064,0.972,-0.168,-0.519,-1.251,0.671,73.333,628582.000,1.000
0.791,1.453,-2.347,0.295,-21.255,4.886,1.391,-1.072,-0.064,0.976,-0.169,-0.610,-1.251,0.641,73.333,628583.000,1.000
0.745,3.066,-1.362,-0.414,-20.317,9.435,3.851,-1.243,-0.064,0.977,-0.167,-0.549,-1.221,0.549,73.333,628584.000,1.000
0.170,4.355,-0.234,-1.087,-19.874,10.560,3.721,-0.259,-0.063,0.976,-0.165,-0.641,-1.251,0.549,73.333,628585.000,1.000
-1.007,4.879,0.622,-1.835,-20.207,8.561,1.615,0.766,-0.062,0.976,-0.172,-0.702,-1.160,0.549,73.333,628586.000,1.000
-2.654,4.669,1.069,-2.643,-21.237,5.761,-0.315,0.934,-0.058,0.975,-0.172,-0.763,-1.190,0.610,73.333,628587.000,1.000
-4.391,4.053,1.195,-3.330,-22.806,4.178,-0.789,0.124,-0.056,0.972,-0.168,-0.671,-1.099,0.641,73.333,628588.000,1.000
-5.669,3.430,1.287,-3.571,-24.588,4.038,-0.201,-0.987,-0.057,0.970,-0.172,-0.702,-1.007,0.732,73.333,628589.000,1.000
-6.079,3.056,1.617,-3.066,-26.005,4.287,0.621,-1.350,-0.058,0.970,-0.172,-0.702,-0.946,0.854,73.333,628590.000,1.000
-5.637,3.063,2.234,-1.734,-26.370,4.430,1.895,-0.130,-0.060,0.968,-0.173,-0.641,-0.793,0.854,73.333,628591.000,1.000
-4.707,3.506,3.069,0.161,-25.365,5.045,4.456,2.552,-0.061,0.969,-0.172,-0.580,-0.732,0.854,73.333,628592.000,1.000
-3.719,4.259,3.883,2.019,-23.400,6.364,8.112,5.340,-0.063,0.972,-0.172,-0.397,-0.732,0.916,73.333,628593.000,1.000
-2.913,5.063,4.450,3.290,-21.224,7.589,11.486,6.774,-0.063,0.974,-0.172,-0.397,-0.763,1.007,73.333,628594.000,1.000
-2.294,5.678,4.692,3.827,-19.361,7.815,12.990,6.502,-0.062,0.976,-0.172,-0.397,-0.763,1.068,73.333,628595.000,1.000
-1.814,5.859,4.502,3.765,-18.142,6.901,11.609,5.034,-0.061,0.976,-0.171,-0.580,-0.702,1.068,73.333,628596.000,1.000
-1.522,5.350,3.760,3.223,-17.886,5.509,7.752,2.935,-0.061,0.975,-0.172,-0.702,-0.580,1.190,73.333,628597.000,1.000
-1.461,4.051,2.457,2.271,-18.667,4.660,3.488,0.722,-0.060,0.975,-0.177,-0.732,-0.580,1.343,73.333,628598.000,1.000
-1.514,2.145,0.916,1.067,-20.153,4.883,1.144,-0.925,-0.059,0.975,-0.178,-0.732,-0.549,1.373,73.333,628599.000,1.000
-1.557,-0.060,-0.483,-0.243,-21.953,5.300,1.211,-1.416,-0.060,0.973,-0.176,-0.763,-0.641,1.312,73.333,628600.000,1.000
-1.661,-2.246,-1.684,-1.631,-23.824,4.196,2.216,-0.509,-0.062,0.975,-0.174,-0.641,-0.549,1.251,73.333,628601.000,1.000
-1.942,-4.021,-2.655,-3.036,-25.403,1.010,2.766,1.660,-0.063,0.975,-0.172,-0.732,-0.488,1.221,73.333,628602.000,1.000
-2.319,-5.059,-3.285,-4.333,-26.282,-3.030,2.387,4.169,-0.063,0.976,-0.171,-0.793,-0.549,1.160,73.333,628603.000,1.000
-2.480,-5.307,-3.485,-5.475,-26.358,-6.205,0.712,5.286,-0.064,0.976,-0.171,-0.793,-0.488,1.068,73.333,628604.000,1.000
-2.018,-4.815,-3.204,-6.390,-25.557,-7.195,-2.290,3.697,-0.066,0.977,-0.174,-0.885,-0.580,0.977,73.333,628605.000,1.000
-0.670,-3.491,-2.365,-6.802,-23.390,-5.240,-5.242,-0.249,-0.066,0.977,-0.173,-0.885,-0.580,0.824,73.333,628606.000,1.000
1.274,-1.407,-0.994,-6.531,-19.534,-0.757,-6.054,-4.885,-0.067,0.979,-0.172,-0.977,-0.610,0.671,73.333,628607.000,1.000
2.891,0.833,0.444,-5.864,-14.635,4.317,-4.081,-8.568,-0.067,0.978,-0.170,-1.068,-0.702,0.488,73.333,628608.000,1.000
3.304,2.472,1.434,-5.245,-9.922,7.576,-0.640,-10.251,-0.066,0.979,-0.173,-1.251,-0.763,0.305,73.333,628609.000,1.000
2.466,3.251,1.955,-4.745,-6.227,7.636,2.490,-9.412,-0.067,0.979,-0.170,-1.343,-0.885,0.244,73.333,628610.000,1.000
1.138,3.424,2.355,-4.083,-3.617,4.759,4.230,-6.274,-0.065,0.979,-0.171,-1.373,-1.007,0.244,73.333,628611.000,1.000
0.218,3.351,2.979,-2.999,-1.560,0.507,4.211,-1.929,-0.063,0.977,-0.172,-1.465,-1.007,0.122,73.333,628612.000,1.000
0.069,3.206,3.829,-1.507,0.756,-3.047,2.552,2.166,-0.062,0.977,-0.172,-1.495,-0.977,0.061,73.333,628613.000,1.000
0.398,2.959,4.690,0.127,3.952,-4.205,0.083,4.886,-0.062,0.977,-0.171,-1.617,-1.007,0.061,73.333,628614.000,1.000
0.698,2.589,5.358,1.531,8.134,-2.346,-1.696,5.847,-0.063,0.977,-0.170,-1.556,-0.977,0.000,73.333,628615.000,1.000
0.762,2.261,5.748,2.425,13.079,1.883,-1.366,5.477,-0.062,0.974,-0.169,-1.648,-1.038,-0.031,73.333,628616.000,1.000
0.756,2.173,5.983,2.738,18.541,6.870,1.498,4.669,-0.061,0.972,-0.168,-1.648,-1.068,-0.031,73.333,628617.000,1.000
0.975,2.281,6.151,2.601,24.268,10.570,5.657,4.120,-0.063,0.971,-0.168,-1.648,-1.007,0.153,73.333,628618.000,1.000
1.641,2.271,6.190,2.291,29.925,11.182,8.518,3.925,-0.063,0.971,-0.168,-1.373,-0.977,0.214,73.333,628619.000,1.000
2.792,1.799,5.978,2.099,35.061,8.118,8.087,3.775,-0.064,0.970,-0.167,-1.373,-1.038,0.244,73.333,628620.000,1.000
4.329,0.853,5.476,2.196,39.161,2.631,4.845,3.516,-0.063,0.972,-0.166,-1.343,-1.129,0.275,73.333,628621.000,1.000
6.116,-0.106,4.863,2.604,41.842,-2.888,1.138,3.356,-0.065,0.971,-0.167,-1.282,-1.099,0.336,73.333,628622.000,1.000
7.897,-0.499,4.210,3.140,43.004,-6.398,-1.216,3.361,-0.068,0.969,-0.169,-1.190,-1.129,0.458,73.333,628623.000,1.000
9.184,-0.167,3.297,3.408,42.730,-7.143,-2.116,3.038,-0.069,0.970,-0.170,-1.099,-1.282,0.610,73.333,628624.000,1.000
9.448,0.515,1.848,3.027,41.281,-5.531,-2.362,1.816,-0.068,0.967,-0.169,-1.068,-1.343,0.641,73.333,628625.000,1.000
8.583,1.128,0.011,2.069,39.401,-2.378,-2.314,-0.015,-0.065,0.968,-0.168,-0.977,-1.495,0.702,73.333,628626.000,1.000
7.136,1.618,-1.454,1.151,38.191,1.436,-1.598,-1.239,-0.066,0.968,-0.167,-1.007,-1.434,0.702,73.333,628627.000,1.000
5.881,2.064,-1.909,0.810,38.117,4.636,-0.151,-0.965,-0.065,0.967,-0.166,-0.946,-1.526,0.793,73.333,628628.000,1.000
5.228,2.358,-1.394,0.921,38.480,5.906,1.270,0.374,-0.065,0.966,-0.168,-0.946,-1.587,0.854,73.333,628629.000,1.000
5.091,2.400,-0.436,0.895,38.383,5.244,2.132,1.500,-0.063,0.964,-0.169,-0.916,-1.617,0.885,73.333,628630.000,1.000
5.183,2.394,0.412,0.304,37.773,4.124,2.686,1.354,-0.064,0.967,-0.167,-0.763,-1.587,0.824,73.333,628631.000,1.000
5.241,2.634,0.880,-0.836,37.136,3.623,2.925,-0.493,-0.064,0.966,-0.170,-0.580,-1.709,0.824,73.333,628632.000,1.000
5.016,3.147,0.864,-2.197,36.787,3.269,2.133,-3.707,-0.062,0.967,-0.170,-0.580,-1.617,0.885,73.333,628633.000,1.000
4.329,3.726,0.473,-3.277,36.763,2.273,0.281,-7.057,-0.060,0.969,-0.166,-0.458,-1.587,0.916,73.333,628634.000,1.000
3.224,4.125,0.048,-3.592,36.808,0.959,-1.220,-8.966,-0.060,0.970,-0.167,-0.458,-1.587,1.007,73.333,628635.000,1.000
2.047,4.150,-0.027,-2.874,36.297,0.269,-0.874,-8.433,-0.060,0.972,-0.169,-0.519,-1.495,0.977,73.333,628636.000,1.000
1.289,3.705,0.545,-1.111,34.587,0.437,1.370,-5.351,-0.059,0.972,-0.169,-0.458,-1.373,1.038,73.333,628637.000,1.000
1.180,2.836,1.684,1.374,31.667,1.025,4.228,-0.512,-0.058,0.973,-0.169,-0.488,-1.282,1.007,73.333,628638.000,1.000
1.420,1.752,2.923,3.885,28.476,2.001,6.535,4.401,-0.058,0.975,-0.169,-0.580,-1.251,1.038,73.333,628639.000,1.000
1.391,0.645,3.671,5.538,26.361,3.701,8.029,7.359,-0.060,0.973,-0.169,-0.641,-1.190,1.129,73.333,628640.000,1.000
0.661,-0.591,3.474,5.698,25.986,5.496,8.483,7.032,-0.061,0.971,-0.168,-0.671,-1.129,1.190,73.333,628641.000,1.000
-0.742,-2.340,2.233,4.256,26.693,5.450,6.912,3.361,-0.060,0.972,-0.167,-0.671,-0.977,1.160,73.333,628642.000,1.000
-2.390,-4.811,0.152,1.656,27.135,2.090,2.657,-2.361,-0.059,0.973,-0.170,-0.671,-0.824,1.007,73.333,628643.000,1.000
-3.594,-7.549,-2.160,-1.193,26.556,-3.851,-2.997,-7.751,-0.058,0.972,-0.171,-0.732,-0.763,1.007,73.333,628644.000,1.000
-3.735,-9.684,-3.919,-3.402,25.075,-10.427,-8.040,-10.739,-0.059,0.974,-0.173,-0.702,-0.732,1.007,73.333,628645.000,1.000
-2.740,-10.716,-4.788,-4.769,23.012,-16.594,-12.231,-11.203,-0.058,0.974,-0.171,-0.732,-0.671,1.038,73.333,628646.000,1.000
-1.089,-10.633,-4.825,-5.696,20.848,-21.839,-16.265,-10.686,-0.059,0.976,-0.173,-0.763,-0.641,1.007,73.333,628647.000,1.000
0.719,-9.406,-4.059,-6.406,19.760,-24.509,-19.148,-10.390,-0.057,0.976,-0.172,-0.824,-0.397,0.977,73.333,628648.000,1.000
2.507,-6.962,-2.333,-6.547,21.241,-22.574,-18.468,-9.919,-0.055,0.979,-0.173,-0.763,-0.488,1.099,73.333,628649.000,1.000
4.161,-3.722,0.228,-5.731,25.815,-16.007,-13.342,-8.155,-0.056,0.979,-0.172,-0.885,-0.336,0.977,73.333,628650.000,1.000
5.358,-0.722,2.798,-4.171,32.266,-7.565,-5.961,-4.999,-0.057,0.980,-0.170,-0.946,-0.122,1.007,73.333,628651.000,1.000
5.669,0.910,4.252,-2.705,38.080,-1.214,-0.145,-1.949,-0.056,0.980,-0.170,-1.068,0.031,1.007,73.333,628652.000,1.000
4.837,0.613,3.817,-2.287,40.736,0.430,1.237,-0.994,-0.056,0.981,-0.171,-1.068,0.092,0.916,73.333,628653.000,1.000
2.985,-1.242,1.657,-3.283,39.112,-2.454,-2.027,-2.784,-0.060,0.982,-0.171,-1.221,0.092,0.824,73.333,628654.000,1.000
0.562,-3.532,-1.122,-5.152,33.965,-7.407,-7.605,-6.003,-0.060,0.983,-0.168,-1.160,0.122,0.763,73.333,628655.000,1.000
-1.885,-4.963,-3.124,-6.855,27.213,-10.907,-11.942,-8.516,-0.060,0.983,-0.169,-1.373,0.122,0.793,73.333,628656.000,1.000
-3.875,-4.696,-3.324,-7.506,20.666,-9.923,-12.007,-8.850,-0.062,0.984,-0.169,-1.434,-0.031,0.732,73.333,628657.000,1.000
-5.084,-2.818,-1.686,-6.816,15.040,-4.238,-7.297,-6.864,-0.062,0.981,-0.166,-1.556,0.031,0.732,73.333,628658.000,1.000
-5.426,-0.341,0.819,-5.156,9.793,2.880,-0.566,-3.696,-0.062,0.979,-0.168,-1.740,0.092,0.763,73.333,628659.000,1.000
-5.108,1.394,2.811,-3.325,3.903,7.191,3.871,-1.220,-0.063,0.977,-0.166,-1.801,0.000,0.702,73.333,628660.000,1.000
-4.533,1.597,3.283,-2.026,-2.873,6.586,3.179,-0.822,-0.060,0.972,-0.168,-1.617,0.000,0.732,73.333,628661.000,1.000
-4.091,0.532,2.230,-1.385,-9.453,2.177,-1.864,-2.187,-0.060,0.971,-0.168,-1.495,-0.031,0.885,73.333,628662.000,1.000
-3.988,-0.756,0.441,-0.991,-14.166,-2.686,-7.419,-3.501,-0.061,0.973,-0.170,-1.404,-0.153,0.916,73.333,628663.000,1.000
-4.204,-1.256,-1.107,-0.342,-15.918,-4.835,-9.536,-2.953,-0.062,0.972,-0.168,-1.282,-0.092,0.977,73.333,628664.000,1.000
-4.637,-0.852,-1.923,0.611,-14.951,-3.940,-7.660,-0.419,-0.063,0.973,-0.164,-1.190,-0.183,0.977,73.333,628665.000,1.000
-5.249,-0.407,-2.364,1.286,-12.745,-2.696,-5.226,2.043,-0.061,0.971,-0.163,-1.190,-0.244,1.190,73.333,628666.000,1.000
-5.992,-0.856,-3.133,0.936,-10.999,-3.869,-6.131,1.701,-0.061,0.970,-0.165,-1.251,-0.336,1.282,73.333,628667.000,1.000
-6.661,-2.293,-4.613,-0.686,-10.424,-7.660,-11.162,-2.512,-0.060,0.964,-0.166,-1.099,-0.458,1.404,73.333,628668.000,1.000
-6.856,-3.805,-6.373,-2.986,-10.250,-11.676,-17.517,-8.977,-0.060,0.963,-0.166,-0.946,-0.519,1.434,73.333,628669.000,1.000
-6.158,-4.054,-7.351,-4.807,-8.837,-12.604,-20.870,-14.510,-0.060,0.963,-0.165,-0.763,-0.549,1.465,73.333,628670.000,1.000
-4.438,-2.214,-6.670,-5.141,-5.031,-8.370,-18.347,-16.397,-0.063,0.963,-0.168,-0.610,-0.580,1.465,73.333,628671.000,1.000
-2.060,1.247,-4.268,-3.791,0.787,0.134,-10.672,-13.868,-0.067,0.963,-0.165,-0.214,-0.824,1.404,73.333,628672.000,1.000
0.185,4.585,-1.095,-1.594,6.800,8.912,-2.235,-8.510,-0.068,0.965,-0.165,0.031,-1.038,1.190,73.333,628673.000,1.000
1.525,5.881,1.561,0.139,11.080,13.093,1.708,-3.271,-0.070,0.969,-0.164,0.092,-1.160,1.068,73.333,628674.000,1.000
1.760,4.460,3.078,0.657,13.166,10.512,-0.925,-0.412,-0.069,0.968,-0.166,0.183,-1.404,0.916,73.333,628675.000,1.000
1.412,1.326,3.806,0.323,14.317,3.415,-7.560,-0.119,-0.070,0.969,-0.167,0.153,-1.556,0.702,73.333,628676.000,1.000
1.402,-1.671,4.673,0.147,16.129,-3.451,-13.384,-0.971,-0.068,0.970,-0.167,0.214,-1.740,0.580,73.333,628677.000,1.000
2.532,-2.970,6.453,0.925,19.062,-6.175,-14.935,-1.431,-0.068,0.968,-0.174,0.305,-1.984,0.488,73.333,628678.000,1.000
4.998,-2.007,9.281,2.730,22.063,-3.800,-11.822,-0.818,-0.065,0.969,-0.169,0.275,-2.136,0.275,73.333,628679.000,1.000
8.144,0.504,12.378,4.858,23.108,1.257,-6.479,0.552,-0.064,0.971,-0.169,0.336,-2.319,0.244,73.333,628680.000,1.000
10.829,3.005,14.278,6.232,20.372,4.671,-2.649,1.745,-0.064,0.972,-0.171,0.336,-2.472,0.061,73.333,628681.000,1.000
12.296,4.243,13.984,6.219,13.649,3.435,-2.751,1.950,-0.064,0.971,-0.169,0.427,-2.625,-0.122,73.333,628682.000,1.000
12.716,4.128,11.830,5.172,4.923,-1.697,-5.978,1.087,-0.063,0.970,-0.173,0.488,-2.655,-0.153,73.333,628683.000,1.000
12.848,3.543,9.211,4.175,-2.669,-6.959,-9.003,-0.085,-0.063,0.972,-0.172,0.488,-2.716,-0.214,73.333,628684.000,1.000
13.235,3.500,7.433,4.169,-6.750,-8.493,-8.522,-0.466,-0.062,0.973,-0.177,0.519,-2.777,-0.244,73.333,628685.000,1.000
13.813,4.443,6.751,5.243,-6.999,-4.886,-3.541,0.616,-0.062,0.973,-0.177,0.549,-2.747,-0.214,73.333,628686.000,1.000
14.142,5.953,6.533,6.678,-5.107,1.916,3.956,2.948,-0.060,0.972,-0.173,0.366,-2.808,-0.244,73.333,628687.000,1.000
13.781,6.892,5.923,7.474,-3.785,7.722,10.009,5.418,-0.060,0.974,-0.175,0.397,-2.747,-0.244,73.333,628688.000,1.000
12.497,6.063,4.419,6.829,-5.559,8.683,10.870,6.349,-0.060,0.976,-0.174,0.458,-2.777,-0.244,73.333,628689.000,1.000
10.428,3.088,2.028,4.522,-11.500,3.810,5.456,4.502,-0.061,0.977,-0.173,0.397,-2.747,-0.244,73.333,628690.000,1.000
8.193,-1.029,-0.700,1.335,-20.105,-4.029,-3.198,0.664,-0.061,0.978,-0.173,0.305,-2.808,-0.153,73.333,628691.000,1.000
6.650,-4.335,-2.635,-1.129,-27.707,-9.785,-9.303,-2.296,-0.062,0.978,-0.174,0.305,-2.808,-0.061,73.333,628692.000,1.000
6.240,-5.411,-2.870,-1.739,-31.163,-10.056,-8.938,-2.297,-0.062,0.978,-0.175,0.122,-2.716,-0.092,73.333,628693.000,1.000
6.581,-4.491,-1.648,-0.886,-30.408,-5.698,-3.645,-0.536,-0.063,0.977,-0.173,0.092,-2.563,-0.061,73.333,628694.000,1.000
6.760,-3.027,-0.215,0.053,-27.986,-0.489,1.468,0.072,-0.063,0.978,-0.172,-0.061,-2.686,0.061,73.333,628695.000,1.000
6.005,-2.331,0.189,0.054,-26.341,2.533,2.717,-1.639,-0.064,0.977,-0.176,-0.092,-2.594,0.000,73.333,628696.000,1.000
4.173,-2.758,-0.754,-0.970,-26.118,2.884,-0.016,-4.345,-0.065,0.977,-0.173,-0.153,-2.655,0.031,73.333,628697.000,1.000
1.681,-3.941,-2.591,-2.622,-26.672,1.414,-4.936,-6.364,-0.065,0.976,-0.174,-0.305,-2.563,-0.031,73.333,628698.000,1.000
-0.870,-5.323,-4.678,-4.530,-27.223,-1.041,-9.855,-7.293,-0.063,0.974,-0.174,-0.427,-2.655,-0.092,73.333,628699.000,1.000
-3.001,-6.449,-6.533,-6.435,-27.382,-3.639,-12.790,-7.899,-0.063,0.974,-0.176,-0.366,-2.472,-0.031,73.333,628700.000,1.000
-4.516,-7.211,-8.055,-8.186,-27.210,-5.787,-13.245,-9.281,-0.062,0.974,-0.175,-0.305,-2.411,-0.092,73.333,628701.000,1.000
-5.597,-7.899,-9.335,-9.695,-26.830,-7.470,-12.349,-11.814,-0.061,0.974,-0.174,-0.275,-2.350,-0.153,73.333,628702.000,1.000
-6.560,-8.665,-10.299,-10.666,-25.668,-8.361,-10.848,-14.279,-0.061,0.974,-0.177,-0.275,-2.228,-0.122,73.333,628703.000,1.000
-7.413,-9.125,-10.499,-10.481,-22.562,-7.576,-8.156,-14.375,-0.063,0.973,-0.176,-0.305,-2.075,-0.153,73.333,628704.000,1.000
-7.845,-8.836,-9.516,-8.763,-17.105,-5.174,-3.968,-10.687,-0.061,0.972,-0.176,-0.397,-2.045,-0.031,73.333,628705.000,1.000
-7.720,-7.954,-7.588,-6.010,-10.504,-2.799,0.469,-4.169,-0.062,0.971,-0.174,-0.366,-1.862,-0.122,73.333,628706.000,1.000
-7.441,-7.212,-5.544,-3.440,-4.829,-2.284,3.362,2.467,-0.065,0.970,-0.178,-0.305,-1.801,0.000,73.333,628707.000,1.000
-7.730,-7.344,-4.424,-2.176,-1.565,-4.255,3.913,6.833,-0.063,0.970,-0.178,-0.275,-1.556,0.031,73.333,628708.000,1.000
-9.010,-8.530,-4.896,-2.530,-0.779,-7.854,2.732,8.438,-0.064,0.969,-0.176,-0.244,-1.465,0.000,73.333,628709.000,1.000
-11.007,-10.249,-6.794,-4.053,-1.415,-11.226,1.121,8.169,-0.063,0.969,-0.177,-0.153,-1.404,0.092,73.333,628710.000,1.000
-12.881,-11.614,-9.196,-6.048,-2.275,-12.577,-0.090,6.692,-0.064,0.969,-0.176,-0.061,-1.282,0.122,73.333,628711.000,1.000
-13.780,-11.897,-10.955,-7.899,-2.733,-11.202,-0.899,4.077,-0.066,0.969,-0.174,0.000,-1.221,0.153,73.333,628712.000,1.000
-13.415,-10.943,-11.606,-9.185,-2.784,-7.620,-1.481,0.605,-0.068,0.970,-0.175,0.031,-1.190,0.153,73.333,628713.000,1.000
-12.155,-9.233,-11.606,-9.791,-2.809,-3.260,-1.804,-2.868,-0.067,0.973,-0.177,0.031,-1.099,0.092,73.333,628714.000,1.000
-10.587,-7.521,-11.585,-9.871,-3.297,-0.087,-2.067,-5.358,-0.065,0.972,-0.175,-0.031,-1.099,0.153,73.333,628715.000,1.000
-9.091,-6.199,-11.587,-9.631,-4.340,0.630,-2.427,-6.190,-0.066,0.972,-0.174,-0.061,-1.068,0.214,73.333,628716.000,1.000
-7.739,-5.027,-11.069,-9.152,-5.334,-0.267,-1.940,-5.096,-0.067,0.970,-0.177,-0.031,-0.946,0.336,73.333,628717.000,1.000
-6.455,-3.557,-9.761,-8.461,-5.480,-0.497,0.584,-2.378,-0.066,0.972,-0.177,0.000,-0.946,0.305,73.333,628718.000,1.000
-5.178,-1.739,-8.106,-7.658,-4.578,1.306,4.550,1.025,-0.066,0.974,-0.176,-0.061,-1.007,0.305,73.333,628719.000,1.000
-3.988,-0.011,-6.779,-6.897,-3.148,4.527,7.923,3.884,-0.066,0.975,-0.174,-0.153,-0.977,0.397,73.333,628720.000,1.000
-3.035,1.177,-6.050,-6.239,-1.839,7.728,9.359,5.235,-0.066,0.976,-0.174,-0.366,-0.885,0.397,73.333,628721.000,1.000
-2.366,1.738,-5.651,-5.619,-1.016,9.724,8.725,4.695,-0.066,0.976,-0.176,-0.427,-0.854,0.488,73.333,628722.000,1.000
-1.867,1.944,-5.278,-4.982,-0.753,9.679,6.220,2.431,-0.066,0.976,-0.174,-0.488,-0.885,0.458,73.333,628723.000,1.000
-1.279,2.394,-4.680,-4.172,-0.630,7.737,2.752,-0.694,-0.068,0.973,-0.170,-0.732,-0.793,0.519,73.333,628724.000,1.000
-0.365,3.687,-3.512,-2.911,0.149,5.328,0.194,-3.203,-0.070,0.974,-0.176,-0.702,-0.824,0.580,73.333,628725.000,1.000
0.722,5.671,-1.793,-1.261,1.807,3.723,-0.249,-4.009,-0.070,0.975,-0.176,-0.763,-0.916,0.580,73.333,628726.000,1.000
1.406,7.339,-0.146,0.157,3.560,3.011,0.982,-3.248,-0.069,0.974,-0.173,-0.732,-0.916,0.610,73.333,628727.000,1.000
1.157,7.769,0.580,0.667,4.448,2.868,2.783,-1.844,-0.071,0.974,-0.176,-0.885,-0.977,0.580,73.333,628728.000,1.000
0.016,7.033,0.126,0.247,4.328,3.376,4.647,-0.331,-0.069,0.973,-0.176,-0.854,-0.977,0.641,73.333,628729.000,1.000
-1.371,5.975,-0.834,-0.396,3.806,4.656,6.722,1.571,-0.069,0.972,-0.173,-0.946,-0.946,0.641,73.333,628730.000,1.000
-2.313,5.173,-1.407,-0.599,3.193,5.942,8.536,3.833,-0.068,0.972,-0.174,-0.977,-0.977,0.671,73.333,628731.000,1.000
-2.707,4.330,-1.389,-0.541,1.810,5.399,8.123,4.929,-0.068,0.974,-0.173,-1.038,-0.977,0.671,73.333,628732.000,1.000
-3.022,2.788,-1.432,-1.030,-1.224,1.510,3.399,2.836,-0.067,0.971,-0.172,-1.038,-1.099,0.610,73.333,628733.000,1.000
-3.653,0.530,-2.168,-2.422,-5.521,-4.998,-5.012,-2.487,-0.067,0.970,-0.173,-1.007,-1.160,0.641,73.333,628734.000,1.000
-4.431,-1.533,-3.396,-4.001,-9.108,-10.902,-12.986,-8.350,-0.067,0.972,-0.172,-1.038,-1.068,0.580,73.333,628735.000,1.000
-4.825,-2.345,-4.367,-4.542,-9.901,-12.727,-15.949,-11.307,-0.066,0.971,-0.172,-1.038,-1.099,0.488,73.333,628736.000,1.000
-4.503,-1.694,-4.497,-3.395,-7.432,-9.486,-12.589,-9.705,-0.067,0.972,-0.171,-0.977,-1.221,0.671,73.333,628737.000,1.000
-3.689,-0.409,-3.951,-1.102,-3.052,-3.159,-5.331,-4.709,-0.066,0.973,-0.171,-1.099,-1.129,0.641,73.333,628738.000,1.000
-3.027,0.316,-3.481,0.953,1.264,3.136,2.022,0.841,-0.063,0.971,-0.171,-1.129,-1.099,0.488,73.333,628739.000,1.000
-3.136,-0.294,-3.762,1.537,4.038,7.123,6.647,4.597,-0.064,0.973,-0.173,-1.160,-1.007,0.610,73.333,628740.000,1.000
-4.217,-2.237,-4.967,0.436,4.684,8.152,7.833,5.971,-0.065,0.974,-0.173,-1.129,-1.007,0.488,73.333,628741.000,1.000
-5.967,-4.792,-6.638,-1.456,3.464,7.073,7.010,5.749,-0.065,0.975,-0.174,-1.221,-0.977,0.580,73.333,628742.000,1.000
-7.719,-6.945,-8.030,-2.797,1.211,5.487,6.327,5.006,-0.063,0.974,-0.173,-1.221,-0.977,0.610,73.333,628743.000,1.000
-8.820,-8.119,-8.640,-2.743,-1.305,4.295,6.521,4.324,-0.065,0.975,-0.173,-1.404,-1.038,0.519,73.333,628744.000,1.000
-9.139,-8.668,-8.635,-1.576,-3.973,2.851,6.237,3.423,-0.064,0.975,-0.169,-1.404,-0.885,0.549,73.333,628745.000,1.000
-9.075,-9.357,-8.675,-0.332,-6.959,0.210,3.823,1.739,-0.064,0.976,-0.170,-1.373,-0.854,0.610,73.333,628746.000,1.000
-8.848,-10.198,-8.857,0.438,-9.612,-2.863,0.025,-0.087,-0.064,0.975,-0.170,-1.404,-0.763,0.641,73.333,628747.000,1.000
-8.131,-10.114,-8.307,1.291,-10.275,-3.606,-1.533,0.033,-0.064,0.974,-0.168,-1.404,-0.793,0.610,73.333,628748.000,1.000
-6.568,-8.059,-6.068,3.087,-7.777,0.251,2.446,3.474,-0.062,0.975,-0.169,-1.526,-0.671,0.610,73.333,628749.000,1.000
-4.514,-4.560,-2.455,5.663,-3.246,6.830,10.244,8.579,-0.064,0.973,-0.169,-1.556,-0.519,0.610,73.333,628750.000,1.000
-3.054,-1.748,0.692,7.636,0.275,10.288,15.262,11.500,-0.063,0.972,-0.172,-1.617,-0.488,0.763,73.333,628751.000,1.000
-3.148,-1.550,1.646,7.748,0.548,6.345,12.530,9.833,-0.064,0.972,-0.172,-1.587,-0.549,0.854,73.333,628752.000,1.000
-4.883,-4.212,0.173,5.948,-2.159,-3.633,3.289,4.560,-0.065,0.972,-0.171,-1.617,-0.458,0.824,73.333,628753.000,1.000
-7.570,-8.564,-2.707,3.044,-6.059,-14.585,-7.226,-1.622,-0.062,0.972,-0.170,-1.587,-0.366,0.854,73.333,628754.000,1.000
-10.326,-12.988,-5.768,-0.071,-9.375,-21.714,-14.109,-6.550,-0.063,0.972,-0.167,-1.556,-0.366,0.885,73.333,628755.000,1.000
-12.399,-15.945,-8.233,-2.679,-10.843,-22.384,-14.791,-9.115,-0.061,0.974,-0.167,-1.465,-0.336,0.977,73.333,628756.000,1.000
-13.252,-16.433,-9.628,-4.246,-10.132,-16.935,-9.587,-9.019,-0.063,0.975,-0.167,-1.404,-0.214,1.007,73.333,628757.000,1.000
-12.756,-14.653,-9.863,-4.692,-8.534,-8.956,-1.971,-6.956,-0.060,0.974,-0.167,-1.373,-0.153,1.038,73.333,628758.000,1.000
-11.284,-11.897,-9.337,-4.439,-8.314,-2.958,3.487,-4.398,-0.062,0.972,-0.168,-1.221,-0.214,1.007,73.333,628759.000,1.000
-9.432,-9.378,-8.587,-3.949,-10.564,-0.674,4.839,-2.568,-0.061,0.974,-0.169,-1.221,-0.153,1.038,73.333,628760.000,1.000
-7.678,-7.393,-7.989,-3.317,-14.066,-0.493,3.552,-1.689,-0.060,0.975,-0.172,-1.190,-0.153,1.068,73.333,628761.000,1.000
-6.263,-5.644,-7.639,-2.337,-16.366,-0.218,2.192,-1.030,-0.061,0.974,-0.167,-1.190,-0.153,1.038,73.333,628762.000,1.000
-5.236,-3.883,-7.443,-0.795,-15.614,1.048,2.563,0.515,-0.061,0.975,-0.165,-1.160,-0.092,1.068,73.333,628763.000,1.000
-4.550,-2.101,-7.160,1.311,-11.712,3.395,5.296,3.536,-0.061,0.974,-0.165,-1.221,-0.092,1.129,73.333,628764.000,1.000
-4.122,-0.492,-6.541,3.663,-6.449,6.596,9.791,7.375,-0.061,0.974,-0.167,-1.251,-0.092,1.190,73.333,628765.000,1.000
-3.810,0.704,-5.594,5.765,-2.423,9.867,14.605,10.533,-0.061,0.972,-0.168,-1.190,0.000,1.190,73.333,628766.000,1.000
-3.408,1.388,-4.482,7.248,-1.415,12.026,18.168,11.828,-0.063,0.973,-0.169,-1.221,0.122,1.190,73.333,628767.000,1.000
-2.847,1.473,-3.595,7.805,-3.725,11.610,18.461,10.777,-0.064,0.972,-0.166,-1.190,0.122,1.129,73.333,628768.000,1.000
-2.378,0.690,-3.564,7.063,-8.458,7.224,13.513,7.520,-0.063,0.973,-0.169,-1.190,0.183,1.160,73.333,628769.000,1.000
-2.303,-0.939,-4.630,5.004,-13.712,-0.674,4.087,3.119,-0.062,0.972,-0.168,-1.099,0.061,1.160,73.333,628770.000,1.000
-2.462,-2.541,-6.099,2.441,-17.049,-8.692,-5.395,-0.569,-0.063,0.974,-0.168,-1.068,0.000,1.160,73.333,628771.000,1.000
-2.245,-2.868,-6.644,0.686,-16.752,-12.708,-10.020,-1.935,-0.063,0.974,-0.168,-1.129,0.092,1.129,73.333,628772.000,1.000
-1.157,-1.349,-5.398,0.632,-12.858,-10.924,-8.067,-0.612,-0.064,0.972,-0.166,-1.099,0.092,1.190,73.333,628773.000,1.000
0.801,1.552,-2.516,2.215,-6.940,-4.483,-1.398,2.436,-0.063,0.973,-0.168,-1.068,0.061,1.099,73.333,628774.000,1.000
3.144,4.649,1.024,4.523,-1.213,3.523,6.266,5.458,-0.064,0.974,-0.171,-0.946,0.061,1.068,73.333,628775.000,1.000
5.114,6.580,3.802,6.270,2.281,9.243,10.872,6.739,-0.063,0.974,-0.171,-0.946,0.031,1.099,73.333,628776.000,1.000
6.083,6.565,4.762,6.473,2.440,9.878,9.757,5.486,-0.063,0.973,-0.171,-0.763,0.000,1.007,73.333,628777.000,1.000
5.901,4.843,3.823,4.944,-0.465,5.056,3.088,2.097,-0.061,0.972,-0.171,-0.763,-0.031,0.916,73.333,628778.000,1.000
4.932,2.467,1.889,2.352,-4.866,-3.168,-5.991,-2.091,-0.062,0.973,-0.171,-0.793,0.000,0.977,73.333,628779.000,1.000
3.922,0.853,0.438,-0.062,-8.354,-10.987,-12.618,-5.171,-0.063,0.974,-0.171,-0.641,-0.092,0.946,73.333,628780.000,1.000
3.710,1.146,0.589,-1.128,-8.812,-14.577,-12.960,-5.580,-0.063,0.973,-0.167,-0.671,-0.031,0.854,73.333,628781.000,1.000
4.695,3.460,2.362,-0.489,-5.750,-12.431,-6.667,-3.208,-0.063,0.973,-0.166,-0.732,-0.092,0.854,73.333,628782.000,1.000
6.566,6.774,4.806,1.322,-0.444,-5.870,3.261,0.629,-0.062,0.974,-0.168,-0.610,-0.153,0.793,73.333,628783.000,1.000
8.678,9.772,6.947,3.589,5.273,2.494,12.812,4.447,-0.063,0.973,-0.169,-0.580,-0.214,0.702,73.333,628784.000,1.000
10.507,11.670,8.478,5.928,10.023,10.088,19.013,7.505,-0.063,0.973,-0.171,-0.702,-0.183,0.702,73.333,628785.000,1.000
11.664,12.253,9.353,8.068,12.885,14.802,20.517,9.460,-0.064,0.973,-0.168,-0.641,-0.214,0.702,73.333,628786.000,1.000
11.841,11.603,9.420,9.545,13.273,15.648,17.751,9.751,-0.063,0.973,-0.165,-0.671,-0.244,0.702,73.333,628787.000,1.000
11.026,10.124,8.694,9.909,11.361,13.347,12.785,7.848,-0.062,0.973,-0.166,-0.641,-0.305,0.641,73.333,628788.000,1.000
9.683,8.529,7.754,9.192,8.302,9.634,8.116,4.180,-0.062,0.973,-0.169,-0.458,-0.549,0.580,73.333,628789.000,1.000
8.546,7.459,7.501,8.042,5.637,5.927,4.937,0.523,-0.064,0.973,-0.171,-0.519,-0.458,0.732,73.333,628790.000,1.000
8.147,7.111,8.333,7.235,4.378,2.882,2.722,-1.117,-0.062,0.972,-0.173,-0.610,-0.519,0.671,73.333,628791.000,1.000
8.423,7.185,9.818,6.958,4.415,0.610,0.386,-0.409,-0.063,0.971,-0.172,-0.732,-0.549,0.641,73.333,628792.000,1.000
8.697,7.049,10.960,6.644,4.648,-1.376,-2.749,0.895,-0.063,0.973,-0.172,-0.732,-0.549,0.641,73.333,628793.000,1.000
8.169,6.146,10.903,5.641,3.986,-3.803,-6.459,0.854,-0.063,0.972,-0.174,-0.549,-0.580,0.641,73.333,628794.000,1.000
6.545,4.480,9.574,3.915,2.314,-6.450,-9.189,-0.752,-0.062,0.972,-0.168,-0.519,-0.610,0.641,73.333,628795.000,1.000
4.307,2.727,7.648,2.089,0.335,-7.745,-8.814,-2.484,-0.062,0.975,-0.173,-0.549,-0.610,0.671,73.333,628796.000,1.000
2.405,1.766,6.097,0.937,-1.472,-6.201,-4.776,-2.817,-0.062,0.972,-0.172,-0.488,-0.671,0.671,73.333,628797.000,1.000
1.590,1.973,5.460,0.779,-3.522,-2.033,0.811,-1.656,-0.061,0.972,-0.173,-0.488,-0.671,0.793,73.333,628798.000,1.000
2.012,3.055,5.617,1.347,-6.674,2.942,4.970,-0.204,-0.062,0.975,-0.174,-0.519,-0.732,0.641,73.333,628799.000,1.000
3.444,4.487,6.223,2.175,-11.279,6.709,6.326,0.421,-0.064,0.975,-0.172,-0.397,-0.824,0.732,73.333,628800.000,1.000
5.582,5.881,6.942,2.930,-16.793,8.158,5.315,0.024,-0.065,0.976,-0.171,-0.427,-0.885,0.671,73.333,628801.000,1.000
8.018,6.909,7.491,3.437,-22.133,7.128,2.919,-0.837,-0.065,0.975,-0.174,-0.427,-0.946,0.793,73.333,628802.000,1.000
10.152,7.235,7.598,3.576,-26.244,4.065,-0.159,-1.509,-0.063,0.972,-0.174,-0.336,-0.916,0.702,73.333,628803.000,1.000
11.506,6.858,7.223,3.380,-28.370,0.193,-3.202,-1.616,-0.063,0.973,-0.173,-0.427,-0.946,0.793,73.333,628804.000,1.000
12.120,6.390,6.856,3.219,-28.025,-2.321,-4.726,-0.903,-0.063,0.973,-0.171,-0.366,-1.007,0.732,73.333,628805.000,1.000
12.386,6.558,7.040,3.530,-25.125,-1.531,-3.147,0.731,-0.062,0.975,-0.173,-0.366,-1.160,0.763,73.333,628806.000,1.000
12.473,7.309,7.750,4.247,-20.332,2.289,1.147,2.846,-0.062,0.974,-0.173,-0.519,-1.007,0.793,73.333,628807.000,1.000
12.161,7.774,8.394,4.818,-14.829,6.412,5.369,4.672,-0.065,0.974,-0.173,-0.549,-1.038,0.671,73.333,628808.000,1.000
11.260,7.214,8.472,4.888,-9.507,8.113,6.876,5.806,-0.064,0.972,-0.172,-0.671,-1.068,0.732,73.333,628809.000,1.000
9.937,5.766,8.077,4.639,-4.710,7.230,5.499,6.231,-0.062,0.972,-0.176,-0.671,-1.190,0.671,73.333,628810.000,1.000
8.609,4.223,7.669,4.503,-0.854,5.918,3.161,5.912,-0.063,0.972,-0.174,-0.641,-1.190,0.671,73.333,628811.000,1.000
7.655,3.295,7.711,4.859,1.200,6.077,2.088,5.108,-0.063,0.971,-0.172,-0.610,-1.221,0.610,73.333,628812.000,1.000
7.271,3.125,8.315,5.863,0.604,7.332,3.084,4.671,-0.063,0.973,-0.173,-0.610,-1.251,0.519,73.333,628813.000,1.000
7.454,3.331,9.112,7.283,-2.918,7.344,4.655,5.236,-0.062,0.973,-0.174,-0.641,-1.312,0.397,73.333,628814.000,1.000
8.042,3.377,9.609,8.581,-8.747,3.962,4.110,6.474,-0.061,0.975,-0.172,-0.580,-1.251,0.488,73.333,628815.000,1.000
8.865,3.073,9.670,9.411,-15.072,-2.506,0.421,7.805,-0.060,0.976,-0.172,-0.702,-1.312,0.519,73.333,628816.000,1.000
9.961,2.782,9.761,9.958,-19.383,-9.153,-4.198,9.246,-0.058,0.975,-0.172,-0.702,-1.282,0.580,73.333,628817.000,1.000
11.500,2.975,10.393,10.510,-20.254,-12.939,-6.609,10.679,-0.058,0.975,-0.172,-0.793,-1.190,0.519,73.333,628818.000,1.000
13.359,3.597,11.412,10.773,-18.623,-12.985,-6.067,10.814,-0.057,0.973,-0.173,-0.671,-1.251,0.366,73.333,628819.000,1.000
14.954,4.032,12.088,9.941,-16.816,-10.450,-4.293,7.926,-0.059,0.972,-0.174,-0.641,-1.251,0.366,73.333,628820.000,1.000
15.727,3.736,11.759,7.606,-16.326,-6.997,-3.175,1.884,-0.060,0.974,-0.173,-0.671,-1.099,0.366,73.333,628821.000,1.000
15.737,2.769,10.523,4.456,-16.818,-4.019,-3.334,-4.945,-0.060,0.971,-0.171,-0.732,-1.099,0.397,73.333,628822.000,1.000
15.596,1.621,9.003,1.810,-17.124,-2.756,-4.556,-9.498,-0.063,0.973,-0.170,-0.793,-1.099,0.366,73.333,628823.000,1.000
15.903,0.780,7.641,0.531,-16.394,-3.853,-6.431,-10.561,-0.063,0.972,-0.172,-0.732,-1.038,0.397,73.333,628824.000,1.000
16.862,0.540,6.513,0.536,-14.183,-6.761,-8.455,-9.140,-0.063,0.970,-0.171,-0.641,-1.068,0.275,73.333,628825.000,1.000
18.314,0.973,5.517,1.123,-10.287,-10.180,-10.334,-7.050,-0.064,0.970,-0.171,-0.549,-1.221,0.336,73.333,628826.000,1.000
19.990,2.069,4.788,1.644,-4.613,-12.401,-11.567,-5.489,-0.066,0.972,-0.174,-0.488,-1.190,0.244,73.333,628827.000,1.000
21.771,4.014,4.834,2.055,3.135,-11.093,-10.447,-4.168,-0.066,0.972,-0.175,-0.549,-1.160,0.275,73.333,628828.000,1.000
23.689,7.017,6.176,2.927,13.230,-4.577,-5.113,-1.689,-0.063,0.972,-0.172,-0.488,-1.068,0.214,73.333,628829.000,1.000
25.530,10.540,8.673,4.698,24.816,5.575,3.385,2.485,-0.064,0.971,-0.172,-0.610,-1.099,0.275,73.333,628830.000,1.000
26.573,13.160,11.155,6.946,35.562,14.578,10.584,6.706,-0.063,0.970,-0.171,-0.549,-1.129,0.214,73.333,628831.000,1.000
26.032,13.674,12.260,8.693,43.105,18.327,12.716,8.568,-0.065,0.972,-0.172,-0.549,-1.129,0.214,73.333,628832.000,1.000
23.698,12.120,11.457,9.228,46.462,16.496,10.013,7.232,-0.065,0.974,-0.171,-0.610,-1.068,0.214,73.333,628833.000,1.000
20.105,9.587,9.258,8.503,45.983,11.812,5.506,3.975,-0.064,0.975,-0.169,-0.641,-1.160,0.244,73.333,628834.000,1.000
16.197,7.353,6.789,6.988,42.685,7.535,2.074,0.905,-0.064,0.978,-0.169,-0.793,-1.068,0.275,73.333,628835.000,1.000
12.801,6.113,4.973,5.230,37.648,5.249,0.353,-0.760,-0.065,0.977,-0.172,-0.885,-1.129,0.336,73.333,628836.000,1.000
10.246,5.733,4.092,3.505,31.588,4.160,-1.170,-1.260,-0.065,0.975,-0.172,-0.916,-1.068,0.305,73.333,628837.000,1.000
8.438,5.696,3.896,1.916,25.131,2.866,-3.746,-1.337,-0.064,0.975,-0.170,-0.946,-1.099,0.427,73.333,628838.000,1.000
7.137,5.702,4.035,0.687,19.377,1.302,-6.537,-1.060,-0.065,0.974,-0.172,-0.916,-1.099,0.458,73.333,628839.000,1.000
6.087,5.773,4.378,0.147,15.641,0.362,-7.595,0.313,-0.066,0.973,-0.171,-0.946,-1.190,0.458,73.333,628840.000,1.000
5.019,6.004,4.797,0.319,14.594,0.640,-6.062,3.203,-0.067,0.974,-0.171,-0.916,-1.129,0.458,73.333,628841.000,1.000
3.627,6.294,5.019,0.578,15.861,2.138,-2.989,6.396,-0.068,0.975,-0.169,-1.007,-1.160,0.458,73.333,628842.000,1.000
1.607,6.329,4.671,-0.050,18.394,4.511,-0.366,7.434,-0.065,0.974,-0.171,-1.160,-1.251,0.458,73.333,628843.000,1.000
-1.070,5.843,3.507,-2.064,21.234,7.241,0.547,4.753,-0.065,0.976,-0.169,-1.160,-1.282,0.458,73.333,628844.000,1.000
-3.984,4.745,1.580,-5.077,23.797,9.462,-0.080,-0.967,-0.067,0.974,-0.170,-1.160,-1.312,0.519,73.333,628845.000,1.000
-6.437,3.087,-0.877,-8.160,25.658,9.942,-1.228,-7.457,-0.065,0.974,-0.173,-1.099,-1.373,0.488,73.333,628846.000,1.000
-7.747,1.333,-3.206,-10.208,26.746,8.405,-1.372,-11.983,-0.065,0.971,-0.172,-1.129,-1.282,0.458,73.333,628847.000,1.000
-7.550,0.448,-4.349,-10.263,27.663,6.634,0.967,-12.337,-0.065,0.971,-0.172,-1.099,-1.312,0.458,73.333,628848.000,1.000
-6.095,1.140,-3.597,-8.084,29.112,6.696,5.835,-8.082,-0.064,0.970,-0.169,-1.068,-1.343,0.366,73.333,628849.000,1.000
-4.313,2.990,-1.240,-4.562,30.970,8.312,11.209,-1.162,-0.064,0.971,-0.169,-1.099,-1.312,0.427,73.333,628850.000,1.000
-3.454,4.609,1.436,-1.369,32.344,9.175,14.092,5.132,-0.065,0.972,-0.168,-1.099,-1.373,0.427,73.333,628851.000,1.000
-4.437,4.672,3.018,0.024,32.521,7.571,12.618,8.134,-0.065,0.972,-0.171,-1.099,-1.404,0.458,73.333,628852.000,1.000
-7.402,2.729,2.735,-0.859,31.633,3.810,7.428,7.134,-0.064,0.973,-0.171,-1.007,-1.465,0.580,73.333,628853.000,1.000
-11.778,-0.756,0.595,-3.467,30.336,-0.446,1.147,3.289,-0.063,0.973,-0.171,-0.977,-1.343,0.549,73.333,628854.000,1.000
-16.683,-4.887,-2.819,-6.774,29.022,-3.559,-3.558,-1.566,-0.063,0.973,-0.167,-0.977,-1.343,0.580,73.333,628855.000,1.000
-21.210,-8.738,-6.664,-9.736,27.517,-4.820,-5.573,-5.890,-0.063,0.971,-0.164,-0.916,-1.312,0.580,73.333,628856.000,1.000
-24.511,-11.410,-9.889,-11.387,25.521,-4.395,-5.008,-8.382,-0.064,0.971,-0.169,-0.824,-1.373,0.610,73.333,628857.000,1.000
-26.034,-12.237,-11.610,-11.113,22.909,-2.866,-2.293,-8.036,-0.063,0.971,-0.168,-0.916,-1.343,0.702,73.333,628858.000,1.000
-25.952,-11.299,-11.745,-9.206,19.348,-1.280,1.239,-5.056,-0.064,0.970,-0.169,-0.885,-1.343,0.671,73.333,628859.000,1.000
-25.223,-9.634,-11.116,-6.993,13.930,-1.191,2.775,-1.427,-0.066,0.970,-0.171,-0.824,-1.282,0.702,73.333,628860.000,1.000
-25.039,-8.714,-10.968,-6.144,5.663,-3.794,-0.273,0.107,-0.066,0.969,-0.173,-0.763,-1.343,0.702,73.333,628861.000,1.000
-26.085,-9.617,-12.082,-7.606,-5.318,-8.875,-7.706,-1.921,-0.067,0.971,-0.171,-0.641,-1.343,0.702,73.333,628862.000,1.000
-28.163,-12.454,-14.331,-11.061,-16.969,-14.590,-16.338,-6.651,-0.067,0.973,-0.169,-0.671,-1.251,0.732,73.333,628863.000,1.000
-30.349,-16.241,-16.858,-15.163,-25.866,-18.116,-21.940,-11.588,-0.065,0.974,-0.171,-0.580,-1.312,0.549,73.333,628864.000,1.000
-31.522,-19.371,-18.508,-18.236,-28.918,-17.062,-21.169,-14.023,-0.066,0.974,-0.172,-0.549,-1.373,0.580,73.333,628865.000,1.000
-30.908,-20.522,-18.476,-19.050,-25.139,-11.192,-13.414,-12.386,-0.067,0.975,-0.168,-0.610,-1.221,0.488,73.333,628866.000,1.000
-28.419,-19.487,-16.652,-17.397,-16.440,-3.508,-2.398,-7.283,-0.065,0.976,-0.169,-0.732,-1.251,0.519,73.333,628867.000,1.000
-24.665,-17.223,-13.683,-14.147,-6.789,0.881,4.958,-1.494,-0.065,0.976,-0.173,-0.702,-1.221,0.366,73.333,628868.000,1.000
-20.552,-14.760,-10.492,-10.544,0.261,-1.193,3.791,1.862,-0.066,0.977,-0.171,-0.732,-1.282,0.366,73.333,628869.000,1.000
-16.771,-12.136,-7.473,-7.311,3.736,-7.516,-3.912,1.936,-0.063,0.976,-0.172,-0.793,-1.251,0.336,73.333,628870.000,1.000
-13.779,-8.743,-4.631,-4.593,4.769,-12.222,-11.108,0.525,-0.062,0.974,-0.171,-0.793,-1.251,0.397,73.333,628871.000,1.000
-12.088,-4.631,-2.252,-2.628,4.148,-11.396,-12.473,-0.326,-0.058,0.973,-0.171,-0.824,-1.312,0.549,73.333,628872.000,1.000
-12.207,-0.981,-1.115,-2.041,1.059,-6.215,-8.551,-0.369,-0.059,0.970,-0.169,-0.824,-1.038,0.580,73.333,628873.000,1.000
-14.168,0.807,-1.850,-3.283,-5.647,-0.610,-3.480,-0.536,-0.061,0.968,-0.171,-0.671,-0.977,0.702,73.333,628874.000,1.000
-17.305,0.171,-4.206,-6.086,-15.735,2.523,-0.635,-1.428,-0.062,0.968,-0.173,-0.580,-0.916,0.793,73.333,628875.000,1.000
-20.521,-2.337,-7.182,-9.541,-27.390,2.611,-0.891,-2.998,-0.062,0.968,-0.174,-0.519,-0.824,0.824,73.333,628876.000,1.000
-22.722,-5.385,-9.492,-12.476,-38.070,1.005,-2.753,-4.757,-0.063,0.970,-0.174,-0.458,-0.732,0.824,73.333,628877.000,1.000
-23.265,-7.585,-10.224,-13.966,-45.673,-0.046,-3.606,-5.878,-0.066,0.974,-0.174,-0.336,-0.671,0.885,73.333,628878.000,1.000
-22.249,-8.327,-9.429,-13.844,-49.650,0.774,-2.075,-5.701,-0.067,0.977,-0.172,-0.397,-0.763,0.946,73.333,628879.000,1.000
-20.468,-8.080,-7.988,-12.803,-51.226,2.512,0.539,-4.458,-0.066,0.977,-0.173,-0.397,-0.793,0.977,73.333,628880.000,1.000
-19.016,-7.884,-7.078,-11.914,-52.224,2.769,1.524,-3.172,-0.063,0.978,-0.171,-0.488,-0.702,1.038,73.333,628881.000,1.000
-18.646,-8.323,-7.274,-11.749,-53.304,0.437,0.044,-2.418,-0.061,0.977,-0.171,-0.610,-0.732,1.160,73.333,628882.000,1.000
-19.311,-8.962,-8.165,-11.936,-53.427,-2.579,-1.545,-1.627,-0.063,0.974,-0.175,-0.580,-0.793,1.251,73.333,628883.000,1.000
-20.402,-9.035,-9.030,-11.754,-51.357,-3.263,-0.586,-0.094,-0.063,0.973,-0.174,-0.610,-0.702,1.343,73.333,628884.000,1.000
-21.306,-8.463,-9.599,-10.974,-47.271,-0.811,2.659,1.844,-0.065,0.969,-0.172,-0.549,-0.580,1.343,73.333,628885.000,1.000
-21.643,-7.877,-10.214,-9.970,-42.586,2.807,5.622,3.008,-0.066,0.969,-0.169,-0.519,-0.641,1.373,73.333,628886.000,1.000
-21.250,-7.892,-11.288,-9.275,-38.772,5.039,6.262,2.435,-0.067,0.972,-0.169,-0.458,-0.641,1.129,73.333,628887.000,1.000
-20.134,-8.675,-12.897,-9.173,-36.641,4.630,4.134,0.103,-0.066,0.974,-0.174,-0.427,-0.702,0.946,73.333,628888.000,1.000
-18.409,-9.986,-14.696,-9.506,-36.114,1.854,0.080,-2.887,-0.067,0.976,-0.170,-0.519,-0.763,0.824,73.333,628889.000,1.000
-16.323,-11.361,-15.986,-9.787,-36.180,-1.966,-3.948,-4.797,-0.064,0.976,-0.170,-0.580,-0.763,0.793,73.333,628890.000,1.000
-14.347,-12.311,-16.300,-9.598,-35.467,-5.107,-6.222,-4.547,-0.064,0.980,-0.170,-0.702,-0.732,0.763,73.333,628891.000,1.000
-13.026,-12.473,-15.684,-8.813,-33.087,-6.150,-6.488,-2.534,-0.064,0.980,-0.174,-0.916,-0.793,0.732,73.333,628892.000,1.000
-12.477,-11.518,-14.366,-7.372,-28.801,-4.169,-5.022,0.222,-0.065,0.980,-0.172,-1.129,-0.763,0.610,73.333,628893.000,1.000
-12.181,-9.211,-12.460,-5.223,-23.009,0.869,-1.876,2.960,-0.061,0.980,-0.171,-1.282,-0.793,0.580,73.333,628894.000,1.000
-11.489,-5.937,-10.201,-2.776,-17.233,6.880,1.683,4.595,-0.060,0.981,-0.172,-1.373,-0.824,0.427,73.333,628895.000,1.000
-10.193,-2.812,-8.250,-0.974,-13.663,10.223,2.828,3.628,-0.061,0.980,-0.174,-1.343,-0.732,0.366,73.333,628896.000,1.000
-8.537,-0.899,-7.134,-0.501,-13.298,8.808,0.056,-0.217,-0.062,0.979,-0.171,-1.495,-0.702,0.458,73.333,628897.000,1.000
-6.942,-0.523,-6.802,-1.199,-15.053,3.799,-4.881,-5.185,-0.061,0.978,-0.170,-1.495,-0.641,0.427,73.333,628898.000,1.000
-5.676,-1.163,-6.713,-2.263,-16.733,-1.563,-8.487,-8.716,-0.061,0.977,-0.172,-1.587,-0.641,0.366,73.333,628899.000,1.000
-4.583,-1.651,-5.923,-2.694,-16.340,-3.774,-7.926,-8.886,-0.061,0.979,-0.172,-1.526,-0.549,0.397,73.333,628900.000,1.000
-3.295,-0.943,-3.699,-1.867,-13.040,-1.098,-2.731,-5.228,-0.060,0.979,-0.172,-1.648,-0.549,0.488,73.333,628901.000,1.000
-1.779,0.871,-0.302,-0.082,-7.920,4.574,4.546,0.849,-0.063,0.977,-0.171,-1.709,-0.427,0.519,73.333,628902.000,1.000
-0.414,2.625,2.971,1.497,-3.545,8.636,9.591,6.487,-0.063,0.975,-0.169,-1.587,-0.336,0.549,73.333,628903.000,1.000
0.529,3.292,4.798,1.781,-1.967,7.530,9.335,9.006,-0.065,0.971,-0.168,-1.587,-0.458,0.580,73.333,628904.000,1.000
1.273,2.973,5.004,0.784,-2.903,1.731,4.351,7.764,-0.065,0.971,-0.171,-1.617,-0.305,0.549,73.333,628905.000,1.000
2.316,2.641,4.426,-0.406,-4.018,-4.834,-1.947,4.348,-0.065,0.970,-0.172,-1.465,-0.366,0.610,73.333,628906.000,1.000
3.830,3.014,3.954,-0.707,-3.021,-8.214,-6.522,0.780,-0.065,0.970,-0.164,-1.404,-0.336,0.580,73.333,628907.000,1.000
5.323,3.815,3.737,0.090,0.715,-7.281,-8.674,-2.036,-0.065,0.967,-0.167,-1.343,-0.366,0.610,73.333,628908.000,1.000
5.967,4.216,3.312,1.500,6.264,-3.591,-8.894,-3.968,-0.067,0.967,-0.166,-1.221,-0.458,0.610,73.333,628909.000,1.000
5.320,3.738,2.384,3.037,12.126,0.620,-7.135,-4.632,-0.069,0.966,-0.167,-1.160,-0.488,0.610,73.333,628910.000,1.000
3.721,2.617,1.087,4.470,17.159,4.062,-3.040,-3.357,-0.066,0.966,-0.169,-0.977,-0.488,0.702,73.333,628911.000,1.000
2.034,1.419,-0.165,5.635,21.103,6.482,2.771,-0.072,-0.068,0.966,-0.169,-0.946,-0.488,0.732,73.333,628912.000,1.000
1.025,0.354,-1.099,6.155,24.206,7.466,7.918,3.866,-0.067,0.965,-0.165,-0.916,-0.671,0.671,73.333,628913.000,1.000
0.963,-0.871,-1.782,5.580,26.469,5.969,9.362,6.153,-0.067,0.964,-0.163,-0.763,-0.580,0.671,73.333,628914.000,1.000
1.703,-2.508,-2.209,3.915,27.776,1.423,5.844,5.267,-0.068,0.964,-0.164,-0.610,-0.641,0.610,73.333,628915.000,1.000
2.906,-4.341,-2.233,1.777,28.535,-5.152,-1.187,1.518,-0.067,0.964,-0.167,-0.488,-0.702,0.732,73.333,628916.000,1.000
4.165,-5.834,-1.746,-0.069,29.416,-11.502,-8.728,-3.524,-0.065,0.965,-0.166,-0.488,-0.732,0.763,73.333,628917.000,1.000
5.157,-6.473,-0.832,-1.178,30.477,-15.482,-13.924,-8.081,-0.064,0.967,-0.167,-0.366,-0.763,0.793,73.333,628918.000,1.000
5.813,-5.929,0.230,-1.423,31.147,-15.843,-15.001,-10.605,-0.064,0.967,-0.167,-0.336,-0.763,0.854,73.333,628919.000,1.000
6.287,-4.124,1.253,-0.779,31.001,-12.051,-11.068,-9.815,-0.063,0.968,-0.168,-0.305,-0.793,0.916,73.333,628920.000,1.000
6.713,-1.361,2.167,0.652,30.107,-4.458,-2.111,-5.195,-0.063,0.968,-0.166,-0.336,-0.854,0.824,73.333,628921.000,1.000
7.010,1.565,2.911,2.312,28.522,5.020,10.036,1.888,-0.066,0.971,-0.167,-0.305,-0.793,0.946,73.333,628922.000,1.000
6.825,3.450,3.136,3.012,25.769,12.816,20.883,7.742,-0.064,0.972,-0.165,-0.366,-0.824,1.007,73.333,628923.000,1.000
5.716,3.106,2.190,1.509,21.118,14.735,24.593,8.257,-0.063,0.971,-0.167,-0.336,-0.763,1.068,73.333,628924.000,1.000
3.603,0.113,-0.162,-2.397,14.638,8.234,17.558,1.970,-0.064,0.972,-0.169,-0.366,-0.732,1.129,73.333,628925.000,1.000
1.091,-4.692,-3.364,-7.439,7.817,-5.230,1.404,-8.847,-0.063,0.973,-0.170,-0.336,-0.793,1.190,73.333,628926.000,1.000
-0.755,-9.495,-6.232,-11.524,3.074,-20.154,-17.127,-19.674,-0.062,0.974,-0.169,-0.336,-0.763,1.221,73.333,628927.000,1.000
-1.028,-12.325,-7.480,-12.807,2.653,-29.879,-29.818,-25.996,-0.062,0.974,-0.169,-0.458,-0.702,1.251,73.333,628928.000,1.000
0.458,-12.008,-6.438,-10.590,7.346,-30.472,-31.774,-25.368,-0.060,0.977,-0.173,-0.427,-0.702,1.221,73.333,628929.000,1.000
3.079,-8.736,-3.446,-5.729,15.701,-22.628,-23.699,-18.705,-0.062,0.976,-0.172,-0.397,-0.641,1.312,73.333,628930.000,1.000
5.915,-3.811,0.266,-0.164,24.653,-10.470,-10.552,-9.669,-0.063,0.976,-0.167,-0.519,-0.763,1.282,73.333,628931.000,1.000
8.309,1.041,3.329,4.229,31.093,0.716,1.600,-2.246,-0.064,0.974,-0.167,-0.610,-0.763,1.282,73.333,628932.000,1.000
9.944,4.232,4.788,6.471,33.097,6.407,8.121,1.284,-0.064,0.974,-0.169,-0.580,-0.641,1.373,73.333,628933.000,1.000
10.721,4.827,4.273,6.597,30.437,4.771,7.321,0.751,-0.062,0.975,-0.170,-0.519,-0.763,1.373,73.333,628934.000,1.000
10.806,2.967,2.233,5.411,24.611,-2.313,1.105,-2.395,-0.062,0.973,-0.172,-0.610,-0.793,1.312,73.333,628935.000,1.000
10.648,-0.152,-0.283,4.087,18.214,-10.373,-6.098,-5.793,-0.061,0.977,-0.172,-0.641,-0.793,1.251,73.333,628936.000,1.000
10.754,-2.842,-2.028,3.659,13.726,-14.746,-9.835,-7.151,-0.059,0.977,-0.174,-0.549,-0.610,1.282,73.333,628937.000,1.000
11.318,-3.853,-2.158,4.479,12.335,-13.108,-8.303,-5.489,-0.059,0.977,-0.174,-0.610,-0.702,1.312,73.333,628938.000,1.000
12.000,-3.134,-0.838,6.014,13.544,-6.934,-3.171,-1.753,-0.059,0.978,-0.174,-0.793,-0.610,1.251,73.333,628939.000,1.000
12.238,-1.620,1.018,7.314,15.836,-0.147,2.365,1.960,-0.060,0.980,-0.172,-0.610,-0.641,1.221,73.333,628940.000,1.000
11.841,-0.242,2.436,7.776,17.747,4.021,5.840,3.822,-0.063,0.978,-0.168,-0.732,-0.702,1.068,73.333,628941.000,1.000
11.200,0.713,3.046,7.471,18.432,4.519,6.045,3.264,-0.062,0.977,-0.168,-0.824,-0.732,1.068,73.333,628942.000,1.000
10.949,1.424,3.105,6.892,17.656,1.769,2.640,1.030,-0.062,0.977,-0.169,-1.007,-0.641,1.099,73.333,628943.000,1.000
11.459,2.152,3.031,6.484,15.650,-2.974,-3.604,-1.595,-0.059,0.974,-0.172,-0.916,-0.641,1.099,73.333,628944.000,1.000
12.622,3.070,3.189,6.434,13.011,-7.735,-10.403,-3.565,-0.058,0.973,-0.172,-0.793,-0.671,1.099,73.333,628945.000,1.000
14.156,4.402,3.902,6.902,10.674,-10.304,-14.587,-4.112,-0.057,0.973,-0.173,-0.671,-0.580,1.160,73.333,628946.000,1.000
16.034,6.549,5.655,8.306,9.789,-8.935,-13.297,-2.310,-0.059,0.974,-0.176,-0.519,-0.549,1.190,73.333,628947.000,1.000
18.270,9.575,8.622,10.814,10.907,-3.515,-5.966,2.211,-0.058,0.977,-0.172,-0.519,-0.519,1.282,73.333,628948.000,1.000
20.438,12.560,11.947,13.558,13.027,3.397,4.102,7.772,-0.057,0.977,-0.171,-0.488,-0.549,1.190,73.333,628949.000,1.000
21.873,14.029,14.292,15.075,14.183,7.843,11.535,11.371,-0.057,0.978,-0.171,-0.580,-0.488,1.251,73.333,628950.000,1.000
22.206,13.104,14.815,14.511,13.017,7.288,12.665,11.261,-0.057,0.973,-0.171,-0.488,-0.397,1.404,73.333,628951.000,1.000
21.455,10.075,13.542,12.063,9.398,2.096,7.451,7.801,-0.058,0.970,-0.173,-0.519,-0.305,1.434,73.333,628952.000,1.000
19.916,6.215,11.104,8.654,4.256,-4.697,-0.997,2.410,-0.058,0.967,-0.174,-0.427,-0.214,1.617,73.333,628953.000,1.000
18.144,3.199,8.477,5.582,-0.660,-8.808,-8.047,-2.996,-0.059,0.965,-0.175,-0.244,-0.214,1.495,73.333,628954.000,1.000
16.696,2.106,6.682,3.922,-3.765,-7.627,-10.217,-6.504,-0.062,0.966,-0.176,-0.244,-0.244,1.434,73.333,628955.000,1.000
15.713,2.692,6.053,3.792,-4.957,-2.421,-7.567,-7.430,-0.064,0.969,-0.174,-0.031,-0.153,1.312,73.333,628956.000,1.000
15.042,3.937,6.275,4.521,-5.455,3.120,-2.883,-6.442,-0.064,0.970,-0.173,-0.031,-0.214,1.190,73.333,628957.000,1.000
14.719,5.189,7.026,5.521,-6.486,6.329,1.143,-4.391,-0.066,0.973,-0.173,0.000,-0.336,1.007,73.333,628958.000,1.000
14.969,6.445,8.095,6.651,-8.691,7.028,3.292,-1.729,-0.065,0.973,-0.172,0.031,-0.427,0.916,73.333,628959.000,1.000
15.790,7.775,9.229,7.871,-12.365,6.345,3.516,1.135,-0.065,0.974,-0.173,-0.031,-0.519,0.824,73.333,628960.000,1.000
16.787,8.953,10.068,8.948,-17.457,5.131,2.398,3.619,-0.064,0.974,-0.174,-0.122,-0.610,0.671,73.333,628961.000,1.000
17.567,9.736,10.595,9.716,-23.092,3.873,1.200,5.520,-0.064,0.975,-0.174,-0.153,-0.702,0.641,73.333,628962.000,1.000
18.180,10.293,11.384,10.420,-27.528,3.459,1.675,7.371,-0.063,0.972,-0.170,-0.275,-0.793,0.610,73.333,628963.000,1.000
18.961,10.984,12.942,11.342,-29.399,4.543,4.374,9.400,-0.062,0.972,-0.172,-0.336,-0.854,0.549,73.333,628964.000,1.000
19.977,11.729,14.981,12.166,-29.159,5.998,7.009,10.383,-0.061,0.970,-0.172,-0.336,-0.793,0.397,73.333,628965.000,1.000
20.912,12.064,16.478,12.155,-28.564,5.481,6.144,8.578,-0.061,0.972,-0.173,-0.397,-0.854,0.336,73.333,628966.000,1.000
21.475,11.803,16.752,11.079,-28.518,1.980,1.183,4.036,-0.061,0.972,-0.177,-0.519,-0.824,0.275,73.333,628967.000,1.000
21.674,11.284,16.101,9.645,-28.060,-2.920,-4.502,-0.695,-0.059,0.971,-0.176,-0.366,-0.885,0.397,73.333,628968.000,1.000
21.769,11.094,15.434,9.009,-25.557,-6.197,-6.594,-2.349,-0.059,0.972,-0.173,-0.458,-0.946,0.427,73.333,628969.000,1.000
22.072,11.690,15.690,9.962,-20.575,-5.660,-3.465,0.589,-0.058,0.974,-0.173,-0.488,-1.007,0.519,73.333,628970.000,1.000
22.576,13.064,17.078,12.239,-14.715,-1.428,2.690,6.533,-0.059,0.973,-0.173,-0.366,-0.916,0.641,73.333,628971.000,1.000
22.738,14.538,18.848,14.511,-10.812,4.229,7.787,11.601,-0.058,0.975,-0.173,-0.366,-0.824,0.641,73.333,628972.000,1.000
21.827,15.076,19.808,15.273,-11.012,8.292,8.992,12.359,-0.059,0.975,-0.173,-0.427,-0.916,0.793,73.333,628973.000,1.000
19.580,14.078,19.125,13.947,-15.046,9.043,6.699,8.449,-0.062,0.974,-0.175,-0.458,-0.946,0.793,73.333,628974.000,1.000
16.341,11.788,16.860,11.104,-20.419,7.050,3.655,2.634,-0.062,0.975,-0.169,-0.427,-0.885,0.885,73.333,628975.000,1.000
12.671,8.847,13.592,7.775,-24.517,3.973,2.100,-1.588,-0.063,0.975,-0.171,-0.458,-0.885,0.977,73.333,628976.000,1.000
9.124,5.932,10.129,4.897,-26.260,1.294,2.615,-2.044,-0.064,0.976,-0.168,-0.458,-0.916,0.885,73.333,628977.000,1.000
6.316,3.883,7.443,3.148,-25.928,0.405,5.046,1.445,-0.065,0.974,-0.170,-0.519,-0.946,0.977,73.333,628978.000,1.000
4.711,3.441,6.184,2.599,-24.358,2.227,8.582,6.882,-0.065,0.977,-0.170,-0.580,-0.946,0.977,73.333,628979.000,1.000
4.142,4.462,6.187,2.505,-22.643,5.778,10.973,10.776,-0.064,0.974,-0.171,-0.732,-1.038,0.977,73.333,628980.000,1.000
3.804,5.881,6.450,1.900,-21.662,8.431,9.666,10.329,-0.063,0.972,-0.170,-0.702,-1.038,1.007,73.333,628981.000,1.000
2.918,6.736,6.124,0.582,-21.053,8.566,4.785,5.680,-0.062,0.973,-0.171,-0.732,-1.160,0.977,73.333,628982.000,1.000
1.346,6.911,5.293,-0.674,-19.146,7.127,-0.389,-0.183,-0.061,0.971,-0.169,-0.732,-1.099,0.977,73.333,628983.000,1.000
-0.444,6.830,4.542,-0.862,-14.571,6.151,-2.459,-3.784,-0.061,0.970,-0.171,-0.732,-1.190,0.916,73.333,628984.000,1.000
-1.789,6.825,4.324,0.468,-7.656,6.770,-0.247,-3.252,-0.062,0.970,-0.169,-0.671,-1.099,0.793,73.333,628985.000,1.000
-2.268,6.922,4.638,3.005,-0.114,8.922,5.449,1.280,-0.060,0.971,-0.170,-0.610,-1.129,0.671,73.333,628986.000,1.000
-2.009,6.872,5.132,5.875,5.985,11.612,12.578,8.129,-0.059,0.971,-0.167,-0.549,-1.251,0.763,73.333,628987.000,1.000
-1.720,6.149,5.161,7.940,8.824,12.881,17.842,14.561,-0.061,0.971,-0.169,-0.641,-1.190,0.641,73.333,628988.000,1.000
-2.313,4.216,3.980,8.238,7.401,10.807,17.887,17.821,-0.061,0.971,-0.168,-0.641,-1.129,0.641,73.333,628989.000,1.000
-4.340,1.086,1.428,6.464,2.259,5.399,11.966,16.547,-0.060,0.970,-0.168,-0.488,-1.190,0.671,73.333,628990.000,1.000
-7.588,-2.384,-1.903,3.124,-4.493,-0.885,2.737,11.427,-0.062,0.969,-0.171,-0.458,-1.282,0.610,73.333,628991.000,1.000
-11.081,-4.935,-4.984,-0.691,-10.239,-4.786,-5.697,4.726,-0.062,0.971,-0.170,-0.519,-1.221,0.580,73.333,628992.000,1.000
-13.591,-5.682,-6.896,-3.795,-13.089,-4.134,-9.790,-0.728,-0.062,0.970,-0.169,-0.397,-1.190,0.458,73.333,628993.000,1.000
-14.268,-4.442,-7.269,-5.370,-12.396,1.469,-7.443,-2.690,-0.061,0.972,-0.170,-0.336,-1.221,0.458,73.333,628994.000,1.000
-13.035,-1.742,-6.332,-5.325,-8.924,10.149,0.541,-0.823,-0.062,0.971,-0.170,-0.366,-1.282,0.336,73.333,628995.000,1.000
-10.645,1.223,-5.022,-4.411,-4.743,17.680,9.581,2.871,-0.060,0.972,-0.169,-0.397,-1.221,0.336,73.333,628996.000,1.000
-8.269,3.100,-4.498,-3.751,-2.248,19.806,14.221,5.535,-0.061,0.974,-0.170,-0.275,-1.312,0.336,73.333,628997.000,1.000
-6.825,3.195,-5.324,-4.148,-2.787,15.448,12.206,5.390,-0.062,0.973,-0.172,-0.275,-1.312,0.244,73.333,628998.000,1.000
-6.488,1.900,-7.079,-5.629,-5.875,7.416,5.771,2.659,-0.063,0.973,-0.171,-0.275,-1.312,0.275,73.333,628999.000,1.000
-6.711,0.347,-8.521,-7.440,-9.387,0.473,0.034,-0.689,-0.064,0.975,-0.170,-0.305,-1.343,0.153,73.333,629000.000,1.000
-6.730,-0.407,-8.583,-8.691,-10.806,-1.541,-0.739,-2.531,-0.063,0.974,-0.169,-0.183,-1.343,0.122,73.333,629001.000,1.000
-6.084,0.024,-7.071,-9.002,-8.712,2.192,3.876,-2.276,-0.064,0.974,-0.169,-0.244,-1.434,0.153,73.333,629002.000,1.000
-4.834,1.360,-4.571,-8.529,-3.293,9.326,11.015,-0.772,-0.063,0.973,-0.171,-0.336,-1.495,0.153,73.333,629003.000,1.000
-3.373,3.019,-1.909,-7.484,4.280,15.870,17.282,1.252,-0.062,0.975,-0.171,-0.458,-1.526,0.183,73.333,629004.000,1.000
-2.019,4.536,0.560,-5.816,12.641,18.399,20.777,3.867,-0.064,0.974,-0.172,-0.427,-1.556,0.305,73.333,629005.000,1.000
-0.811,5.817,2.865,-3.476,20.505,15.993,21.000,6.806,-0.065,0.973,-0.173,-0.488,-1.648,0.275,73.333,629006.000,1.000
0.280,6.929,4.951,-0.838,26.612,10.251,17.770,8.651,-0.065,0.973,-0.173,-0.397,-1.709,0.336,73.333,629007.000,1.000
1.122,7.680,6.439,1.349,30.040,3.377,11.015,7.884,-0.064,0.972,-0.174,-0.458,-1.709,0.305,73.333,629008.000,1.000
1.563,7.705,6.861,2.585,31.008,-3.020,1.994,4.619,-0.064,0.972,-0.173,-0.488,-1.770,0.336,73.333,629009.000,1.000
1.709,7.007,6.360,3.193,31.235,-7.394,-5.842,1.061,-0.065,0.974,-0.170,-0.488,-1.831,0.305,73.333,629010.000,1.000
1.940,6.127,5.756,4.135,33.077,-8.082,-8.349,0.056,-0.063,0.975,-0.170,-0.366,-1.953,0.305,73.333,629011.000,1.000
2.647,5.695,6.073,6.233,37.943,-4.479,-3.515,2.975,-0.064,0.972,-0.172,-0.488,-1.984,0.397,73.333,629012.000,1.000
3.833,5.812,7.723,9.431,45.186,1.826,6.738,8.764,-0.066,0.974,-0.171,-0.549,-2.045,0.366,73.333,629013.000,1.000
4.943,5.878,9.945,12.679,52.321,7.449,17.259,14.833,-0.065,0.973,-0.170,-0.580,-2.045,0.366,73.333,629014.000,1.000
5.210,5.037,11.361,14.521,56.325,9.189,22.482,18.509,-0.064,0.972,-0.172,-0.519,-2.167,0.488,73.333,629015.000,1.000
4.167,2.800,10.779,13.829,55.124,6.059,19.412,17.894,-0.064,0.972,-0.169,-0.519,-2.136,0.641,73.333,629016.000,1.000
1.865,-0.667,7.855,10.376,48.507,-0.427,9.238,12.637,-0.064,0.974,-0.169,-0.519,-2.228,0.610,73.333,629017.000,1.000
-1.265,-4.677,3.214,4.998,38.111,-7.535,-3.526,4.421,-0.063,0.975,-0.174,-0.610,-2.228,0.580,73.333,629018.000,1.000
-4.710,-8.340,-2.072,-0.858,26.653,-12.561,-13.544,-3.894,-0.063,0.976,-0.173,-0.610,-2.167,0.549,73.333,629019.000,1.000
-8.057,-10.883,-6.828,-5.816,16.909,-13.608,-16.985,-9.871,-0.062,0.974,-0.174,-0.549,-2.106,0.610,73.333,629020.000,1.000
-10.958,-11.956,-10.181,-9.057,10.729,-10.519,-13.334,-12.492,-0.063,0.973,-0.171,-0.610,-2.014,0.671,73.333,629021.000,1.000
-13.124,-11.899,-11.818,-10.469,8.348,-5.459,-5.811,-12.192,-0.063,0.975,-0.174,-0.671,-2.014,0.671,73.333,629022.000,1.000
-14.454,-11.595,-12.112,-10.560,8.520,-1.967,0.296,-10.411,-0.063,0.976,-0.172,-0.793,-2.014,0.671,73.333,629023.000,1.000
-14.995,-11.714,-11.819,-10.053,9.649,-2.508,1.011,-8.629,-0.061,0.974,-0.172,-0.702,-1.953,0.610,73.333,629024.000,1.000
-14.684,-12.035,-11.194,-9.307,11.109,-6.389,-3.196,-7.149,-0.060,0.972,-0.172,-0.702,-1.984,0.580,73.333,629025.000,1.000
-13.366,-11.673,-9.952,-8.223,13.367,-10.330,-8.023,-5.068,-0.063,0.972,-0.173,-0.885,-1.801,0.702,73.333,629026.000,1.000
-11.138,-9.945,-7.867,-6.648,16.835,-11.286,-9.201,-1.685,-0.061,0.974,-0.174,-0.732,-1.770,0.641,73.333,629027.000,1.000
-8.511,-6.919,-5.111,-4.691,20.996,-8.339,-5.404,2.354,-0.061,0.974,-0.175,-0.702,-1.740,0.671,73.333,629028.000,1.000
-6.188,-3.311,-2.236,-2.710,24.621,-2.456,1.722,5.464,-0.060,0.973,-0.175,-0.702,-1.678,0.641,73.333,629029.000,1.000
-4.706,-0.084,0.187,-1.064,26.518,4.329,9.154,6.554,-0.062,0.973,-0.172,-0.702,-1.678,0.671,73.333,629030.000,1.000
-4.138,2.010,1.751,0.186,26.239,9.714,14.279,6.023,-0.060,0.974,-0.171,-0.763,-1.495,0.580,73.333,629031.000,1.000
-3.992,2.848,2.496,1.381,24.410,12.376,16.439,5.487,-0.059,0.975,-0.171,-0.732,-1.556,0.641,73.333,629032.000,1.000
-3.537,2.902,2.865,2.916,22.261,12.630,16.860,6.354,-0.062,0.976,-0.174,-0.916,-1.465,0.671,73.333,629033.000,1.000
-2.352,2.763,3.184,4.698,20.648,11.633,16.828,8.491,-0.063,0.976,-0.172,-0.946,-1.465,0.671,73.333,629034.000,1.000
-0.594,2.757,3.579,6.186,19.710,10.436,16.596,10.595,-0.062,0.975,-0.173,-0.854,-1.434,0.610,73.333,629035.000,1.000
1.220,2.947,3.972,6.935,19.394,9.833,16.012,11.815,-0.063,0.973,-0.172,-0.824,-1.282,0.671,73.333,629036.000,1.000
2.463,3.015,4.044,6.814,19.483,9.532,14.710,12.260,-0.064,0.975,-0.173,-0.885,-1.190,0.580,73.333,629037.000,1.000
2.397,2.038,3.052,5.571,18.832,7.043,11.048,11.694,-0.063,0.973,-0.172,-0.854,-1.221,0.702,73.333,629038.000,1.000
0.448,-0.862,0.168,2.789,15.811,-0.195,3.320,9.005,-0.064,0.971,-0.172,-1.007,-1.068,0.610,73.333,629039.000,1.000
-3.144,-5.399,-4.404,-1.337,10.031,-10.855,-6.915,3.688,-0.063,0.971,-0.173,-0.977,-1.099,0.610,73.333,629040.000,1.000
-7.200,-10.086,-9.325,-5.655,2.949,-19.870,-15.020,-2.922,-0.063,0.971,-0.172,-0.854,-1.129,0.549,73.333,629041.000,1.000
-10.246,-13.184,-12.874,-8.656,-3.146,-22.513,-16.941,-8.157,-0.063,0.971,-0.173,-0.916,-1.099,0.702,73.333,629042.000,1.000
-11.248,-13.569,-13.776,-9.329,-6.448,-17.474,-11.934,-9.653,-0.063,0.971,-0.173,-0.885,-1.129,0.580,73.333,629043.000,1.000
-10.021,-11.309,-11.937,-7.753,-6.731,-7.405,-3.026,-7.156,-0.063,0.972,-0.171,-0.824,-0.977,0.580,73.333,629044.000,1.000
-7.292,-7.743,-8.535,-5.118,-5.639,2.249,4.586,-3.072,-0.061,0.974,-0.171,-0.854,-1.129,0.580,73.333,629045.000,1.000
-4.344,-4.666,-5.462,-2.971,-5.347,6.358,6.814,-0.641,-0.062,0.973,-0.169,-0.793,-1.038,0.610,73.333,629046.000,1.000
-2.358,-3.220,-4.140,-2.230,-6.785,3.509,3.299,-1.358,-0.061,0.973,-0.172,-0.793,-1.038,0.580,73.333,629047.000,1.000
-1.841,-3.446,-4.738,-2.853,-9.258,-3.412,-3.059,-4.323,-0.063,0.973,-0.171,-0.732,-0.977,0.702,73.333,629048.000,1.000
-2.433,-4.465,-6.363,-4.126,-11.184,-9.541,-8.410,-7.340,-0.061,0.974,-0.171,-0.763,-0.916,0.732,73.333,629049.000,1.000
-3.250,-5.093,-7.658,-5.166,-11.221,-11.205,-10.239,-8.501,-0.061,0.972,-0.171,-0.732,-0.885,0.763,73.333,629050.000,1.000
-3.633,-4.712,-7.855,-5.591,-9.338,-8.195,-8.951,-7.595,-0.062,0.972,-0.171,-0.732,-0.885,0.763,73.333,629051.000,1.000
-3.574,-3.622,-7.128,-5.716,-6.754,-3.310,-6.954,-6.100,-0.063,0.972,-0.174,-0.732,-0.885,0.824,73.333,629052.000,1.000
-3.400,-2.495,-6.017,-5.969,-4.635,0.622,-5.955,-5.596,-0.063,0.972,-0.175,-0.580,-0.885,0.824,73.333,629053.000,1.000
-3.215,-1.637,-4.809,-6.219,-3.109,2.958,-5.641,-6.299,-0.063,0.972,-0.168,-0.580,-0.946,0.763,73.333,629054.000,1.000
-2.790,-0.918,-3.280,-5.824,-1.592,4.617,-4.604,-7.057,-0.063,0.972,-0.169,-0.580,-0.916,0.763,73.333,629055.000,1.000
-1.911,-0.185,-1.242,-4.324,0.321,6.355,-1.964,-6.530,-0.065,0.974,-0.172,-0.580,-0.916,0.916,73.333,629056.000,1.000
-0.594,0.640,1.186,-1.862,2.682,8.549,2.451,-4.123,-0.065,0.975,-0.171,-0.488,-0.916,0.824,73.333,629057.000,1.000
1.013,1.737,3.743,0.981,5.515,11.837,8.559,-0.212,-0.063,0.977,-0.170,-0.641,-0.793,0.763,73.333,629058.000,1.000
2.650,3.172,5.974,3.446,8.639,16.212,15.115,3.991,-0.062,0.978,-0.168,-0.610,-0.824,0.763,73.333,629059.000,1.000
3.890,4.496,7.310,4.854,11.335,19.592,19.065,7.016,-0.063,0.974,-0.168,-0.641,-0.916,0.732,73.333,629060.000,1.000
4.275,4.908,7.192,4.888,12.615,18.872,17.325,7.981,-0.064,0.974,-0.171,-0.732,-0.946,0.702,73.333,629061.000,1.000
3.634,3.933,5.539,3.743,11.753,12.846,9.698,6.985,-0.065,0.974,-0.169,-0.702,-0.916,0.732,73.333,629062.000,1.000
2.405,1.967,3.078,2.136,8.730,3.855,-0.121,4.848,-0.065,0.975,-0.172,-0.732,-1.068,0.732,73.333,629063.000,1.000
1.555,0.169,0.996,1.083,4.582,-3.540,-6.794,2.678,-0.063,0.974,-0.171,-0.793,-1.038,0.793,73.333,629064.000,1.000
1.820,-0.464,0.247,1.282,1.053,-6.022,-7.439,1.280,-0.062,0.975,-0.174,-0.793,-1.129,0.793,73.333,629065.000,1.000
2.997,0.010,0.755,2.477,-0.326,-3.996,-3.787,0.549,-0.062,0.976,-0.172,-0.702,-1.129,0.793,73.333,629066.000,1.000
4.194,0.671,1.674,3.690,1.175,-0.663,-0.027,-0.333,-0.063,0.974,-0.168,-0.824,-1.160,0.824,73.333,629067.000,1.000
4.613,0.613,2.215,4.043,5.346,0.889,0.572,-2.000,-0.063,0.973,-0.170,-0.854,-1.129,0.824,73.333,629068.000,1.000
3.965,-0.494,1.929,3.327,11.031,-0.391,-2.735,-4.179,-0.062,0.973,-0.170,-0.824,-1.160,0.824,73.333,629069.000,1.000
2.461,-2.330,0.898,2.018,16.546,-3.437,-7.785,-5.637,-0.062,0.971,-0.172,-0.702,-1.099,0.763,73.333,629070.000,1.000
0.619,-4.117,-0.490,0.819,20.511,-5.960,-10.794,-5.043,-0.064,0.971,-0.171,-0.732,-1.068,0.885,73.333,629071.000,1.000
-1.151,-5.248,-1.979,-0.015,22.124,-6.368,-9.744,-2.488,-0.063,0.971,-0.172,-0.671,-1.160,0.854,73.333,629072.000,1.000
-2.887,-5.967,-3.827,-1.005,20.846,-5.659,-6.813,-0.134,-0.062,0.970,-0.173,-0.671,-1.190,0.885,73.333,629073.000,1.000
-4.770,-6.960,-6.455,-2.820,16.860,-6.348,-5.966,-0.451,-0.063,0.973,-0.174,-0.702,-1.251,0.793,73.333,629074.000,1.000
-6.553,-8.302,-9.510,-5.354,11.709,-9.264,-8.326,-3.810,-0.063,0.974,-0.173,-0.671,-1.251,0.824,73.333,629075.000,1.000
-7.609,-9.263,-12.084,-7.780,7.501,-12.582,-11.730,-8.359,-0.061,0.973,-0.173,-0.580,-1.099,0.824,73.333,629076.000,1.000
-7.462,-9.029,-13.463,-9.253,5.469,-13.749,-13.709,-11.575,-0.061,0.973,-0.172,-0.580,-1.068,0.916,73.333,629077.000,1.000
-6.231,-7.392,-13.503,-9.393,5.576,-11.643,-13.407,-11.783,-0.062,0.972,-0.172,-0.641,-1.160,0.885,73.333,629078.000,1.000
-4.686,-4.946,-12.711,-8.444,7.008,-7.283,-11.386,-8.995,-0.063,0.972,-0.174,-0.549,-1.129,0.824,73.333,629079.000,1.000
-3.814,-2.693,-11.765,-7.050,8.752,-2.788,-8.403,-4.627,-0.063,0.971,-0.175,-0.427,-1.099,0.854,73.333,629080.000,1.000
-4.162,-1.330,-11.173,-5.845,9.864,0.323,-4.923,-0.541,-0.064,0.970,-0.176,-0.488,-1.068,0.763,73.333,629081.000,1.000
-5.501,-0.865,-11.014,-5.180,9.476,1.686,-1.573,1.829,-0.065,0.972,-0.175,-0.458,-1.038,0.793,73.333,629082.000,1.000
-7.041,-0.821,-10.973,-5.040,7.027,1.557,0.812,2.181,-0.064,0.973,-0.170,-0.397,-1.068,0.732,73.333,629083.000,1.000
-8.045,-0.776,-10.799,-5.164,2.638,0.477,1.914,1.502,-0.064,0.974,-0.169,-0.397,-1.038,0.702,73.333,629084.000,1.000
-8.355,-0.736,-10.492,-5.310,-3.085,-0.754,2.256,1.093,-0.065,0.974,-0.170,-0.458,-1.068,0.549,73.333,629085.000,1.000
-8.396,-1.012,-10.332,-5.434,-9.416,-1.251,2.605,1.469,-0.065,0.974,-0.170,-0.366,-1.068,0.519,73.333,629086.000,1.000
-8.705,-1.760,-10.496,-5.572,-15.452,-0.325,3.547,2.348,-0.064,0.974,-0.172,-0.549,-1.068,0.580,73.333,629087.000,1.000
-9.494,-2.779,-10.886,-5.793,-20.243,1.967,4.997,2.925,-0.063,0.972,-0.174,-0.549,-1.221,0.549,73.333,629088.000,1.000
-10.583,-3.786,-11.485,-6.263,-23.424,4.199,5.697,2.117,-0.064,0.973,-0.174,-0.580,-1.221,0.610,73.333,629089.000,1.000
-11.600,-4.743,-12.315,-7.113,-25.470,4.165,4.074,-0.650,-0.064,0.973,-0.173,-0.671,-1.129,0.580,73.333,629090.000,1.000
-12.256,-5.801,-13.402,-8.258,-27.071,0.914,-0.236,-4.908,-0.065,0.973,-0.174,-0.671,-1.221,0.610,73.333,629091.000,1.000
-12.436,-7.030,-14.577,-9.311,-28.276,-4.247,-5.944,-9.389,-0.063,0.974,-0.173,-0.671,-1.251,0.580,73.333,629092.000,1.000
-12.144,-8.431,-15.450,-9.784,-28.481,-9.394,-11.346,-12.762,-0.062,0.974,-0.173,-0.793,-1.282,0.488,73.333,629093.000,1.000
-11.407,-9.961,-15.727,-9.514,-27.213,-13.702,-15.429,-14.405,-0.063,0.975,-0.173,-0.854,-1.190,0.580,73.333,629094.000,1.000
-10.148,-11.220,-15.070,-8.662,-24.468,-16.831,-17.436,-14.409,-0.063,0.974,-0.173,-0.946,-1.160,0.519,73.333,629095.000,1.000
-8.226,-11.460,-13.249,-7.402,-20.556,-18.151,-16.828,-13.070,-0.063,0.975,-0.175,-0.946,-1.160,0.549,73.333,629096.000,1.000
-5.733,-10.291,-10.523,-5.928,-16.227,-17.655,-14.078,-10.865,-0.063,0.972,-0.174,-0.946,-1.221,0.641,73.333,629097.000,1.000
-3.143,-8.097,-7.680,-4.635,-12.607,-16.240,-10.519,-8.710,-0.065,0.973,-0.176,-0.854,-1.160,0.732,73.333,629098.000,1.000
-1.075,-5.616,-5.607,-3.978,-10.431,-14.335,-7.269,-7.623,-0.063,0.972,-0.175,-0.946,-1.160,0.732,73.333,629099.000,1.000
0.060,-3.495,-4.657,-4.159,-9.577,-11.635,-5.060,-8.118,-0.065,0.973,-0.172,-0.885,-1.282,0.732,73.333,629100.000,1.000
0.211,-2.208,-4.751,-5.078,-9.456,-8.386,-4.795,-10.041,-0.064,0.973,-0.174,-0.885,-1.343,0.702,73.333,629101.000,1.000
-0.326,-1.912,-5.510,-6.332,-9.443,-5.662,-6.816,-12.483,-0.063,0.972,-0.172,-0.885,-1.251,0.702,73.333,629102.000,1.000
-1.102,-2.316,-6.352,-7.294,-8.982,-4.291,-9.911,-13.908,-0.063,0.973,-0.173,-0.916,-1.190,0.793,73.333,629103.000,1.000
-1.753,-2.807,-6.832,-7.421,-7.628,-4.091,-11.969,-12.999,-0.063,0.972,-0.171,-0.916,-1.190,0.763,73.333,629104.000,1.000
-2.037,-2.726,-6.611,-6.498,-5.151,-4.135,-11.398,-9.582,-0.064,0.972,-0.171,-0.916,-1.160,0.671,73.333,629105.000,1.000
-1.709,-1.618,-5.503,-4.649,-1.647,-3.566,-7.990,-4.708,-0.063,0.973,-0.173,-0.916,-1.068,0.610,73.333,629106.000,1.000
-0.471,0.660,-3.347,-2.106,2.571,-1.813,-2.412,0.219,-0.064,0.974,-0.172,-0.916,-1.129,0.519,73.333,629107.000,1.000
1.899,3.982,0.081,1.051,7.226,1.810,4.773,4.506,-0.063,0.977,-0.170,-0.977,-1.221,0.641,73.333,629108.000,1.000
5.278,7.944,4.696,4.804,12.045,7.682,12.920,8.297,-0.063,0.978,-0.170,-1.099,-1.221,0.549,73.333,629109.000,1.000
8.996,11.712,9.869,8.805,16.352,14.569,20.269,11.564,-0.064,0.975,-0.171,-1.129,-1.251,0.610,73.333,629110.000,1.000
11.965,14.154,14.293,12.134,18.980,19.531,23.902,13.238,-0.066,0.974,-0.172,-1.190,-1.373,0.580,73.333,629111.000,1.000
13.188,14.487,16.587,13.733,18.933,19.888,21.793,11.967,-0.065,0.975,-0.171,-1.190,-1.343,0.580,73.333,629112.000,1.000
12.253,12.881,16.148,13.071,16.101,15.381,14.764,7.524,-0.067,0.975,-0.169,-1.221,-1.282,0.732,73.333,629113.000,1.000
9.470,10.333,13.288,10.370,11.296,8.501,6.026,1.122,-0.065,0.973,-0.168,-1.312,-1.373,0.671,73.333,629114.000,1.000
5.701,8.013,9.124,6.427,5.837,2.873,-0.744,-5.298,-0.065,0.973,-0.169,-1.404,-1.373,0.702,73.333,629115.000,1.000
2.048,6.682,5.025,2.313,1.117,1.047,-3.168,-9.903,-0.065,0.973,-0.172,-1.373,-1.465,0.732,73.333,629116.000,1.000
-0.568,6.354,2.010,-1.020,-1.982,2.928,-1.160,-11.529,-0.064,0.973,-0.171,-1.343,-1.404,0.793,73.333,629117.000,1.000
-1.864,6.199,0.215,-3.212,-3.774,5.655,2.781,-10.264,-0.065,0.971,-0.171,-1.312,-1.434,0.763,73.333,629118.000,1.000
-2.297,4.996,-1.242,-4.646,-5.653,5.466,4.853,-7.702,-0.064,0.969,-0.172,-1.343,-1.434,0.763,73.333,629119.000,1.000
-2.608,2.067,-3.234,-5.903,-8.808,0.468,2.605,-6.006,-0.065,0.969,-0.173,-1.282,-1.373,0.916,73.333,629120.000,1.000
-3.215,-2.130,-5.813,-7.179,-13.075,-8.111,-3.789,-6.472,-0.064,0.967,-0.172,-1.251,-1.373,0.946,73.333,629121.000,1.000
-3.995,-6.229,-8.175,-8.243,-17.112,-17.014,-12.191,-8.983,-0.065,0.970,-0.171,-1.221,-1.404,0.946,73.333,629122.000,1.000
-4.500,-8.718,-9.252,-8.749,-19.342,-22.935,-19.646,-12.380,-0.066,0.972,-0.172,-1.160,-1.526,1.038,73.333,629123.000,1.000
-4.289,-8.570,-8.403,-8.395,-18.566,-23.645,-23.224,-14.887,-0.066,0.972,-0.176,-1.038,-1.495,0.977,73.333,629124.000,1.000
-3.187,-5.654,-5.525,-6.941,-14.309,-18.353,-20.794,-14.668,-0.065,0.971,-0.173,-1.038,-1.556,1.007,73.333,629125.000,1.000
-1.517,-1.089,-1.375,-4.545,-7.534,-8.638,-12.785,-11.131,-0.065,0.973,-0.170,-1.038,-1.556,1.038,73.333,629126.000,1.000
-0.061,2.950,2.568,-2.008,-0.924,1.129,-3.183,-5.905,-0.064,0.974,-0.170,-1.007,-1.587,1.068,73.333,629127.000,1.000
0.441,4.495,5.007,-0.307,2.564,6.305,2.868,-1.857,-0.066,0.975,-0.171,-1.038,-1.556,0.946,73.333,629128.000,1.000
-0.116,3.183,5.626,0.250,1.938,5.661,3.047,-0.726,-0.065,0.976,-0.174,-1.007,-1.648,0.977,73.333,629129.000,1.000
-1.103,0.403,5.256,0.266,-1.199,1.946,-0.816,-1.892,-0.064,0.974,-0.175,-1.160,-1.617,0.916,73.333,629130.000,1.000
-1.690,-1.944,4.857,0.501,-4.202,-1.003,-5.057,-3.509,-0.062,0.972,-0.171,-1.160,-1.556,0.916,73.333,629131.000,1.000
-1.475,-2.769,4.746,1.186,-5.229,-1.109,-6.818,-4.124,-0.060,0.973,-0.170,-1.190,-1.526,0.916,73.333,629132.000,1.000
-0.710,-2.130,4.778,2.092,-3.855,1.424,-4.882,-3.112,-0.057,0.972,-0.172,-1.099,-1.556,1.038,73.333,629133.000,1.000
0.002,-0.738,4.667,2.942,-0.701,5.182,0.415,-0.488,-0.055,0.972,-0.172,-1.007,-1.465,1.129,73.333,629134.000,1.000
0.178,0.595,4.316,3.577,2.959,8.531,7.185,2.985,-0.056,0.969,-0.172,-1.038,-1.343,1.221,73.333,629135.000,1.000
-0.317,1.300,3.711,3.880,5.655,10.136,12.322,5.930,-0.059,0.968,-0.172,-0.977,-1.160,1.282,73.333,629136.000,1.000
-1.287,1.329,2.998,3.862,6.550,9.567,13.394,7.436,-0.060,0.969,-0.172,-0.977,-1.007,1.221,73.333,629137.000,1.000
-2.327,1.200,2.537,3.756,5.987,7.693,10.580,7.784,-0.062,0.972,-0.171,-0.916,-1.007,1.221,73.333,629138.000,1.000
-3.043,1.546,2.445,3.743,5.017,6.182,6.333,7.734,-0.062,0.974,-0.172,-1.038,-0.977,1.221,73.333,629139.000,1.000
-3.250,2.543,2.520,3.713,4.400,6.431,3.400,7.501,-0.061,0.975,-0.172,-0.977,-0.916,1.251,73.333,629140.000,1.000
-2.991,3.748,2.295,3.383,4.060,8.602,2.924,6.677,-0.061,0.979,-0.172,-1.129,-0.885,1.404,73.333,629141.000,1.000
-2.422,4.456,1.391,2.623,3.365,11.159,4.198,5.023,-0.062,0.979,-0.175,-1.160,-0.824,1.404,73.333,629142.000,1.000
-1.806,4.101,-0.229,1.532,1.753,11.545,5.620,2.981,-0.058,0.980,-0.177,-1.282,-0.885,1.465,73.333,629143.000,1.000
-1.655,2.377,-2.524,0.128,-0.945,7.955,5.591,1.140,-0.059,0.978,-0.176,-1.312,-0.763,1.465,73.333,629144.000,1.000
-2.718,-0.805,-5.450,-1.856,-4.664,0.553,3.064,-0.532,-0.060,0.978,-0.174,-1.434,-0.763,1.556,73.333,629145.000,1.000
-5.507,-5.111,-8.946,-4.635,-9.205,-8.674,-1.983,-2.568,-0.060,0.977,-0.174,-1.465,-0.610,1.587,73.333,629146.000,1.000
-9.629,-9.439,-12.455,-7.708,-13.826,-16.413,-7.737,-4.945,-0.058,0.973,-0.174,-1.404,-0.488,1.465,73.333,629147.000,1.000
-13.685,-12.220,-14.766,-9.835,-17.200,-19.162,-11.099,-6.665,-0.060,0.974,-0.169,-1.404,-0.427,1.526,73.333,629148.000,1.000
-16.038,-12.413,-14.871,-9.936,-18.363,-15.606,-10.277,-6.663,-0.062,0.973,-0.169,-1.373,-0.458,1.404,73.333,629149.000,1.000
-15.784,-10.231,-12.592,-7.928,-17.587,-8.158,-6.339,-4.698,-0.062,0.973,-0.170,-1.404,-0.397,1.312,73.333,629150.000,1.000
-13.229,-6.940,-8.794,-4.789,-16.116,-1.416,-2.053,-1.433,-0.061,0.976,-0.172,-1.434,-0.397,1.221,73.333,629151.000,1.000
-9.575,-4.001,-4.779,-1.893,-15.124,1.324,0.671,2.072,-0.060,0.974,-0.168,-1.587,-0.397,1.129,73.333,629152.000,1.000
-6.134,-2.302,-1.506,-0.161,-15.031,-0.069,1.670,4.943,-0.061,0.976,-0.169,-1.678,-0.366,0.946,73.333,629153.000,1.000
-3.735,-2.008,0.501,0.247,-15.782,-3.794,1.165,6.619,-0.061,0.979,-0.169,-1.740,-0.366,0.885,73.333,629154.000,1.000
-2.661,-2.806,1.201,-0.308,-17.319,-8.083,-0.835,6.775,-0.061,0.979,-0.171,-1.801,-0.397,0.885,73.333,629155.000,1.000
-2.850,-4.126,0.858,-1.335,-19.443,-11.515,-3.567,5.407,-0.061,0.980,-0.171,-2.014,-0.397,0.793,73.333,629156.000,1.000
-3.948,-5.216,0.055,-2.325,-21.404,-12.327,-4.941,3.030,-0.060,0.979,-0.169,-2.106,-0.397,0.702,73.333,629157.000,1.000
-5.303,-5.417,-0.464,-2.805,-22.274,-9.263,-3.444,0.516,-0.060,0.979,-0.170,-1.984,-0.427,0.732,73.333,629158.000,1.000
-6.251,-4.684,-0.468,-2.592,-21.928,-3.623,-0.666,-1.400,-0.059,0.978,-0.166,-2.075,-0.366,0.610,73.333,629159.000,1.000
-6.345,-3.509,-0.120,-1.748,-20.978,1.449,0.413,-2.103,-0.060,0.978,-0.166,-2.106,-0.336,0.549,73.333,629160.000,1.000
-5.358,-2.220,0.473,-0.272,-19.657,4.390,-0.600,-0.865,-0.062,0.976,-0.167,-2.075,-0.336,0.580,73.333,629161.000,1.000
-3.470,-0.899,1.312,1.756,-17.828,5.922,-1.684,2.517,-0.060,0.973,-0.167,-2.136,-0.305,0.671,73.333,629162.000,1.000
-1.481,-0.012,2.109,3.730,-16.163,6.298,-1.930,6.816,-0.061,0.972,-0.167,-2.106,-0.153,0.702,73.333,629163.000,1.000
-0.366,-0.292,2.281,4.747,-16.063,4.472,-2.232,10.045,-0.061,0.970,-0.168,-2.045,-0.183,0.732,73.333,629164.000,1.000
-0.450,-1.800,1.836,4.496,-18.142,0.317,-2.902,11.269,-0.060,0.968,-0.165,-1.923,-0.153,0.641,73.333,629165.000,1.000
-1.210,-3.630,1.423,3.563,-21.549,-4.335,-3.090,11.141,-0.062,0.968,-0.167,-1.770,-0.183,0.610,73.333,629166.000,1.000
-1.860,-4.598,1.741,2.860,-24.823,-7.060,-2.160,10.694,-0.060,0.970,-0.166,-1.678,-0.122,0.732,73.333,629167.000,1.000
-1.979,-3.998,3.090,2.929,-26.902,-6.395,-0.429,10.175,-0.060,0.969,-0.169,-1.526,-0.183,0.732,73.333,629168.000,1.000
-1.679,-1.979,5.056,3.642,-27.578,-2.716,0.984,9.055,-0.063,0.970,-0.168,-1.373,-0.214,0.793,73.333,629169.000,1.000
-1.324,0.529,6.876,4.458,-27.439,1.662,0.816,6.943,-0.064,0.970,-0.168,-1.343,-0.275,0.885,73.333,629170.000,1.000
-1.130,2.509,7.966,4.977,-27.187,4.064,-1.236,4.407,-0.065,0.969,-0.165,-1.343,-0.397,0.885,73.333,629171.000,1.000
-0.970,3.681,8.413,5.325,-26.848,3.926,-3.509,2.962,-0.066,0.970,-0.166,-1.251,-0.519,0.824,73.333,629172.000,1.000
-0.526,4.557,8.823,5.957,-25.852,3.256,-3.413,3.999,-0.066,0.969,-0.167,-1.129,-0.519,0.916,73.333,629173.000,1.000
0.473,5.896,9.717,7.215,-23.667,4.669,0.201,7.664,-0.064,0.970,-0.164,-1.068,-0.488,0.946,73.333,629174.000,1.000
2.125,8.243,11.591,9.186,-20.186,9.310,6.404,12.905,-0.065,0.968,-0.164,-1.038,-0.610,1.038,73.333,629175.000,1.000
4.185,11.477,14.514,11.528,-16.134,15.740,12.741,18.070,-0.065,0.969,-0.163,-0.916,-0.793,1.068,73.333,629176.000,1.000
5.978,14.582,17.704,13.354,-13.156,20.498,16.155,21.470,-0.065,0.967,-0.164,-1.038,-0.763,1.007,73.333,629177.000,1.000
6.904,16.385,20.083,13.790,-12.668,20.934,14.961,22.085,-0.063,0.969,-0.162,-1.038,-0.885,1.038,73.333,629178.000,1.000
6.986,16.560,21.076,12.714,-14.642,17.518,10.250,20.016,-0.064,0.970,-0.163,-0.946,-0.916,1.160,73.333,629179.000,1.000
6.683,15.577,20.854,10.687,-18.024,12.670,4.591,16.107,-0.065,0.971,-0.165,-0.854,-1.007,1.190,73.333,629180.000,1.000
6.312,13.936,19.643,8.277,-21.895,8.194,-0.437,11.229,-0.062,0.973,-0.169,-0.793,-1.129,1.221,73.333,629181.000,1.000
5.924,11.908,17.552,5.831,-25.605,4.731,-4.314,6.259,-0.063,0.974,-0.166,-0.763,-1.099,1.190,73.333,629182.000,1.000
5.533,9.793,14.928,3.705,-28.278,2.776,-6.123,2.406,-0.060,0.975,-0.166,-0.793,-1.068,1.282,73.333,629183.000,1.000
5.215,7.971,12.190,2.261,-28.996,2.987,-4.734,0.731,-0.059,0.974,-0.169,-0.793,-1.129,1.312,73.333,629184.000,1.000
5.042,6.671,9.679,1.609,-27.595,5.556,-0.225,1.180,-0.061,0.972,-0.167,-0.916,-1.160,1.343,73.333,629185.000,1.000
5.037,5.866,7.475,1.475,-24.968,9.626,5.289,2.464,-0.061,0.976,-0.168,-0.824,-1.068,1.465,73.333,629186.000,1.000
5.177,5.264,5.536,1.388,-22.688,12.785,8.383,3.104,-0.061,0.977,-0.172,-0.854,-1.038,1.556,73.333,629187.000,1.000
5.434,4.392,3.842,0.961,-22.279,11.682,6.433,2.494,-0.060,0.975,-0.170,-0.946,-1.068,1.526,73.333,629188.000,1.000
5.859,3.046,2.365,0.123,-24.159,4.940,-0.009,1.242,-0.059,0.973,-0.170,-0.977,-1.068,1.495,73.333,629189.000,1.000
6.635,1.658,1.326,-0.809,-27.196,-4.762,-7.165,0.562,-0.060,0.973,-0.168,-1.038,-1.099,1.556,73.333,629190.000,1.000
7.877,0.910,0.883,-1.465,-29.615,-12.523,-11.245,0.932,-0.061,0.974,-0.170,-1.007,-1.038,1.617,73.333,629191.000,1.000
9.384,1.117,0.891,-1.741,-30.219,-14.712,-11.114,1.497,-0.062,0.973,-0.171,-0.916,-0.977,1.678,73.333,629192.000,1.000
10.610,1.937,1.008,-1.804,-28.943,-11.175,-8.416,0.819,-0.060,0.974,-0.170,-1.007,-1.099,1.587,73.333,629193.000,1.000
10.975,2.562,0.747,-1.947,-26.734,-5.289,-6.189,-1.895,-0.059,0.973,-0.169,-1.007,-1.129,1.617,73.333,629194.000,1.000
10.376,2.361,0.071,-2.209,-24.678,-1.442,-6.446,-5.832,-0.062,0.974,-0.169,-1.129,-1.038,1.556,73.333,629195.000,1.000
9.344,1.410,-0.525,-2.257,-23.153,-1.733,-8.750,-8.934,-0.060,0.978,-0.169,-1.099,-1.038,1.556,73.333,629196.000,1.000
8.537,0.295,-0.508,-1.822,-22.017,-4.951,-11.221,-9.638,-0.060,0.978,-0.172,-1.007,-1.007,1.404,73.333,629197.000,1.000
8.186,-0.472,0.157,-1.102,-21.219,-8.114,-12.334,-8.216,-0.061,0.977,-0.174,-1.129,-0.885,1.373,73.333,629198.000,1.000
8.053,-0.739,0.856,-0.573,-20.807,-8.496,-11.556,-6.315,-0.058,0.978,-0.172,-1.190,-0.916,1.282,73.333,629199.000,1.000
7.768,-0.623,1.037,-0.520,-20.599,-5.148,-8.891,-5.365,-0.060,0.978,-0.166,-1.190,-1.007,1.190,73.333,629200.000,1.000
7.115,-0.336,0.531,-0.900,-20.143,0.573,-4.594,-5.474,-0.060,0.979,-0.167,-1.160,-1.007,1.099,73.333,629201.000,1.000
6.150,-0.083,-0.474,-1.506,-19.090,6.055,0.595,-5.684,-0.060,0.976,-0.168,-1.343,-0.977,1.068,73.333,629202.000,1.000
5.023,-0.166,-1.692,-2.259,-17.750,9.031,4.815,-5.314,-0.058,0.972,-0.168,-1.312,-0.977,0.977,73.333,629203.000,1.000
3.738,-0.984,-3.103,-3.295,-17.084,8.321,5.473,-4.757,-0.056,0.973,-0.168,-1.434,-0.946,0.854,73.333,629204.000,1.000
2.255,-2.713,-4.625,-4.583,-17.844,3.921,1.274,-4.760,-0.057,0.974,-0.174,-1.434,-0.824,0.793,73.333,629205.000,1.000
0.754,-5.009,-6.016,-5.664,-19.823,-2.812,-6.460,-5.561,-0.056,0.974,-0.172,-1.251,-0.793,0.793,73.333,629206.000,1.000
-0.239,-6.917,-6.758,-5.739,-21.663,-8.808,-13.812,-6.551,-0.058,0.974,-0.173,-1.160,-0.763,0.793,73.333,629207.000,1.000
-0.105,-7.234,-6.108,-4.077,-21.389,-10.192,-15.826,-6.368,-0.057,0.976,-0.172,-1.038,-0.732,0.763,73.333,629208.000,1.000
1.241,-5.495,-3.898,-0.734,-17.890,-5.315,-10.040,-3.873,-0.058,0.981,-0.170,-0.977,-0.702,0.885,73.333,629209.000,1.000
2.967,-2.672,-0.983,3.103,-12.202,2.917,0.773,0.544,-0.059,0.979,-0.167,-1.099,-0.793,0.854,73.333,629210.000,1.000
3.782,-0.616,0.985,5.645,-6.953,8.838,9.796,4.716,-0.056,0.975,-0.168,-1.282,-0.763,0.977,73.333,629211.000,1.000
2.899,-0.702,0.681,5.636,-4.361,8.414,11.143,6.103,-0.055,0.972,-0.168,-1.373,-0.732,1.038,73.333,629212.000,1.000
0.608,-2.906,-1.827,3.198,-4.641,2.051,4.356,3.771,-0.055,0.968,-0.171,-1.160,-0.427,0.946,73.333,629213.000,1.000
-1.917,-5.828,-5.153,-0.192,-5.933,-5.909,-5.511,-0.663,-0.059,0.967,-0.170,-1.099,-0.458,0.946,73.333,629214.000,1.000
-3.295,-7.496,-7.273,-2.523,-5.531,-9.959,-11.508,-4.005,-0.063,0.969,-0.169,-0.946,-0.580,0.977,73.333,629215.000,1.000
-2.670,-6.523,-6.836,-2.419,-1.623,-6.702,-9.410,-3.940,-0.062,0.967,-0.170,-0.885,-0.580,0.885,73.333,629216.000,1.000
-0.087,-2.978,-3.868,0.133,5.463,2.800,-0.534,-0.732,-0.064,0.970,-0.168,-0.793,-0.580,0.916,73.333,629217.000,1.000
3.593,1.614,0.456,3.907,13.311,13.148,8.995,3.339,-0.064,0.971,-0.169,-0.854,-0.732,0.824,73.333,629218.000,1.000
7.128,5.263,4.417,7.183,18.890,18.179,12.530,5.760,-0.064,0.974,-0.166,-0.854,-0.824,0.641,73.333,629219.000,1.000
9.512,6.819,6.849,8.712,20.481,15.652,7.922,5.278,-0.062,0.976,-0.166,-0.885,-0.854,0.580,73.333,629220.000,1.000
10.449,6.587,7.574,8.374,18.693,8.750,-1.078,2.556,-0.063,0.975,-0.166,-0.916,-0.916,0.488,73.333,629221.000,1.000
10.413,5.841,7.296,7.148,15.855,3.023,-7.965,-0.221,-0.064,0.974,-0.167,-0.763,-1.007,0.458,73.333,629222.000,1.000
10.154,5.642,7.013,6.284,14.132,1.611,-8.625,-1.050,-0.063,0.974,-0.169,-0.885,-1.129,0.397,73.333,629223.000,1.000
10.067,6.086,7.124,6.351,14.028,3.417,-4.012,0.288,-0.061,0.974,-0.170,-0.854,-1.221,0.366,73.333,629224.000,1.000
10.046,6.563,7.431,7.117,14.576,5.429,1.926,2.502,-0.060,0.975,-0.169,-0.824,-1.190,0.275,73.333,629225.000,1.000
9.764,6.419,7.417,8.003,14.557,5.656,5.738,4.184,-0.062,0.974,-0.169,-0.793,-1.221,0.244,73.333,629226.000,1.000
9.015,5.478,6.782,8.516,13.564,4.252,6.431,4.690,-0.060,0.973,-0.169,-0.824,-1.251,0.305,73.333,629227.000,1.000
7.900,4.254,5.835,8.439,12.310,3.089,5.607,4.120,-0.060,0.974,-0.172,-0.824,-1.190,0.336,73.333,629228.000,1.000
6.828,3.696,5.172,7.891,12.139,4.314,6.023,3.003,-0.059,0.975,-0.170,-0.824,-1.221,0.366,73.333,629229.000,1.000
6.288,4.432,5.314,7.240,13.894,8.148,8.955,1.936,-0.060,0.975,-0.169,-0.824,-1.221,0.305,73.333,629230.000,1.000
6.395,6.016,6.027,6.705,16.912,11.707,12.172,1.106,-0.056,0.975,-0.168,-0.793,-1.221,0.397,73.333,629231.000,1.000
6.738,7.238,6.465,6.233,19.529,11.467,12.197,0.411,-0.056,0.976,-0.168,-0.793,-1.160,0.397,73.333,629232.000,1.000
6.790,7.256,6.092,5.832,20.654,7.084,8.556,0.000,-0.057,0.977,-0.167,-0.824,-1.343,0.488,73.333,629233.000,1.000
6.281,6.055,4.845,5.581,20.279,1.263,3.727,0.157,-0.058,0.977,-0.167,-0.763,-1.312,0.641,73.333,629234.000,1.000
5.218,4.002,2.922,5.301,18.765,-3.493,0.003,0.735,-0.060,0.976,-0.169,-0.763,-1.282,0.671,73.333,629235.000,1.000
3.886,1.560,0.527,4.628,16.535,-6.425,-1.869,1.174,-0.062,0.977,-0.171,-0.732,-1.282,0.671,73.333,629236.000,1.000
2.901,-0.527,-1.804,3.612,14.462,-7.448,-1.600,1.237,-0.063,0.978,-0.170,-0.732,-1.373,0.793,73.333,629237.000,1.000
3.004,-1.270,-3.037,2.949,13.802,-6.055,1.337,1.348,-0.062,0.978,-0.171,-0.732,-1.404,0.824,73.333,629238.000,1.000
4.573,0.003,-2.351,3.443,15.391,-1.671,6.855,2.047,-0.063,0.976,-0.169,-0.763,-1.404,0.854,73.333,629239.000,1.000
7.232,3.016,0.326,5.297,18.926,5.040,13.398,3.380,-0.063,0.977,-0.167,-0.793,-1.404,0.763,73.333,629240.000,1.000
9.845,6.467,3.924,7.732,22.938,11.494,18.045,4.623,-0.064,0.976,-0.166,-0.916,-1.404,0.702,73.333,629241.000,1.000
11.044,8.694,6.657,9.316,25.493,14.317,18.061,4.643,-0.063,0.977,-0.166,-0.946,-1.526,0.763,73.333,629242.000,1.000
10.040,8.647,7.137,8.959,25.277,11.772,12.958,2.848,-0.064,0.974,-0.169,-1.007,-1.495,0.732,73.333,629243.000,1.000
7.127,6.522,5.131,6.727,22.470,5.366,5.147,-0.074,-0.063,0.974,-0.168,-1.038,-1.617,0.671,73.333,629244.000,1.000
3.413,3.527,1.858,3.827,18.649,-1.070,-1.308,-2.400,-0.063,0.972,-0.167,-1.038,-1.709,0.641,73.333,629245.000,1.000
-0.010,0.853,-0.983,1.656,15.507,-4.453,-3.521,-2.749,-0.063,0.972,-0.172,-0.977,-1.740,0.549,73.333,629246.000,1.000
-2.675,-1.148,-2.401,0.781,13.514,-4.762,-1.861,-1.434,-0.062,0.974,-0.171,-1.038,-1.770,0.488,73.333,629247.000,1.000
-4.670,-2.789,-2.469,0.745,11.948,-4.332,0.752,-0.176,-0.060,0.972,-0.169,-1.038,-1.770,0.427,73.333,629248.000,1.000
-6.240,-4.353,-2.039,0.694,10.026,-5.327,1.386,-0.440,-0.060,0.970,-0.172,-0.977,-1.831,0.458,73.333,629249.000,1.000
-7.453,-5.684,-1.782,0.138,7.723,-7.934,-0.697,-2.317,-0.061,0.970,-0.172,-0.854,-1.862,0.488,73.333,629250.000,1.000
-8.096,-6.258,-1.768,-0.752,5.771,-10.392,-4.084,-4.674,-0.060,0.970,-0.169,-0.793,-1.892,0.397,73.333,629251.000,1.000
-7.753,-5.481,-1.435,-1.242,5.274,-10.385,-6.566,-5.580,-0.060,0.970,-0.170,-0.793,-1.831,0.458,73.333,629252.000,1.000
-6.085,-3.031,0.011,-0.486,7.168,-6.510,-6.128,-3.118,-0.060,0.969,-0.168,-0.732,-1.862,0.458,73.333,629253.000,1.000
-3.221,0.769,2.636,1.695,11.419,0.713,-2.175,2.908,-0.058,0.969,-0.169,-0.580,-1.862,0.427,73.333,629254.000,1.000
0.031,4.683,5.481,4.310,16.431,8.390,3.325,9.843,-0.057,0.970,-0.172,-0.641,-1.953,0.397,73.333,629255.000,1.000
2.467,6.990,6.922,5.673,19.879,12.684,6.963,13.724,-0.060,0.969,-0.171,-0.580,-1.740,0.427,73.333,629256.000,1.000
3.241,6.654,5.902,4.734,20.618,11.789,7.116,12.622,-0.059,0.969,-0.171,-0.488,-1.740,0.397,73.333,629257.000,1.000
2.370,4.025,2.784,1.764,19.432,7.201,5.009,7.879,-0.059,0.971,-0.169,-0.397,-1.862,0.336,73.333,629258.000,1.000
0.560,0.460,-1.162,-2.176,18.002,2.140,2.708,2.226,-0.060,0.971,-0.171,-0.397,-1.831,0.305,73.333,629259.000,1.000
-1.235,-2.471,-4.337,-5.889,17.755,-0.564,1.718,-2.216,-0.061,0.972,-0.172,-0.458,-1.892,0.305,73.333,629260.000,1.000
-2.236,-3.667,-5.569,-8.419,19.305,0.396,2.875,-4.507,-0.060,0.973,-0.170,-0.610,-1.770,0.336,73.333,629261.000,1.000
-2.153,-2.935,-4.582,-9.332,22.313,4.528,6.361,-4.681,-0.062,0.975,-0.170,-0.519,-1.831,0.336,73.333,629262.000,1.000
-1.238,-0.942,-1.998,-8.768,25.862,10.141,11.664,-3.342,-0.061,0.976,-0.167,-0.732,-1.801,0.214,73.333,629263.000,1.000
-0.041,1.259,0.837,-7.263,29.077,15.351,17.466,-1.270,-0.060,0.977,-0.168,-0.732,-1.740,0.305,73.333,629264.000,1.000
0.896,2.655,2.683,-5.478,31.219,18.131,21.447,0.850,-0.061,0.976,-0.168,-0.916,-1.740,0.092,73.333,629265.000,1.000
1.197,2.516,2.868,-4.016,31.563,16.148,20.927,2.538,-0.062,0.977,-0.168,-1.007,-1.740,0.092,73.333,629266.000,1.000
0.810,0.861,1.625,-3.060,30.059,8.603,15.635,3.993,-0.061,0.977,-0.171,-1.129,-1.862,0.061,73.333,629267.000,1.000
0.017,-1.430,-0.107,-2.247,27.841,-2.038,8.676,6.066,-0.060,0.979,-0.167,-1.190,-1.831,0.092,73.333,629268.000,1.000
-0.898,-3.451,-1.752,-1.318,26.074,-11.967,2.597,8.724,-0.061,0.979,-0.167,-1.373,-1.862,0.092,73.333,629269.000,1.000
-1.840,-4.894,-3.228,-0.564,24.755,-18.737,-3.038,10.162,-0.062,0.980,-0.166,-1.587,-1.892,0.214,73.333,629270.000,1.000
-2.744,-5.600,-4.413,-0.336,23.471,-21.019,-8.572,8.641,-0.063,0.980,-0.168,-1.831,-1.953,0.183,73.333,629271.000,1.000
-3.419,-5.205,-4.815,-0.478,22.471,-18.052,-11.965,4.620,-0.063,0.977,-0.170,-1.862,-1.892,0.336,73.333,629272.000,1.000
-3.726,-3.730,-4.099,-0.650,22.076,-11.194,-11.610,-0.072,-0.062,0.977,-0.170,-1.892,-1.831,0.305,73.333,629273.000,1.000
-3.803,-2.058,-2.826,-0.926,21.832,-4.264,-8.781,-4.315,-0.064,0.977,-0.168,-1.923,-1.831,0.244,73.333,629274.000,1.000
-3.890,-1.277,-1.839,-1.550,21.112,-0.554,-5.570,-7.752,-0.062,0.976,-0.170,-1.984,-1.923,0.214,73.333,629275.000,1.000
-3.970,-1.655,-1.500,-2.395,20.098,0.021,-2.442,-9.839,-0.063,0.978,-0.166,-2.014,-1.831,0.305,73.333,629276.000,1.000
-3.739,-2.520,-1.488,-3.004,19.512,0.205,1.158,-10.064,-0.064,0.976,-0.168,-1.923,-1.770,0.214,73.333,629277.000,1.000
-2.994,-3.137,-1.287,-3.072,19.508,1.971,4.804,-8.727,-0.063,0.975,-0.167,-1.923,-1.740,0.275,73.333,629278.000,1.000
-1.885,-3.328,-0.810,-2.641,19.520,4.606,7.240,-6.550,-0.063,0.975,-0.168,-1.953,-1.678,0.336,73.333,629279.000,1.000
-0.655,-3.065,0.046,-1.743,19.394,6.699,8.881,-3.540,-0.063,0.977,-0.165,-2.014,-1.648,0.366,73.333,629280.000,1.000
0.635,-2.108,1.444,-0.341,19.762,8.196,11.575,0.705,-0.062,0.976,-0.166,-2.075,-1.770,0.336,73.333,629281.000,1.000
1.779,-0.723,2.947,1.072,20.545,8.729,14.758,5.273,-0.063,0.976,-0.167,-2.014,-1.709,0.305,73.333,629282.000,1.000
2.066,-0.299,3.275,1.203,19.955,5.840,14.281,7.480,-0.065,0.973,-0.168,-1.923,-1.892,0.366,73.333,629283.000,1.000
0.781,-2.207,1.303,-0.996,16.325,-2.224,7.258,5.231,-0.062,0.973,-0.169,-1.862,-1.678,0.336,73.333,629284.000,1.000
-1.845,-6.073,-2.281,-4.941,10.585,-12.762,-3.241,-0.372,-0.062,0.972,-0.166,-1.984,-1.709,0.397,73.333,629285.000,1.000
-4.571,-9.829,-5.433,-8.637,5.855,-20.024,-10.614,-5.715,-0.063,0.976,-0.165,-1.923,-1.770,0.397,73.333,629286.000,1.000
-6.035,-11.418,-6.464,-10.219,4.754,-20.190,-10.849,-7.740,-0.063,0.975,-0.167,-2.045,-1.587,0.519,73.333,629287.000,1.000
-5.664,-10.215,-5.060,-9.192,7.404,-14.092,-5.348,-6.148,-0.062,0.975,-0.166,-1.984,-1.587,0.458,73.333,629288.000,1.000
-3.931,-7.171,-2.314,-6.599,11.555,-5.865,1.112,-3.197,-0.063,0.975,-0.165,-2.014,-1.556,0.549,73.333,629289.000,1.000
-1.895,-3.992,0.309,-4.162,14.261,0.101,4.268,-1.678,-0.063,0.975,-0.167,-1.923,-1.648,0.549,73.333,629290.000,1.000
-0.512,-2.115,1.704,-3.179,13.741,1.377,2.457,-3.023,-0.062,0.974,-0.167,-1.892,-1.556,0.610,73.333,629291.000,1.000
-0.177,-1.913,1.672,-3.761,10.454,-1.538,-2.904,-6.459,-0.061,0.975,-0.163,-1.831,-1.434,0.641,73.333,629292.000,1.000
-0.632,-2.510,1.099,-4.815,6.883,-5.472,-7.841,-9.447,-0.062,0.975,-0.165,-1.740,-1.343,0.702,73.333,629293.000,1.000
-1.239,-2.504,1.123,-4.910,5.961,-6.694,-8.277,-9.405,-0.063,0.975,-0.167,-1.678,-1.373,0.824,73.333,629294.000,1.000
-1.439,-1.060,2.405,-3.297,9.132,-3.598,-2.808,-5.525,-0.061,0.977,-0.162,-1.770,-1.312,0.793,73.333,629295.000,1.000
-1.074,1.533,4.640,-0.369,15.431,2.546,6.344,0.646,-0.061,0.977,-0.160,-1.770,-1.343,0.793,73.333,629296.000,1.000
-0.408,4.133,6.833,2.649,22.082,8.760,14.830,6.188,-0.063,0.977,-0.159,-1.770,-1.221,0.793,73.333,629297.000,1.000
0.082,5.528,8.021,4.441,26.183,12.283,19.125,8.578,-0.063,0.977,-0.160,-1.678,-1.160,0.885,73.333,629298.000,1.000
-0.014,5.155,7.598,4.271,26.360,12.299,18.724,7.074,-0.063,0.975,-0.163,-1.617,-1.221,0.977,73.333,629299.000,1.000
-0.853,3.169,5.542,2.238,23.082,9.698,15.561,2.951,-0.063,0.976,-0.163,-1.617,-1.099,1.007,73.333,629300.000,1.000
-2.350,-0.004,2.059,-1.036,17.708,5.311,11.323,-1.608,-0.063,0.977,-0.163,-1.648,-1.038,0.977,73.333,629301.000,1.000
-4.177,-3.801,-2.398,-4.754,11.721,-0.456,6.455,-4.822,-0.062,0.976,-0.160,-1.740,-1.038,1.099,73.333,629302.000,1.000
-5.741,-7.379,-6.817,-8.109,6.477,-6.705,1.192,-5.927,-0.061,0.976,-0.162,-1.740,-1.007,1.129,73.333,629303.000,1.000
-6.394,-9.705,-10.073,-10.461,2.991,-11.904,-3.699,-5.205,-0.060,0.975,-0.163,-1.862,-0.885,1.099,73.333,629304.000,1.000
-5.780,-9.931,-11.329,-11.436,1.762,-14.374,-6.810,-3.612,-0.062,0.974,-0.162,-1.678,-0.916,1.221,73.333,629305.000,1.000
-4.095,-7.881,-10.543,-11.054,2.602,-13.211,-7.102,-2.343,-0.060,0.976,-0.161,-1.617,-0.793,1.190,73.333,629306.000,1.000
-2.089,-4.364,-8.425,-9.729,4.565,-9.311,-4.991,-2.227,-0.059,0.977,-0.162,-1.709,-0.793,1.160,73.333,629307.000,1.000
-0.633,-0.809,-5.876,-8.001,6.460,-4.978,-2.026,-3.125,-0.061,0.974,-0.161,-1.770,-0.763,1.099,73.333,629308.000,1.000
-0.156,1.586,-3.702,-6.222,7.617,-2.226,0.381,-3.979,-0.062,0.974,-0.161,-1.678,-0.763,1.160,73.333,629309.000,1.000
-0.439,2.457,-2.267,-4.493,8.082,-1.553,1.986,-3.658,-0.060,0.973,-0.163,-1.678,-0.641,1.190,73.333,629310.000,1.000
-0.936,2.239,-1.677,-2.900,8.283,-1.839,3.576,-1.933,-0.060,0.973,-0.160,-1.678,-0.641,1.160,73.333,629311.000,1.000
-1.226,1.791,-1.800,-1.568,8.713,-1.186,6.255,0.520,-0.058,0.973,-0.161,-1.465,-0.671,1.160,73.333,629312.000,1.000
-1.277,1.804,-2.209,-0.611,9.528,1.336,10.005,2.615,-0.060,0.973,-0.161,-1.495,-0.702,1.068,73.333,629313.000,1.000
-1.493,2.236,-2.696,-0.259,10.148,4.438,12.481,3.148,-0.063,0.973,-0.160,-1.434,-0.641,1.038,73.333,629314.000,1.000
-2.338,2.504,-3.178,-0.668,9.737,5.931,10.962,1.520,-0.063,0.972,-0.162,-1.343,-0.610,1.099,73.333,629315.000,1.000
-3.803,2.251,-3.560,-1.625,8.060,5.128,5.415,-1.612,-0.061,0.972,-0.162,-1.282,-0.610,1.007,73.333,629316.000,1.000
-5.316,1.685,-3.681,-2.670,5.509,3.166,-1.251,-4.794,-0.061,0.973,-0.163,-1.160,-0.580,0.977,73.333,629317.000,1.000
-6.146,1.288,-3.354,-3.399,2.585,1.652,-5.423,-6.676,-0.062,0.973,-0.163,-1.129,-0.580,0.946,73.333,629318.000,1.000
-5.808,1.540,-2.519,-3.493,-0.191,1.908,-4.783,-6.316,-0.062,0.975,-0.164,-1.007,-0.549,0.885,73.333,629319.000,1.000
-4.228,2.730,-1.029,-2.701,-2.173,4.673,0.859,-3.330,-0.061,0.976,-0.163,-1.038,-0.671,0.885,73.333,629320.000,1.000
-1.870,4.545,0.847,-1.203,-3.062,9.176,8.986,1.456,-0.062,0.974,-0.163,-1.129,-0.671,0.854,73.333,629321.000,1.000
0.377,5.887,2.140,0.245,-3.403,12.637,15.149,6.030,-0.062,0.976,-0.164,-1.007,-0.641,0.763,73.333,629322.000,1.000
1.700,5.531,1.852,0.844,-4.177,11.782,15.628,8.501,-0.063,0.975,-0.164,-0.977,-0.519,0.732,73.333,629323.000,1.000
1.824,3.084,-0.406,0.313,-5.920,5.467,9.855,8.265,-0.063,0.975,-0.163,-0.885,-0.641,0.763,73.333,629324.000,1.000
1.030,-0.704,-4.042,-1.118,-8.497,-4.175,0.588,5.805,-0.062,0.976,-0.163,-0.885,-0.641,0.793,73.333,629325.000,1.000
-0.190,-4.460,-8.057,-3.118,-11.530,-13.148,-8.288,1.701,-0.062,0.974,-0.163,-0.916,-0.702,0.824,73.333,629326.000,1.000
-1.341,-6.877,-11.435,-5.303,-14.543,-17.992,-13.714,-3.342,-0.062,0.976,-0.161,-0.793,-0.763,0.732,73.333,629327.000,1.000
-1.943,-7.179,-13.196,-7.006,-16.812,-17.470,-14.346,-7.933,-0.063,0.976,-0.159,-0.793,-0.793,0.854,73.333,629328.000,1.000
-1.706,-5.510,-12.959,-7.590,-17.724,-13.205,-11.355,-10.641,-0.063,0.974,-0.160,-0.793,-0.763,0.793,73.333,629329.000,1.000
-0.832,-2.973,-11.078,-6.975,-17.349,-8.737,-7.870,-11.109,-0.063,0.975,-0.160,-0.824,-0.793,0.732,73.333,629330.000,1.000
-0.012,-0.983,-8.531,-5.694,-16.255,-6.934,-6.606,-10.117,-0.062,0.975,-0.161,-0.763,-0.885,0.671,73.333,629331.000,1.000
0.084,-0.267,-6.227,-4.370,-14.732,-7.873,-7.526,-8.686,-0.062,0.976,-0.162,-0.763,-0.977,0.763,73.333,629332.000,1.000
-0.598,-0.406,-4.341,-3.186,-12.442,-9.110,-7.987,-7.243,-0.063,0.977,-0.160,-0.702,-1.068,0.732,73.333,629333.000,1.000
-1.551,-0.430,-2.711,-1.986,-9.046,-8.041,-5.647,-5.553,-0.063,0.976,-0.161,-0.824,-1.099,0.763,73.333,629334.000,1.000
-2.309,0.082,-1.249,-0.674,-5.092,-4.618,-1.096,-3.279,-0.062,0.975,-0.160,-0.763,-1.160,0.824,73.333,629335.000,1.000
-2.807,0.684,-0.172,0.597,-1.909,-1.441,2.657,-0.668,-0.062,0.974,-0.161,-0.671,-1.190,0.854,73.333,629336.000,1.000
-3.166,0.886,0.407,1.654,-0.441,-0.637,3.559,1.487,-0.063,0.975,-0.161,-0.610,-1.282,0.763,73.333,629337.000,1.000
-3.387,0.864,0.876,2.548,-0.442,-1.685,2.420,2.592,-0.063,0.975,-0.161,-0.580,-1.251,0.824,73.333,629338.000,1.000
-3.414,1.150,1.644,3.431,-0.922,-2.696,1.338,2.747,-0.064,0.975,-0.165,-0.610,-1.251,0.793,73.333,629339.000,1.000
-3.344,1.984,2.860,4.322,-1.065,-2.417,1.616,2.488,-0.062,0.974,-0.166,-0.671,-1.312,0.824,73.333,629340.000,1.000
-3.368,3.198,4.205,5.050,-0.617,-0.644,3.057,2.264,-0.062,0.974,-0.161,-0.763,-1.343,0.824,73.333,629341.000,1.000
-3.510,4.453,5.193,5.432,0.225,2.070,4.519,2.306,-0.061,0.972,-0.165,-0.610,-1.343,0.854,73.333,629342.000,1.000
-3.576,5.343,5.602,5.420,0.969,4.593,4.893,2.733,-0.062,0.974,-0.165,-0.580,-1.373,0.824,73.333,629343.000,1.000
-3.299,5.565,5.403,5.112,1.149,5.873,3.900,3.660,-0.063,0.975,-0.162,-0.671,-1.404,0.763,73.333,629344.000,1.000
-2.402,5.209,4.871,4.743,0.677,5.736,2.249,5.144,-0.061,0.975,-0.163,-0.641,-1.465,0.763,73.333,629345.000,1.000
-0.789,4.595,4.139,4.364,-0.408,4.625,0.552,6.576,-0.062,0.975,-0.165,-0.580,-1.434,0.824,73.333,629346.000,1.000
1.223,3.857,3.030,3.655,-2.207,3.023,-1.068,6.680,-0.063,0.974,-0.161,-0.488,-1.526,0.824,73.333,629347.000,1.000
3.018,2.991,1.503,2.282,-4.629,1.737,-2.109,4.694,-0.062,0.974,-0.164,-0.519,-1.526,0.885,73.333,629348.000,1.000
4.001,2.044,-0.276,0.309,-7.240,1.649,-2.050,1.207,-0.062,0.973,-0.162,-0.427,-1.556,0.824,73.333,629349.000,1.000
3.796,0.984,-1.967,-1.828,-9.835,2.109,-1.711,-2.353,-0.062,0.972,-0.164,-0.519,-1.617,0.732,73.333,629350.000,1.000
2.404,-0.260,-3.358,-3.651,-12.616,1.054,-2.825,-4.813,-0.062,0.972,-0.166,-0.488,-1.617,0.732,73.333,629351.000,1.000
0.416,-1.360,-4.177,-4.736,-15.460,-2.150,-5.834,-5.844,-0.060,0.973,-0.165,-0.458,-1.495,0.763,73.333,629352.000,1.000
-1.215,-1.735,-4.026,-4.830,-17.737,-5.767,-9.667,-6.109,-0.059,0.973,-0.163,-0.488,-1.556,0.824,73.333,629353.000,1.000
-1.867,-1.331,-3.032,-4.083,-19.043,-8.274,-13.454,-6.829,-0.060,0.973,-0.164,-0.519,-1.495,0.824,73.333,629354.000,1.000
-1.622,-0.736,-1.713,-2.902,-19.431,-9.815,-16.420,-8.373,-0.061,0.974,-0.164,-0.427,-1.556,0.793,73.333,629355.000,1.000
-1.021,-0.552,-0.649,-1.639,-19.077,-10.856,-17.300,-9.538,-0.060,0.975,-0.164,-0.397,-1.556,0.732,73.333,629356.000,1.000
-0.565,-0.927,-0.144,-0.478,-18.283,-11.291,-15.486,-8.734,-0.058,0.974,-0.159,-0.427,-1.556,0.702,73.333,629357.000,1.000
-0.358,-1.467,0.031,0.534,-17.477,-10.815,-11.966,-5.763,-0.058,0.974,-0.163,-0.366,-1.495,0.702,73.333,629358.000,1.000
-0.139,-1.391,0.343,1.381,-16.878,-9.029,-8.341,-2.208,-0.057,0.975,-0.165,-0.488,-1.404,0.671,73.333,629359.000,1.000
0.446,-0.016,1.402,2.113,-16.229,-5.419,-5.287,0.079,-0.056,0.975,-0.164,-0.397,-1.404,0.641,73.333,629360.000,1.000
1.590,2.708,3.499,2.940,-15.005,-0.143,-2.856,0.650,-0.058,0.975,-0.163,-0.458,-1.404,0.641,73.333,629361.000,1.000
3.119,5.929,6.206,4.067,-13.098,5.022,-1.744,0.449,-0.059,0.974,-0.164,-0.488,-1.190,0.610,73.333,629362.000,1.000
4.485,8.178,8.496,5.344,-11.289,7.277,-3.096,0.382,-0.058,0.974,-0.165,-0.519,-1.160,0.580,73.333,629363.000,1.000
5.172,8.331,9.326,6.311,-10.661,5.243,-6.864,0.467,-0.061,0.975,-0.166,-0.580,-1.221,0.580,73.333,629364.000,1.000
5.187,6.513,8.685,6.767,-11.472,0.696,-10.749,0.529,-0.058,0.976,-0.167,-0.641,-1.251,0.549,73.333,629365.000,1.000
4.955,3.857,7.288,6.882,-12.947,-2.859,-11.799,0.840,-0.058,0.975,-0.169,-0.702,-1.190,0.488,73.333,629366.000,1.000
4.780,1.437,5.668,6.711,-14.274,-3.394,-9.101,1.608,-0.058,0.975,-0.168,-0.854,-1.099,0.549,73.333,629367.000,1.000
4.682,-0.282,3.940,5.987,-15.340,-1.530,-4.241,2.397,-0.059,0.977,-0.165,-0.732,-1.129,0.641,73.333,629368.000,1.000
4.652,-1.119,2.044,4.539,-16.337,1.097,0.624,2.559,-0.061,0.979,-0.167,-0.671,-1.038,0.702,73.333,629369.000,1.000
4.803,-0.970,0.258,2.630,-17.359,3.198,3.938,1.859,-0.061,0.978,-0.166,-0.824,-0.916,0.671,73.333,629370.000,1.000
5.156,-0.125,-1.181,0.712,-18.646,3.527,4.099,0.262,-0.059,0.977,-0.163,-0.824,-0.946,0.702,73.333,629371.000,1.000
5.496,0.737,-2.277,-0.819,-20.439,1.141,0.209,-2.139,-0.057,0.978,-0.163,-0.824,-0.916,0.793,73.333,629372.000,1.000
5.502,1.118,-2.918,-1.558,-22.331,-3.166,-6.093,-4.698,-0.060,0.978,-0.165,-0.977,-0.916,0.702,73.333,629373.000,1.000
4.884,0.965,-3.075,-1.244,-23.421,-7.004,-11.378,-6.454,-0.061,0.977,-0.164,-0.916,-0.885,0.671,73.333,629374.000,1.000
3.506,0.341,-2.858,-0.038,-23.329,-8.789,-13.196,-6.931,-0.062,0.977,-0.164,-0.946,-0.793,0.793,73.333,629375.000,1.000
1.542,-0.702,-2.532,1.521,-22.580,-8.938,-11.723,-6.446,-0.061,0.976,-0.163,-0.885,-0.793,0.702,73.333,629376.000,1.000
-0.565,-1.925,-2.244,2.863,-21.948,-8.609,-8.945,-5.618,-0.061,0.975,-0.165,-0.854,-0.732,0.702,73.333,629377.000,1.000
-2.415,-2.935,-1.972,3.593,-21.869,-8.501,-7.012,-4.948,-0.062,0.976,-0.165,-1.007,-0.702,0.763,73.333,629378.000,1.000
-3.797,-3.349,-1.869,3.584,-22.176,-8.479,-6.932,-4.672,-0.063,0.976,-0.163,-0.916,-0.732,0.763,73.333,629379.000,1.000
-4.471,-2.745,-1.739,3.291,-21.856,-7.315,-7.606,-4.303,-0.061,0.975,-0.166,-0.916,-0.732,0.732,73.333,629380.000,1.000
-4.124,-0.743,-0.892,3.673,-19.366,-3.232,-6.369,-2.615,-0.061,0.976,-0.162,-1.007,-0.702,0.671,73.333,629381.000,1.000
-2.714,2.537,1.270,5.457,-13.859,4.337,-1.193,1.410,-0.064,0.975,-0.165,-0.977,-0.702,0.702,73.333,629382.000,1.000
-0.804,6.071,4.418,8.332,-6.420,13.195,6.872,7.406,-0.063,0.974,-0.164,-0.916,-0.854,0.610,73.333,629383.000,1.000
0.589,8.259,7.006,10.914,0.164,19.200,13.803,13.444,-0.063,0.974,-0.163,-0.854,-0.946,0.580,73.333,629384.000,1.000
0.596,7.906,7.582,11.686,3.208,19.236,16.041,17.260,-0.063,0.974,-0.168,-0.946,-0.946,0.671,73.333,629385.000,1.000
-0.971,4.951,5.800,9.987,1.809,13.358,13.183,17.557,-0.062,0.974,-0.167,-0.824,-0.977,0.641,73.333,629386.000,1.000
-3.494,0.447,2.504,6.341,-2.796,4.604,7.827,14.458,-0.060,0.975,-0.165,-0.854,-1.007,0.580,73.333,629387.000,1.000
-5.963,-4.146,-0.977,1.999,-8.188,-2.996,3.296,9.134,-0.061,0.972,-0.166,-0.793,-1.099,0.641,73.333,629388.000,1.000
-7.687,-7.903,-4.004,-1.939,-12.403,-7.147,0.656,2.961,-0.061,0.972,-0.164,-0.641,-1.068,0.702,73.333,629389.000,1.000
-8.613,-10.717,-6.595,-4.965,-14.872,-8.469,-1.778,-2.988,-0.060,0.971,-0.164,-0.580,-1.160,0.793,73.333,629390.000,1.000
-9.049,-12.715,-8.910,-7.026,-15.880,-8.768,-5.863,-7.895,-0.063,0.971,-0.165,-0.671,-1.282,0.732,73.333,629391.000,1.000
-9.189,-13.726,-10.746,-8.132,-15.557,-8.711,-11.159,-10.937,-0.062,0.971,-0.165,-0.580,-1.221,0.641,73.333,629392.000,1.000
-8.948,-13.461,-11.523,-8.224,-13.788,-7.830,-15.444,-11.460,-0.065,0.974,-0.166,-0.488,-1.312,0.610,73.333,629393.000,1.000
-8.170,-11.982,-10.972,-7.391,-10.715,-5.957,-16.931,-9.567,-0.064,0.973,-0.166,-0.397,-1.465,0.671,73.333,629394.000,1.000
-6.852,-9.724,-9.120,-5.921,-6.780,-3.568,-15.229,-6.120,-0.065,0.974,-0.164,-0.397,-1.587,0.580,73.333,629395.000,1.000
-5.213,-7.185,-6.314,-4.168,-2.361,-1.020,-10.979,-2.202,-0.066,0.976,-0.165,-0.305,-1.740,0.610,73.333,629396.000,1.000
-3.652,-4.782,-3.214,-2.503,2.184,1.696,-5.294,1.149,-0.065,0.975,-0.166,-0.427,-1.709,0.549,73.333,629397.000,1.000
-2.604,-2.977,-0.623,-1.380,6.028,4.222,0.088,2.857,-0.063,0.977,-0.163,-0.427,-1.770,0.549,73.333,629398.000,1.000
-2.329,-2.255,0.640,-1.236,7.951,5.429,2.724,2.144,-0.063,0.977,-0.164,-0.519,-1.831,0.488,73.333,629399.000,1.000
-2.693,-2.721,0.445,-2.048,7.329,4.414,1.153,-0.799,-0.063,0.979,-0.166,-0.641,-1.953,0.366,73.333,629400.000,1.000
-3.212,-3.886,-0.667,-3.174,4.808,1.519,-3.700,-4.872,-0.063,0.977,-0.167,-0.763,-1.953,0.397,73.333,629401.000,1.000
-3.359,-4.981,-1.844,-3.729,1.920,-2.134,-9.308,-8.576,-0.061,0.977,-0.167,-0.671,-1.953,0.336,73.333,629402.000,1.000
-2.869,-5.365,-2.078,-3.066,0.290,-5.435,-13.228,-10.456,-0.057,0.976,-0.170,-0.580,-1.953,0.427,73.333,629403.000,1.000
-1.882,-4.725,-0.754,-1.140,0.913,-7.382,-14.265,-9.673,-0.055,0.974,-0.167,-0.641,-1.953,0.519,73.333,629404.000,1.000
-0.834,-3.190,2.014,1.427,3.651,-7.304,-12.545,-6.524,-0.055,0.973,-0.163,-0.793,-1.862,0.610,73.333,629405.000,1.000
-0.199,-1.335,5.044,3.533,7.275,-5.392,-9.255,-2.582,-0.055,0.970,-0.169,-0.824,-1.709,0.671,73.333,629406.000,1.000
-0.282,-0.021,6.625,4.081,10.090,-3.083,-6.425,0.055,-0.058,0.969,-0.169,-0.641,-1.678,0.702,73.333,629407.000,1.000
-1.098,-0.070,5.776,2.579,10.808,-2.635,-6.065,0.220,-0.061,0.970,-0.165,-0.549,-1.617,0.702,73.333,629408.000,1.000
-2.377,-1.767,2.803,-0.565,9.323,-5.231,-8.569,-1.631,-0.061,0.972,-0.167,-0.458,-1.556,0.702,73.333,629409.000,1.000
-3.779,-4.626,-0.925,-4.349,6.690,-9.529,-12.163,-4.302,-0.061,0.972,-0.167,-0.366,-1.526,0.732,73.333,629410.000,1.000
-5.176,-7.821,-4.330,-7.888,4.128,-13.086,-14.872,-7.068,-0.061,0.975,-0.168,-0.336,-1.526,0.732,73.333,629411.000,1.000
-6.581,-10.670,-7.228,-10.710,2.236,-14.674,-16.214,-9.629,-0.057,0.978,-0.167,-0.305,-1.373,0.763,73.333,629412.000,1.000
-7.827,-12.674,-9.651,-12.546,1.218,-14.349,-16.238,-11.431,-0.057,0.980,-0.169,-0.458,-1.373,0.793,73.333,629413.000,1.000
-8.450,-13.381,-11.461,-13.237,1.398,-12.100,-13.996,-11.748,-0.057,0.978,-0.170,-0.366,-1.343,0.824,73.333,629414.000,1.000
-7.982,-12.635,-12.339,-12.880,2.911,-7.888,-8.544,-10.500,-0.056,0.979,-0.169,-0.641,-1.282,0.885,73.333,629415.000,1.000
-6.529,-11.065,-12.580,-12.114,4.806,-3.190,-1.959,-8.880,-0.056,0.977,-0.167,-0.702,-1.190,0.854,73.333,629416.000,1.000
-4.897,-9.871,-13.076,-11.827,5.328,-0.783,1.168,-8.490,-0.057,0.977,-0.169,-0.610,-1.129,0.885,73.333,629417.000,1.000
-3.896,-9.730,-14.106,-12.238,3.702,-1.994,-1.533,-9.505,-0.058,0.976,-0.168,-0.610,-1.007,0.793,73.333,629418.000,1.000
-3.660,-10.181,-14.980,-12.553,1.198,-5.027,-7.486,-10.207,-0.060,0.976,-0.166,-0.641,-0.793,0.671,73.333,629419.000,1.000
-3.781,-10.330,-14.645,-11.726,-0.033,-6.705,-11.638,-8.622,-0.061,0.977,-0.165,-0.702,-0.824,0.519,73.333,629420.000,1.000
-3.918,-9.895,-12.920,-9.618,0.954,-5.589,-11.233,-4.696,-0.061,0.979,-0.166,-0.763,-0.854,0.366,73.333,629421.000,1.000
-4.045,-9.241,-10.588,-7.133,3.350,-2.747,-7.381,-0.498,-0.063,0.980,-0.167,-0.732,-0.793,0.336,73.333,629422.000,1.000
-4.228,-8.614,-8.440,-5.279,5.841,0.315,-2.558,1.718,-0.062,0.981,-0.169,-0.854,-0.732,0.183,73.333,629423.000,1.000
-4.408,-7.780,-6.865,-4.373,7.763,3.154,1.596,1.140,-0.063,0.981,-0.166,-1.007,-0.854,0.061,73.333,629424.000,1.000
-4.371,-6.368,-5.649,-4.011,9.048,5.510,4.181,-1.543,-0.063,0.983,-0.166,-1.190,-0.916,-0.122,73.333,629425.000,1.000
-3.883,-4.378,-4.461,-3.629,9.657,6.176,4.292,-5.013,-0.063,0.983,-0.165,-1.251,-0.977,-0.214,73.333,629426.000,1.000
-2.833,-2.280,-3.192,-2.977,9.415,3.727,1.503,-7.990,-0.060,0.982,-0.165,-1.373,-0.946,-0.275,73.333,629427.000,1.000
-1.283,-0.628,-1.858,-2.137,8.306,-1.828,-3.352,-9.561,-0.063,0.980,-0.165,-1.495,-0.946,-0.366,73.333,629428.000,1.000
0.506,0.356,-0.697,-1.354,6.699,-8.382,-8.488,-9.504,-0.063,0.979,-0.165,-1.648,-0.977,-0.427,73.333,629429.000,1.000
2.117,0.840,0.141,-0.856,5.256,-12.746,-11.843,-8.210,-0.063,0.979,-0.165,-1.617,-0.946,-0.275,73.333,629430.000,1.000
3.132,1.136,0.608,-0.713,4.721,-12.518,-11.804,-6.105,-0.062,0.978,-0.164,-1.709,-1.038,-0.336,73.333,629431.000,1.000
3.295,1.400,0.765,-0.749,5.599,-7.457,-7.961,-3.210,-0.063,0.976,-0.163,-1.678,-1.007,-0.275,73.333,629432.000,1.000
2.540,1.396,0.696,-0.785,7.519,0.120,-2.087,0.264,-0.063,0.975,-0.163,-1.678,-1.007,-0.183,73.333,629433.000,1.000
0.926,0.516,0.016,-1.078,8.960,6.252,1.910,3.112,-0.063,0.973,-0.164,-1.770,-0.977,-0.153,73.333,629434.000,1.000
-1.237,-1.650,-1.667,-2.088,8.305,7.874,1.036,3.924,-0.066,0.974,-0.163,-1.617,-1.129,-0.275,73.333,629435.000,1.000
-3.310,-4.635,-4.222,-3.805,5.416,5.307,-3.581,2.681,-0.067,0.973,-0.163,-1.617,-1.190,-0.092,73.333,629436.000,1.000
-4.588,-7.161,-6.805,-5.550,1.836,1.855,-7.525,0.914,-0.067,0.972,-0.164,-1.678,-1.190,0.153,73.333,629437.000,1.000
-4.747,-8.097,-8.313,-6.547,-0.685,0.364,-7.638,0.115,-0.067,0.969,-0.163,-1.556,-1.373,0.244,73.333,629438.000,1.000
-4.001,-7.294,-8.324,-6.535,-1.580,0.654,-4.928,0.460,-0.069,0.970,-0.162,-1.434,-1.465,0.275,73.333,629439.000,1.000
-2.729,-5.344,-6.852,-5.581,-1.227,0.821,-2.338,1.347,-0.071,0.969,-0.163,-1.373,-1.617,0.397,73.333,629440.000,1.000
-1.095,-2.793,-4.018,-3.683,0.089,0.185,-1.204,2.501,-0.072,0.970,-0.159,-1.465,-1.678,0.366,73.333,629441.000,1.000
0.822,0.100,-0.105,-0.832,2.442,0.043,-0.532,4.120,-0.071,0.970,-0.160,-1.373,-1.801,0.458,73.333,629442.000,1.000
2.718,2.995,4.255,2.648,5.727,1.877,1.176,6.302,-0.071,0.970,-0.160,-1.251,-1.953,0.488,73.333,629443.000,1.000
4.104,5.312,8.012,6.049,9.330,5.643,4.099,8.729,-0.070,0.967,-0.160,-1.282,-2.014,0.549,73.333,629444.000,1.000
4.627,6.600,10.493,8.626,12.333,9.719,7.036,10.757,-0.071,0.969,-0.158,-1.190,-2.136,0.641,73.333,629445.000,1.000
4.239,6.765,11.570,9.861,13.796,11.865,8.210,11.555,-0.068,0.969,-0.161,-1.038,-2.228,0.610,73.333,629446.000,1.000
3.201,6.035,11.403,9.671,13.124,10.603,6.574,10.570,-0.067,0.968,-0.159,-0.916,-2.258,0.580,73.333,629447.000,1.000
2.056,5.008,10.414,8.559,10.550,6.585,3.076,8.112,-0.066,0.968,-0.161,-0.885,-2.319,0.580,73.333,629448.000,1.000
1.477,4.623,9.171,7.421,7.300,2.595,0.402,5.383,-0.064,0.969,-0.161,-0.763,-2.319,0.519,73.333,629449.000,1.000
1.933,5.672,8.474,7.091,5.042,1.647,1.146,3.913,-0.064,0.971,-0.158,-0.702,-2.289,0.549,73.333,629450.000,1.000
3.383,8.144,8.804,7.844,4.938,4.763,5.704,4.668,-0.065,0.972,-0.163,-0.702,-2.350,0.702,73.333,629451.000,1.000
5.336,11.139,10.026,9.345,7.101,10.434,12.279,7.640,-0.064,0.971,-0.166,-0.671,-2.258,0.641,73.333,629452.000,1.000
7.205,13.473,11.638,10.997,10.670,15.914,18.515,11.970,-0.063,0.972,-0.162,-0.671,-2.228,0.641,73.333,629453.000,1.000
8.566,14.320,12.787,12.157,14.180,18.824,22.508,16.199,-0.063,0.973,-0.163,-0.549,-2.258,0.610,73.333,629454.000,1.000
9.161,13.382,12.695,12.212,15.994,17.805,22.871,18.656,-0.063,0.973,-0.160,-0.641,-2.136,0.763,73.333,629455.000,1.000
8.805,10.782,10.835,10.642,14.811,12.745,18.471,17.827,-0.062,0.974,-0.160,-0.610,-2.045,0.732,73.333,629456.000,1.000
7.570,7.218,7.405,7.427,10.554,5.502,9.688,13.187,-0.063,0.973,-0.160,-0.671,-1.984,0.671,73.333,629457.000,1.000
5.979,3.965,3.641,3.395,4.817,-0.327,-0.216,6.063,-0.060,0.973,-0.164,-0.641,-1.923,0.702,73.333,629458.000,1.000
4.700,2.120,0.900,-0.244,-0.248,-1.999,-7.057,-0.930,-0.060,0.974,-0.166,-0.641,-1.801,0.763,73.333,629459.000,1.000
4.139,1.910,-0.018,-2.564,-3.401,0.199,-8.658,-5.399,-0.060,0.975,-0.162,-0.641,-1.740,0.702,73.333,629460.000,1.000
4.360,2.906,0.864,-3.211,-4.479,4.097,-5.319,-6.202,-0.058,0.978,-0.164,-0.610,-1.740,0.732,73.333,629461.000,1.000
5.208,4.648,3.008,-2.332,-3.758,8.250,1.448,-3.614,-0.059,0.977,-0.164,-0.641,-1.648,0.824,73.333,629462.000,1.000
6.392,6.793,5.760,-0.490,-1.803,12.267,9.363,0.888,-0.061,0.978,-0.164,-0.702,-1.495,0.702,73.333,629463.000,1.000
7.408,8.719,8.089,1.312,0.169,14.979,14.922,4.926,-0.061,0.979,-0.162,-0.824,-1.404,0.732,73.333,629464.000,1.000
7.619,9.416,9.004,2.018,0.552,14.076,14.657,6.271,-0.059,0.980,-0.164,-0.916,-1.282,0.763,73.333,629465.000,1.000
6.729,8.246,8.212,1.260,-1.437,8.471,7.827,4.271,-0.061,0.978,-0.161,-0.977,-1.160,0.763,73.333,629466.000,1.000
5.139,5.691,6.531,-0.297,-4.914,0.150,-2.365,0.343,-0.061,0.979,-0.160,-0.916,-1.190,0.793,73.333,629467.000,1.000
3.644,3.047,5.362,-1.495,-7.923,-6.930,-10.714,-3.055,-0.062,0.980,-0.163,-0.977,-1.160,0.702,73.333,629468.000,1.000
2.807,1.443,5.436,-1.518,-8.732,-9.524,-13.246,-3.905,-0.060,0.979,-0.163,-1.068,-1.038,0.793,73.333,629469.000,1.000
2.703,1.250,6.697,-0.170,-6.727,-6.924,-8.923,-1.485,-0.061,0.979,-0.161,-1.038,-0.946,0.702,73.333,629470.000,1.000
2.951,1.982,8.412,2.084,-2.789,-1.162,-0.168,3.200,-0.063,0.982,-0.163,-1.038,-0.793,0.549,73.333,629471.000,1.000
2.886,2.529,9.482,4.198,0.994,4.141,8.112,7.727,-0.063,0.983,-0.162,-1.129,-0.793,0.641,73.333,629472.000,1.000
2.039,1.892,9.188,5.160,2.640,5.961,11.716,9.771,-0.063,0.983,-0.161,-1.251,-0.702,0.671,73.333,629473.000,1.000
0.675,0.098,7.633,4.799,1.795,4.082,10.222,8.726,-0.062,0.980,-0.163,-1.373,-0.671,0.610,73.333,629474.000,1.000
-0.201,-1.621,5.943,3.989,0.000,1.267,7.075,6.055,-0.062,0.977,-0.162,-1.404,-0.702,0.519,73.333,629475.000,1.000
0.397,-1.831,5.284,3.849,-0.714,0.691,6.198,4.004,-0.063,0.974,-0.164,-1.434,-0.702,0.549,73.333,629476.000,1.000
2.610,-0.206,5.834,4.733,0.403,2.974,8.522,3.880,-0.061,0.971,-0.166,-1.312,-0.641,0.549,73.333,629477.000,1.000
5.505,2.140,6.720,5.952,2.331,5.805,11.698,5.211,-0.061,0.973,-0.166,-1.251,-0.671,0.580,73.333,629478.000,1.000
7.581,3.595,6.519,6.334,3.395,6.441,12.645,6.321,-0.062,0.975,-0.165,-1.099,-0.580,0.641,73.333,629479.000,1.000
7.715,3.299,4.510,5.222,2.800,4.279,10.466,5.944,-0.062,0.975,-0.168,-0.916,-0.519,0.732,73.333,629480.000,1.000
5.856,1.543,1.116,2.988,1.104,0.968,6.827,4.315,-0.064,0.976,-0.163,-0.885,-0.458,0.732,73.333,629481.000,1.000
2.957,-0.646,-2.378,0.727,-0.413,-1.311,4.244,2.894,-0.063,0.975,-0.164,-0.732,-0.458,0.854,73.333,629482.000,1.000
0.290,-2.178,-4.562,-0.545,-0.672,-1.312,4.313,3.142,-0.063,0.974,-0.162,-0.916,-0.427,0.946,73.333,629483.000,1.000
-1.311,-2.504,-4.982,-0.602,0.547,0.812,6.699,5.283,-0.062,0.969,-0.160,-0.885,-0.458,0.977,73.333,629484.000,1.000
-1.683,-1.815,-4.054,0.010,2.493,3.815,9.517,8.157,-0.062,0.968,-0.161,-0.885,-0.366,0.977,73.333,629485.000,1.000
-1.087,-0.678,-2.553,0.551,3.980,6.110,10.679,10.055,-0.062,0.969,-0.160,-0.702,-0.427,1.007,73.333,629486.000,1.000
0.139,0.507,-1.052,0.678,4.199,6.584,9.225,9.795,-0.062,0.969,-0.163,-0.610,-0.427,1.099,73.333,629487.000,1.000
1.731,1.661,0.351,0.632,3.131,4.996,5.504,7.376,-0.066,0.969,-0.161,-0.488,-0.366,1.129,73.333,629488.000,1.000
3.407,2.792,1.585,0.923,1.440,2.140,0.783,3.918,-0.070,0.971,-0.162,-0.153,-0.549,1.038,73.333,629489.000,1.000
4.819,3.875,2.695,1.979,0.188,-0.144,-2.604,1.225,-0.071,0.971,-0.160,-0.214,-0.549,0.946,73.333,629490.000,1.000
5.685,4.892,3.765,3.894,0.346,0.091,-2.190,1.019,-0.072,0.975,-0.160,-0.244,-0.702,0.793,73.333,629491.000,1.000
5.895,5.745,4.725,6.313,2.048,3.063,2.369,3.942,-0.071,0.977,-0.165,-0.336,-0.793,0.580,73.333,629492.000,1.000
5.446,6.158,5.286,8.463,4.220,6.574,8.345,8.785,-0.068,0.978,-0.165,-0.305,-0.977,0.580,73.333,629493.000,1.000
4.441,5.961,5.041,9.508,5.356,7.901,11.926,13.040,-0.067,0.976,-0.164,-0.427,-1.099,0.488,73.333,629494.000,1.000
3.205,5.420,4.180,9.128,4.720,6.165,11.282,14.746,-0.065,0.975,-0.161,-0.488,-1.129,0.458,73.333,629495.000,1.000
2.116,4.977,3.211,7.572,2.503,2.547,7.248,13.360,-0.063,0.975,-0.163,-0.519,-1.160,0.488,73.333,629496.000,1.000
1.335,4.802,2.358,5.296,-0.759,-0.987,2.205,9.249,-0.063,0.975,-0.162,-0.519,-1.190,0.519,73.333,629497.000,1.000
0.792,4.822,1.619,2.825,-4.333,-2.621,-1.079,3.482,-0.066,0.974,-0.162,-0.458,-1.251,0.458,73.333,629498.000,1.000
0.332,4.950,0.804,0.701,-7.234,-1.376,-0.889,-2.095,-0.063,0.974,-0.160,-0.458,-1.282,0.397,73.333,629499.000,1.000
-0.156,5.019,-0.183,-0.705,-8.753,1.927,1.966,-5.593,-0.063,0.974,-0.165,-0.488,-1.312,0.427,73.333,629500.000,1.000
-0.706,4.722,-1.485,-1.406,-8.977,4.867,4.504,-6.241,-0.065,0.976,-0.165,-0.458,-1.312,0.427,73.333,629501.000,1.000
-1.229,3.921,-3.167,-1.682,-8.448,5.513,4.475,-4.697,-0.065,0.976,-0.163,-0.549,-1.343,0.488,73.333,629502.000,1.000
-1.618,2.757,-5.015,-1.928,-7.827,3.604,2.030,-2.600,-0.063,0.977,-0.161,-0.580,-1.373,0.519,73.333,629503.000,1.000
-1.941,1.353,-6.948,-2.572,-7.892,-0.235,-1.501,-1.719,-0.062,0.975,-0.162,-0.671,-1.373,0.671,73.333,629504.000,1.000
-2.330,-0.174,-8.819,-3.740,-9.091,-4.968,-4.711,-2.800,-0.063,0.977,-0.164,-0.702,-1.526,0.671,73.333,629505.000,1.000
-2.751,-1.525,-10.341,-5.088,-11.032,-9.142,-6.611,-5.100,-0.062,0.978,-0.165,-0.702,-1.404,0.763,73.333,629506.000,1.000
-3.005,-2.314,-11.049,-6.012,-12.588,-11.357,-6.578,-6.926,-0.063,0.980,-0.162,-0.671,-1.434,0.854,73.333,629507.000,1.000
-2.895,-2.255,-10.294,-5.953,-12.500,-10.549,-3.849,-6.737,-0.064,0.978,-0.165,-0.793,-1.495,0.885,73.333,629508.000,1.000
-2.387,-1.330,-7.910,-4.786,-10.269,-6.348,1.678,-4.372,-0.064,0.978,-0.165,-0.885,-1.465,0.916,73.333,629509.000,1.000
-1.608,0.073,-4.398,-2.948,-6.675,-0.015,8.182,-1.190,-0.063,0.979,-0.162,-0.793,-1.587,0.977,73.333,629510.000,1.000
-0.715,1.350,-0.774,-1.097,-3.152,5.626,12.775,1.259,-0.064,0.978,-0.160,-1.038,-1.556,0.885,73.333,629511.000,1.000
0.251,2.149,2.072,0.397,-0.614,8.149,14.008,2.610,-0.063,0.976,-0.164,-1.068,-1.465,0.916,73.333,629512.000,1.000
1.316,2.541,3.878,1.536,0.861,7.258,12.402,3.468,-0.063,0.976,-0.163,-1.129,-1.587,0.885,73.333,629513.000,1.000
2.412,2.779,4.673,2.413,1.522,4.583,8.942,4.231,-0.062,0.976,-0.161,-1.251,-1.587,0.885,73.333,629514.000,1.000
3.407,3.102,4.806,3.105,1.662,2.345,4.802,4.724,-0.060,0.974,-0.161,-1.221,-1.587,0.885,73.333,629515.000,1.000
4.174,3.605,4.651,3.603,1.552,2.014,1.468,4.552,-0.061,0.975,-0.159,-1.312,-1.526,0.854,73.333,629516.000,1.000
4.609,4.162,4.394,3.789,1.349,3.513,0.059,3.559,-0.062,0.976,-0.161,-1.221,-1.526,0.824,73.333,629517.000,1.000
4.793,4.628,4.257,3.720,1.305,5.759,1.139,2.348,-0.061,0.977,-0.163,-1.251,-1.465,0.793,73.333,629518.000,1.000
5.072,5.067,4.409,3.817,1.944,7.905,5.010,2.245,-0.060,0.974,-0.163,-1.282,-1.373,0.824,73.333,629519.000,1.000
5.629,5.518,4.883,4.450,3.435,9.461,11.033,4.148,-0.059,0.975,-0.163,-1.282,-1.312,0.763,73.333,629520.000,1.000
6.022,5.653,5.138,5.302,4.908,9.669,16.401,7.215,-0.060,0.973,-0.163,-1.129,-1.190,0.824,73.333,629521.000,1.000
5.486,4.949,4.327,5.477,4.852,7.650,17.288,9.084,-0.058,0.973,-0.162,-1.038,-1.190,0.854,73.333,629522.000,1.000
