EEG 1,EEG 2,EEG 3,EEG 4,EEG 5,EEG 6,EEG 7,EEG 8,Accelerometer X,Accelerometer Y,Accelerometer Z,Gyroscope X,Gyroscope Y,Gyroscope Z,Battery Level,Counter,Validation Indicator
4.037,10.696,2.950,1.336,3.552,3.396,4.779,0.718,0.019,0.979,-0.094,-0.183,-1.160,1.129,66.667,462433.000,1.000
6.012,13.270,4.102,2.502,5.539,6.479,6.848,3.707,0.019,0.980,-0.092,-0.061,-1.129,0.977,66.667,462434.000,1.000
7.833,15.623,5.051,3.556,7.148,7.935,8.407,6.243,0.017,0.978,-0.090,0.153,-1.099,1.007,66.667,462435.000,1.000
8.875,17.156,5.520,4.103,8.092,8.184,9.801,7.991,0.016,0.977,-0.092,0.336,-1.160,0.854,66.667,462436.000,1.000
8.909,17.639,5.595,4.264,8.387,7.769,11.169,9.082,0.016,0.977,-0.094,0.458,-1.038,0.854,66.667,462437.000,1.000
8.012,17.141,5.440,4.353,8.193,7.010,12.264,9.788,0.017,0.978,-0.092,0.702,-1.099,0.854,66.667,462438.000,1.000
6.350,15.826,4.974,4.367,7.548,5.977,12.604,10.098,0.015,0.979,-0.096,0.916,-1.373,0.824,66.667,462439.000,1.000
4.149,13.854,3.901,3.959,6.266,4.630,11.634,9.599,0.015,0.979,-0.092,1.038,-1.251,0.763,66.667,462440.000,1.000
1.777,11.461,2.093,2.870,4.221,2.956,9.022,7.894,0.017,0.978,-0.096,1.129,-1.282,0.641,66.667,462441.000,1.000
-0.272,9.054,-0.128,1.286,1.629,1.004,5.008,5.104,0.018,0.979,-0.094,1.160,-1.221,0.580,66.667,462442.000,1.000
-1.602,7.096,-2.159,-0.323,-1.078,-1.143,0.353,1.715,0.016,0.977,-0.093,1.251,-1.282,0.580,66.667,462443.000,1.000
-2.286,5.765,-3.585,-1.642,-3.617,-3.503,-4.111,-1.941,0.014,0.978,-0.097,1.404,-1.373,0.671,66.667,462444.000,1.000
-2.716,4.999,-4.258,-2.573,-5.735,-5.931,-7.469,-5.461,0.016,0.979,-0.096,1.373,-1.404,0.641,66.667,462445.000,1.000
-2.938,4.985,-3.923,-2.821,-6.710,-7.461,-8.400,-7.738,0.016,0.981,-0.096,1.495,-1.434,0.580,66.667,462446.000,1.000
-2.591,6.152,-2.277,-1.957,-5.678,-6.679,-5.753,-7.391,0.015,0.981,-0.095,1.617,-1.434,0.488,66.667,462447.000,1.000
-1.682,8.395,0.390,-0.105,-2.789,-3.388,-0.101,-4.266,0.015,0.983,-0.094,1.709,-1.495,0.580,66.667,462448.000,1.000
-0.891,10.707,2.988,1.818,0.412,0.662,5.779,-0.109,0.016,0.984,-0.094,1.678,-1.556,0.580,66.667,462449.000,1.000
-0.961,11.876,4.303,2.805,2.144,3.209,8.841,2.787,0.015,0.983,-0.096,1.556,-1.526,0.610,66.667,462450.000,1.000
-2.114,11.359,3.787,2.530,1.722,3.235,7.901,3.349,0.015,0.984,-0.097,1.465,-1.587,0.641,66.667,462451.000,1.000
-4.025,9.562,1.815,1.426,-0.244,1.313,3.824,2.054,0.014,0.983,-0.098,1.434,-1.587,0.763,66.667,462452.000,1.000
-5.949,7.615,-0.539,0.307,-2.507,-1.183,-1.354,0.208,0.014,0.984,-0.099,1.404,-1.678,0.763,66.667,462453.000,1.000
-6.933,6.716,-2.081,-0.104,-3.979,-3.203,-5.395,-0.782,0.015,0.984,-0.098,1.434,-1.740,0.854,66.667,462454.000,1.000
-6.388,7.305,-2.196,0.414,-4.301,-4.611,-6.899,-0.033,0.014,0.986,-0.100,1.404,-1.648,0.793,66.667,462455.000,1.000
-4.630,8.786,-1.202,1.463,-3.816,-5.680,-5.769,2.411,0.016,0.987,-0.101,1.282,-1.617,1.038,66.667,462456.000,1.000
-2.697,10.209,0.035,2.424,-2.920,-6.046,-2.538,5.878,0.014,0.990,-0.102,1.190,-1.587,0.977,66.667,462457.000,1.000
-1.513,11.154,0.841,2.975,-1.669,-4.653,1.957,9.513,0.015,0.990,-0.100,1.038,-1.617,1.160,66.667,462458.000,1.000
-1.334,11.762,1.016,3.118,-0.195,-1.213,5.846,12.213,0.014,0.989,-0.099,0.977,-1.556,1.312,66.667,462459.000,1.000
-1.905,12.183,0.617,2.883,0.952,2.836,6.731,12.894,0.014,0.989,-0.099,0.702,-1.434,1.404,66.667,462460.000,1.000
-2.787,12.403,-0.158,2.268,1.270,5.435,3.697,11.184,0.017,0.989,-0.100,0.580,-1.526,1.434,66.667,462461.000,1.000
-3.494,12.441,-0.958,1.367,0.836,5.585,-1.809,7.662,0.017,0.991,-0.100,0.458,-1.465,1.343,66.667,462462.000,1.000
-3.570,12.454,-1.392,0.438,0.242,3.758,-7.042,3.697,0.017,0.992,-0.098,0.397,-1.495,1.404,66.667,462463.000,1.000
-2.751,12.616,-1.215,-0.145,0.138,1.194,-9.602,1.022,0.017,0.993,-0.097,0.305,-1.404,1.373,66.667,462464.000,1.000
-1.172,12.932,-0.465,-0.082,0.770,-0.989,-8.626,0.786,0.018,0.994,-0.100,0.122,-1.312,1.404,66.667,462465.000,1.000
0.660,13.219,0.534,0.634,1.840,-2.318,-5.194,2.641,0.016,0.992,-0.098,-0.092,-1.282,1.343,66.667,462466.000,1.000
2.248,13.349,1.468,1.747,2.883,-2.781,-1.449,5.053,0.016,0.988,-0.096,-0.244,-1.160,1.556,66.667,462467.000,1.000
3.463,13.484,2.338,2.993,3.764,-2.381,1.204,6.744,0.017,0.981,-0.101,-0.397,-1.129,1.495,66.667,462468.000,1.000
4.310,13.738,3.176,4.046,4.476,-1.425,2.709,7.375,0.019,0.978,-0.100,-0.366,-1.068,1.465,66.667,462469.000,1.000
4.598,13.752,3.627,4.360,4.596,-0.965,3.264,7.006,0.019,0.976,-0.102,-0.244,-0.885,1.404,66.667,462470.000,1.000
4.293,13.056,3.355,3.628,3.640,-1.958,2.649,5.841,0.022,0.977,-0.102,-0.061,-0.793,1.373,66.667,462471.000,1.000
3.865,11.695,2.639,2.248,1.827,-4.072,0.871,4.383,0.024,0.980,-0.102,0.031,-0.702,1.343,66.667,462472.000,1.000
3.951,10.211,2.145,1.023,0.034,-5.989,-1.325,3.239,0.023,0.983,-0.100,-0.031,-0.458,1.312,66.667,462473.000,1.000
4.881,9.239,2.341,0.576,-0.810,-6.470,-2.871,2.797,0.022,0.983,-0.101,-0.092,-0.336,1.251,66.667,462474.000,1.000
6.348,9.062,3.091,0.912,-0.317,-4.917,-3.195,2.899,0.023,0.981,-0.100,-0.031,-0.275,1.312,66.667,462475.000,1.000
7.291,9.213,3.575,1.250,0.976,-1.785,-2.755,2.757,0.024,0.979,-0.103,-0.031,-0.183,1.373,66.667,462476.000,1.000
6.507,8.721,2.875,0.581,1.966,1.321,-2.531,1.757,0.022,0.979,-0.105,0.122,0.092,1.312,66.667,462477.000,1.000
3.639,6.972,0.810,-1.379,1.979,2.680,-2.898,0.353,0.020,0.981,-0.100,0.275,0.122,1.465,66.667,462478.000,1.000
-0.517,4.241,-1.889,-3.890,1.342,1.945,-3.196,-0.216,0.016,0.982,-0.097,0.305,0.061,1.404,66.667,462479.000,1.000
-4.571,1.477,-4.154,-5.785,0.991,0.494,-2.205,0.978,0.016,0.983,-0.095,0.366,0.122,1.312,66.667,462480.000,1.000
-7.375,-0.355,-5.321,-6.353,1.619,0.325,1.107,3.935,0.012,0.984,-0.094,0.366,0.183,1.129,66.667,462481.000,1.000
-8.532,-0.813,-5.414,-5.672,3.238,2.634,7.086,8.037,0.009,0.982,-0.096,0.336,0.153,0.946,66.667,462482.000,1.000
-8.285,-0.039,-4.796,-4.255,5.353,6.976,14.746,12.460,0.009,0.978,-0.099,0.366,0.031,0.793,66.667,462483.000,1.000
-7.109,1.460,-3.722,-2.609,7.239,11.366,21.255,15.992,0.008,0.977,-0.098,0.458,-0.153,0.641,66.667,462484.000,1.000
-5.619,2.973,-2.431,-1.204,8.088,13.345,23.143,17.087,0.008,0.978,-0.100,0.488,-0.366,0.610,66.667,462485.000,1.000
-4.570,3.686,-1.403,-0.540,7.197,11.342,18.764,14.824,0.010,0.978,-0.097,0.580,-0.397,0.671,66.667,462486.000,1.000
-4.438,3.031,-1.134,-0.875,4.397,5.618,9.593,9.801,0.011,0.982,-0.099,0.580,-0.549,0.671,66.667,462487.000,1.000
-5.090,1.032,-1.732,-2.019,0.313,-1.754,-0.725,3.849,0.012,0.985,-0.101,0.549,-0.549,0.671,66.667,462488.000,1.000
-5.932,-1.661,-2.800,-3.464,-3.842,-8.036,-8.477,-1.031,0.012,0.987,-0.102,0.641,-0.732,0.610,66.667,462489.000,1.000
-6.176,-3.998,-3.570,-4.593,-6.814,-11.421,-11.648,-3.530,0.011,0.986,-0.101,0.549,-0.763,0.763,66.667,462490.000,1.000
-5.143,-5.089,-3.354,-4.934,-7.957,-12.083,-10.883,-3.562,0.014,0.987,-0.101,0.397,-0.763,0.824,66.667,462491.000,1.000
-2.736,-4.825,-2.075,-4.461,-7.577,-11.691,-8.878,-2.271,0.014,0.987,-0.101,0.366,-0.763,0.977,66.667,462492.000,1.000
0.221,-4.013,-0.403,-3.650,-6.604,-11.809,-8.158,-1.177,0.015,0.987,-0.102,0.366,-0.763,1.160,66.667,462493.000,1.000
2.245,-3.907,0.618,-3.223,-5.988,-12.922,-9.329,-1.098,0.015,0.989,-0.099,0.397,-0.793,1.251,66.667,462494.000,1.000
2.290,-5.169,0.417,-3.553,-6.064,-14.407,-11.181,-1.733,0.014,0.990,-0.098,0.336,-0.854,1.434,66.667,462495.000,1.000
0.730,-7.065,-0.446,-4.177,-6.244,-14.848,-11.999,-2.088,0.015,0.991,-0.097,0.183,-0.885,1.526,66.667,462496.000,1.000
-0.998,-8.036,-0.743,-4.111,-5.535,-12.999,-10.688,-1.191,0.015,0.991,-0.100,0.092,-0.946,1.587,66.667,462497.000,1.000
-1.744,-7.179,0.194,-2.749,-3.516,-8.936,-7.065,1.499,0.017,0.991,-0.103,0.000,-0.916,1.678,66.667,462498.000,1.000
-1.484,-5.058,1.789,-0.504,-0.852,-4.095,-1.887,5.539,0.017,0.991,-0.097,-0.153,-0.977,1.678,66.667,462499.000,1.000
-1.095,-3.217,2.638,1.320,1.007,-0.212,3.143,8.993,0.017,0.989,-0.100,-0.244,-1.068,1.892,66.667,462500.000,1.000
-1.445,-3.020,1.615,1.425,0.801,1.710,6.035,9.466,0.018,0.990,-0.100,-0.397,-0.885,1.984,66.667,462501.000,1.000
-2.699,-4.788,-1.316,-0.583,-1.699,1.709,5.452,5.908,0.020,0.988,-0.098,-0.488,-0.977,1.892,66.667,462502.000,1.000
-4.418,-7.777,-5.248,-4.105,-5.673,0.528,1.278,-0.789,0.022,0.987,-0.100,-0.610,-0.916,1.953,66.667,462503.000,1.000
-6.061,-10.766,-8.938,-8.013,-9.644,-0.847,-4.903,-8.245,0.022,0.984,-0.101,-0.671,-0.885,1.953,66.667,462504.000,1.000
-7.163,-12.618,-11.194,-11.099,-11.978,-1.563,-10.171,-13.531,0.021,0.983,-0.101,-0.702,-0.793,1.923,66.667,462505.000,1.000
-7.371,-12.729,-11.220,-12.496,-11.683,-1.363,-12.338,-14.834,0.021,0.983,-0.098,-0.580,-0.763,1.923,66.667,462506.000,1.000
-6.679,-11.320,-9.063,-12.038,-9.014,-0.735,-11.537,-12.603,0.021,0.984,-0.098,-0.549,-0.641,1.770,66.667,462507.000,1.000
-5.454,-9.242,-5.611,-10.167,-5.084,-0.318,-9.361,-8.770,0.022,0.987,-0.099,-0.549,-0.580,1.678,66.667,462508.000,1.000
-4.182,-7.505,-2.097,-7.585,-1.065,-0.431,-7.286,-5.174,0.021,0.984,-0.099,-0.519,-0.366,1.617,66.667,462509.000,1.000
-3.347,-6.938,0.380,-5.072,2.166,-1.209,-6.011,-2.762,0.022,0.981,-0.096,-0.519,-0.427,1.495,66.667,462510.000,1.000
-3.194,-7.691,1.389,-3.164,4.363,-2.457,-4.974,-1.210,0.023,0.982,-0.097,-0.580,-0.275,1.343,66.667,462511.000,1.000
-3.460,-8.950,1.449,-1.859,6.115,-3.273,-2.338,0.861,0.021,0.983,-0.098,-0.549,-0.336,1.251,66.667,462512.000,1.000
-3.786,-9.740,1.325,-1.097,7.906,-2.713,2.912,3.995,0.020,0.984,-0.097,-0.519,-0.214,1.068,66.667,462513.000,1.000
-4.152,-9.812,1.255,-1.167,9.274,-0.774,9.025,6.649,0.020,0.985,-0.094,-0.610,-0.244,0.977,66.667,462514.000,1.000
-4.453,-9.265,1.346,-2.006,9.678,1.875,13.229,7.178,0.021,0.986,-0.095,-0.671,-0.153,0.946,66.667,462515.000,1.000
-4.234,-8.075,1.904,-2.832,9.412,4.494,14.409,5.847,0.020,0.984,-0.096,-0.824,-0.183,0.916,66.667,462516.000,1.000
-3.317,-6.469,2.860,-2.991,9.049,6.498,13.331,4.020,0.021,0.984,-0.095,-0.824,-0.183,0.793,66.667,462517.000,1.000
-2.095,-4.983,3.626,-2.511,8.898,8.081,11.964,2.826,0.020,0.983,-0.096,-0.854,-0.183,0.763,66.667,462518.000,1.000
-1.123,-4.005,3.677,-1.797,9.055,10.290,12.673,2.802,0.018,0.983,-0.097,-0.763,-0.244,0.549,66.667,462519.000,1.000
-0.768,-3.742,2.847,-1.283,9.278,13.581,16.493,3.913,0.017,0.983,-0.093,-0.793,-0.153,0.519,66.667,462520.000,1.000
-0.995,-4.337,1.324,-1.197,8.956,16.715,21.654,5.601,0.018,0.982,-0.095,-0.885,-0.153,0.427,66.667,462521.000,1.000
-1.280,-5.689,-0.350,-1.410,7.510,17.661,24.265,6.723,0.017,0.980,-0.093,-0.977,-0.214,0.458,66.667,462522.000,1.000
-0.962,-7.321,-1.473,-1.574,4.835,15.265,21.037,5.968,0.016,0.978,-0.094,-0.977,-0.244,0.397,66.667,462523.000,1.000
0.334,-8.526,-1.451,-1.256,1.563,10.138,11.960,3.062,0.015,0.978,-0.096,-0.824,-0.305,0.427,66.667,462524.000,1.000
2.519,-8.700,-0.042,-0.086,-1.151,4.392,0.591,-0.749,0.013,0.975,-0.096,-0.763,-0.427,0.305,66.667,462525.000,1.000
4.880,-7.922,2.257,1.778,-2.542,0.279,-8.423,-3.860,0.011,0.977,-0.095,-0.458,-0.580,0.244,66.667,462526.000,1.000
6.327,-7.048,4.313,3.484,-2.806,-1.143,-12.017,-5.495,0.011,0.980,-0.092,-0.214,-0.671,0.244,66.667,462527.000,1.000
6.369,-6.762,5.372,4.254,-2.507,-0.033,-9.554,-5.612,0.011,0.983,-0.096,-0.153,-0.763,0.244,66.667,462528.000,1.000
5.698,-6.761,5.780,4.134,-1.833,2.814,-2.676,-4.404,0.010,0.984,-0.095,-0.092,-0.885,0.122,66.667,462529.000,1.000
5.444,-6.273,6.410,3.694,-0.765,6.118,5.173,-2.423,0.010,0.986,-0.094,-0.031,-1.038,0.153,66.667,462530.000,1.000
6.018,-5.168,7.601,3.233,0.391,8.242,10.231,-0.750,0.013,0.985,-0.095,-0.031,-1.160,0.275,66.667,462531.000,1.000
6.875,-4.251,8.817,2.527,0.972,7.800,10.433,-0.526,0.011,0.985,-0.096,0.031,-1.404,0.275,66.667,462532.000,1.000
7.210,-4.574,9.135,1.232,0.383,4.442,6.234,-2.232,0.009,0.987,-0.098,0.031,-1.434,0.305,66.667,462533.000,1.000
6.679,-6.600,7.977,-0.656,-1.400,-0.679,-0.035,-5.386,0.009,0.988,-0.094,0.000,-1.648,0.305,66.667,462534.000,1.000
5.509,-9.820,5.520,-2.740,-3.665,-5.165,-5.221,-8.810,0.009,0.988,-0.095,0.061,-1.770,0.397,66.667,462535.000,1.000
4.219,-13.029,2.616,-4.434,-5.307,-6.613,-6.663,-11.248,0.010,0.986,-0.095,0.000,-1.892,0.519,66.667,462536.000,1.000
3.407,-14.907,0.455,-5.140,-5.421,-4.210,-3.772,-12.004,0.010,0.986,-0.096,0.000,-2.014,0.580,66.667,462537.000,1.000
3.666,-14.453,0.158,-4.389,-3.720,0.637,1.375,-11.199,0.011,0.988,-0.094,-0.092,-2.014,0.671,66.667,462538.000,1.000
5.333,-11.382,2.193,-2.102,-0.652,5.188,5.442,-9.407,0.011,0.988,-0.094,-0.183,-2.197,0.702,66.667,462539.000,1.000
7.977,-6.556,5.801,1.045,2.635,6.958,6.023,-7.308,0.013,0.990,-0.097,-0.366,-2.289,0.793,66.667,462540.000,1.000
10.366,-1.730,9.236,3.658,4.791,5.163,2.936,-5.733,0.013,0.991,-0.093,-0.427,-2.319,0.916,66.667,462541.000,1.000
11.469,1.687,11.129,4.617,5.338,1.393,-1.609,-5.112,0.013,0.988,-0.094,-0.641,-2.319,1.007,66.667,462542.000,1.000
11.271,3.304,11.364,3.920,4.905,-1.698,-4.638,-4.929,0.015,0.988,-0.096,-0.702,-2.289,1.068,66.667,462543.000,1.000
10.287,3.154,10.425,2.242,4.053,-2.844,-5.090,-4.609,0.018,0.986,-0.099,-0.732,-2.197,1.129,66.667,462544.000,1.000
8.945,1.427,8.745,0.320,2.764,-2.577,-4.120,-4.208,0.020,0.989,-0.097,-0.763,-2.228,1.221,66.667,462545.000,1.000
7.592,-1.189,6.827,-1.067,1.214,-1.632,-2.949,-3.654,0.021,0.988,-0.100,-0.824,-2.106,1.251,66.667,462546.000,1.000
6.383,-3.748,5.136,-1.361,0.024,-0.107,-1.564,-2.362,0.021,0.988,-0.098,-0.793,-1.953,1.312,66.667,462547.000,1.000
5.054,-5.682,3.686,-0.694,-0.382,1.948,0.745,-0.052,0.021,0.987,-0.097,-0.946,-1.801,1.465,66.667,462548.000,1.000
3.077,-7.113,1.960,0.038,-0.340,3.713,4.179,2.463,0.021,0.985,-0.098,-1.068,-1.617,1.495,66.667,462549.000,1.000
0.211,-8.565,-0.609,-0.320,-0.808,3.752,7.459,3.433,0.021,0.985,-0.100,-1.007,-1.404,1.556,66.667,462550.000,1.000
-2.955,-10.198,-3.857,-2.231,-2.453,1.302,8.220,1.398,0.021,0.983,-0.101,-0.977,-1.282,1.526,66.667,462551.000,1.000
-5.268,-11.457,-6.759,-4.988,-4.868,-2.660,5.258,-3.397,0.021,0.984,-0.098,-0.946,-1.099,1.404,66.667,462552.000,1.000
-5.986,-11.586,-8.197,-7.297,-6.784,-5.730,0.274,-8.871,0.020,0.985,-0.098,-0.885,-1.007,1.434,66.667,462553.000,1.000
-5.222,-10.339,-7.696,-8.169,-7.025,-5.656,-3.404,-12.530,0.020,0.988,-0.097,-0.854,-0.824,1.221,66.667,462554.000,1.000
-3.565,-8.195,-5.531,-7.319,-5.329,-2.140,-3.660,-13.074,0.020,0.988,-0.097,-0.916,-0.610,1.099,66.667,462555.000,1.000
-1.647,-6.056,-2.499,-5.102,-2.483,2.874,-0.811,-10.771,0.021,0.986,-0.097,-1.129,-0.427,1.099,66.667,462556.000,1.000
0.025,-4.673,0.477,-2.191,0.330,6.929,3.534,-6.591,0.020,0.986,-0.095,-1.160,-0.275,1.068,66.667,462557.000,1.000
1.109,-4.282,2.701,0.732,2.220,8.682,7.641,-1.677,0.020,0.984,-0.094,-1.129,-0.153,0.946,66.667,462558.000,1.000
1.229,-4.928,3.597,2.807,2.531,7.935,9.591,2.120,0.023,0.985,-0.099,-1.129,0.092,0.946,66.667,462559.000,1.000
0.074,-6.564,2.773,3.175,0.922,5.576,8.077,2.824,0.022,0.985,-0.098,-1.099,0.122,0.854,66.667,462560.000,1.000
-1.810,-8.337,0.785,2.063,-1.758,3.913,4.322,0.552,0.021,0.984,-0.099,-1.038,0.214,0.946,66.667,462561.000,1.000
-3.169,-8.879,-1.068,0.779,-3.822,5.052,1.301,-2.272,0.019,0.981,-0.096,-0.916,0.366,0.977,66.667,462562.000,1.000
-3.417,-7.859,-2.180,0.101,-4.607,8.292,0.147,-3.608,0.019,0.981,-0.095,-0.824,0.458,0.916,66.667,462563.000,1.000
-3.001,-6.215,-2.976,-0.323,-4.859,10.734,-0.743,-3.359,0.017,0.980,-0.094,-0.732,0.488,0.977,66.667,462564.000,1.000
-2.534,-4.782,-3.879,-1.008,-5.271,10.639,-2.620,-2.289,0.016,0.978,-0.093,-0.641,0.610,1.038,66.667,462565.000,1.000
-2.403,-3.730,-4.938,-2.147,-5.862,8.774,-4.708,-1.132,0.014,0.979,-0.095,-0.610,0.549,0.946,66.667,462566.000,1.000
-2.872,-3.061,-6.169,-3.815,-6.580,6.847,-5.770,-0.812,0.012,0.979,-0.094,-0.427,0.549,1.129,66.667,462567.000,1.000
-3.692,-2.590,-7.309,-5.705,-7.327,6.073,-5.380,-1.844,0.013,0.979,-0.094,-0.397,0.580,1.099,66.667,462568.000,1.000
-4.004,-1.831,-7.569,-6.954,-7.655,6.765,-3.772,-3.501,0.011,0.980,-0.095,-0.153,0.488,1.068,66.667,462569.000,1.000
-3.388,-0.806,-6.471,-7.005,-7.441,7.924,-1.885,-4.772,0.011,0.982,-0.095,-0.061,0.427,1.251,66.667,462570.000,1.000
-2.598,-0.542,-4.626,-6.405,-7.495,7.476,-1.272,-5.819,0.010,0.983,-0.095,0.000,0.397,1.190,66.667,462571.000,1.000
-2.657,-2.048,-3.119,-6.201,-8.739,3.897,-2.877,-7.523,0.011,0.984,-0.092,0.061,0.366,1.221,66.667,462572.000,1.000
-3.547,-5.006,-2.322,-6.773,-11.065,-2.403,-6.195,-10.136,0.012,0.983,-0.095,-0.031,0.275,1.251,66.667,462573.000,1.000
-4.234,-7.841,-1.709,-7.526,-13.382,-9.281,-9.894,-13.080,0.011,0.984,-0.096,-0.031,0.214,1.251,66.667,462574.000,1.000
-3.800,-8.937,-0.660,-7.532,-14.531,-14.142,-12.484,-15.418,0.010,0.983,-0.097,0.061,0.214,1.282,66.667,462575.000,1.000
-2.182,-7.754,0.854,-6.298,-14.043,-15.338,-12.718,-16.256,0.012,0.983,-0.096,0.183,0.061,1.373,66.667,462576.000,1.000
-0.192,-5.193,2.191,-4.263,-12.436,-12.999,-10.437,-15.603,0.012,0.985,-0.096,0.092,-0.031,1.526,66.667,462577.000,1.000
0.793,-3.144,2.313,-2.747,-11.030,-8.960,-7.035,-14.799,0.011,0.985,-0.096,0.122,-0.183,1.465,66.667,462578.000,1.000
-0.194,-3.170,0.631,-2.908,-10.934,-5.637,-4.414,-15.097,0.011,0.984,-0.098,0.153,-0.244,1.404,66.667,462579.000,1.000
-2.675,-5.252,-2.187,-4.587,-12.071,-4.572,-3.730,-16.190,0.010,0.983,-0.097,0.275,-0.244,1.373,66.667,462580.000,1.000
-5.222,-8.145,-4.768,-6.649,-13.612,-6.103,-5.545,-16.981,0.010,0.985,-0.096,0.244,-0.366,1.465,66.667,462581.000,1.000
-6.682,-10.498,-6.022,-8.026,-14.749,-9.574,-9.781,-16.797,0.012,0.988,-0.098,0.183,-0.397,1.465,66.667,462582.000,1.000
-6.396,-11.120,-5.196,-7.900,-14.512,-12.917,-14.541,-15.062,0.014,0.989,-0.098,0.153,-0.488,1.495,66.667,462583.000,1.000
-4.143,-9.279,-2.077,-5.855,-12.001,-13.331,-16.493,-11.163,0.015,0.987,-0.097,0.092,-0.549,1.434,66.667,462584.000,1.000
-0.613,-5.534,2.261,-2.494,-7.478,-9.602,-13.384,-5.295,0.014,0.986,-0.095,0.122,-0.549,1.587,66.667,462585.000,1.000
2.693,-1.609,5.812,0.774,-2.482,-3.130,-5.762,1.397,0.016,0.986,-0.095,-0.061,-0.702,1.495,66.667,462586.000,1.000
4.300,0.679,6.881,2.598,1.043,3.157,3.189,7.147,0.016,0.985,-0.097,-0.061,-0.641,1.465,66.667,462587.000,1.000
3.342,0.217,4.759,2.070,1.499,6.453,9.232,9.773,0.016,0.985,-0.097,-0.061,-0.488,1.373,66.667,462588.000,1.000
-0.022,-2.792,0.024,-0.801,-1.325,5.784,9.867,8.064,0.016,0.983,-0.098,-0.122,-0.549,1.404,66.667,462589.000,1.000
-4.385,-6.628,-5.412,-4.639,-5.659,2.637,5.886,3.283,0.016,0.981,-0.098,-0.122,-0.519,1.282,66.667,462590.000,1.000
-7.998,-9.302,-9.489,-7.662,-9.171,-0.864,-0.364,-1.977,0.018,0.982,-0.097,-0.061,-0.641,1.343,66.667,462591.000,1.000
-10.142,-10.183,-11.504,-9.174,-10.871,-4.111,-7.145,-5.986,0.018,0.980,-0.099,-0.092,-0.549,1.404,66.667,462592.000,1.000
-11.047,-9.865,-11.930,-9.463,-11.029,-7.464,-13.132,-8.074,0.017,0.979,-0.096,0.000,-0.610,1.434,66.667,462593.000,1.000
-10.756,-8.774,-11.102,-8.688,-9.799,-10.216,-16.456,-7.743,0.017,0.981,-0.095,0.122,-0.610,1.373,66.667,462594.000,1.000
-8.871,-6.659,-8.860,-6.639,-6.900,-10.501,-15.324,-4.744,0.018,0.982,-0.096,0.275,-0.641,1.373,66.667,462595.000,1.000
-5.358,-3.404,-5.344,-3.374,-2.497,-7.336,-9.671,0.262,0.019,0.985,-0.098,0.336,-0.641,1.251,66.667,462596.000,1.000
-0.898,0.444,-1.354,0.559,2.441,-1.675,-1.527,5.803,0.020,0.990,-0.094,0.244,-0.702,1.221,66.667,462597.000,1.000
3.577,4.064,2.159,4.529,6.799,4.750,6.477,10.439,0.019,0.990,-0.095,0.275,-0.671,1.312,66.667,462598.000,1.000
7.104,6.685,4.442,7.964,9.861,10.692,12.635,13.331,0.015,0.989,-0.097,0.122,-0.641,1.282,66.667,462599.000,1.000
8.733,7.686,4.969,10.172,11.258,15.272,16.512,14.202,0.016,0.984,-0.096,-0.031,-0.671,1.282,66.667,462600.000,1.000
7.916,6.755,3.497,10.407,10.702,17.321,18.097,12.902,0.017,0.982,-0.094,-0.092,-0.641,1.160,66.667,462601.000,1.000
4.813,3.921,0.021,8.155,7.890,15.554,16.743,9.217,0.018,0.981,-0.094,-0.183,-0.671,1.129,66.667,462602.000,1.000
0.317,-0.275,-5.006,3.704,3.045,9.728,11.647,3.593,0.016,0.980,-0.095,0.000,-0.702,1.068,66.667,462603.000,1.000
-4.185,-4.652,-10.390,-1.565,-2.490,1.395,3.535,-2.194,0.017,0.981,-0.094,0.061,-0.793,1.129,66.667,462604.000,1.000
-7.326,-7.763,-14.504,-5.754,-6.649,-6.473,-4.836,-5.858,0.019,0.981,-0.096,0.153,-0.732,1.068,66.667,462605.000,1.000
-8.002,-8.290,-15.842,-7.266,-7.559,-10.516,-10.019,-5.996,0.020,0.982,-0.094,0.153,-0.671,1.068,66.667,462606.000,1.000
-5.586,-5.474,-13.590,-5.488,-4.465,-8.689,-9.847,-2.677,0.021,0.980,-0.094,0.061,-0.732,1.129,66.667,462607.000,1.000
-0.414,0.246,-8.248,-1.267,1.591,-1.761,-4.753,2.666,0.022,0.979,-0.093,-0.061,-0.580,1.190,66.667,462608.000,1.000
6.156,7.108,-1.617,3.467,8.138,7.009,2.426,7.788,0.020,0.978,-0.094,-0.122,-0.488,1.160,66.667,462609.000,1.000
12.232,12.763,3.967,6.740,12.497,13.644,7.973,10.468,0.019,0.974,-0.095,-0.031,-0.397,1.251,66.667,462610.000,1.000
16.195,15.401,6.774,7.567,13.141,15.386,9.122,9.469,0.019,0.975,-0.098,0.061,-0.458,1.312,66.667,462611.000,1.000
17.709,14.853,6.760,6.602,10.642,12.203,5.711,5.378,0.020,0.976,-0.096,0.244,-0.397,1.221,66.667,462612.000,1.000
18.045,12.813,5.661,5.826,7.372,6.812,0.546,0.676,0.020,0.979,-0.094,0.336,-0.397,1.068,66.667,462613.000,1.000
19.015,11.600,5.653,7.171,5.907,2.769,-2.491,-1.569,0.021,0.983,-0.095,0.427,-0.275,1.251,66.667,462614.000,1.000
21.484,12.476,7.744,11.025,7.372,2.235,-1.068,0.394,0.022,0.987,-0.095,0.366,-0.153,1.282,66.667,462615.000,1.000
25.055,15.219,11.455,16.070,11.132,5.318,4.536,6.058,0.021,0.988,-0.095,0.214,-0.183,1.465,66.667,462616.000,1.000
28.845,18.858,15.671,20.519,15.644,10.668,12.123,13.095,0.019,0.985,-0.098,0.092,-0.153,1.556,66.667,462617.000,1.000
31.977,22.211,19.229,23.177,19.221,15.983,18.687,18.479,0.019,0.987,-0.098,0.000,-0.122,1.465,66.667,462618.000,1.000
33.742,24.143,21.165,23.625,20.472,18.626,21.416,19.810,0.018,0.988,-0.099,0.000,-0.092,1.526,66.667,462619.000,1.000
34.036,24.181,21.251,22.243,18.937,16.992,19.024,16.507,0.016,0.990,-0.099,0.061,-0.183,1.404,66.667,462620.000,1.000
33.570,22.877,20.290,20.141,15.538,11.733,12.791,10.252,0.015,0.993,-0.093,-0.183,-0.214,1.282,66.667,462621.000,1.000
33.286,21.313,19.455,18.570,12.046,5.447,5.952,4.125,0.013,0.994,-0.094,-0.427,-0.244,1.190,66.667,462622.000,1.000
33.595,20.291,19.392,18.205,9.844,0.773,1.438,0.763,0.011,0.995,-0.093,-0.549,-0.244,1.099,66.667,462623.000,1.000
34.289,20.077,20.110,18.972,9.264,-1.261,0.189,0.937,0.010,0.993,-0.092,-0.732,-0.336,1.038,66.667,462624.000,1.000
35.202,20.806,21.536,20.500,10.026,-0.923,1.519,3.701,0.014,0.997,-0.093,-0.854,-0.427,0.946,66.667,462625.000,1.000
36.439,22.580,23.628,22.456,11.761,1.290,4.162,7.494,0.013,0.998,-0.091,-1.038,-0.549,0.854,66.667,462626.000,1.000
37.629,24.756,25.733,24.251,13.777,4.488,6.652,10.889,0.014,0.998,-0.090,-1.221,-0.671,0.854,66.667,462627.000,1.000
37.530,25.726,26.412,24.793,14.833,6.875,7.536,12.746,0.016,0.997,-0.087,-1.465,-0.793,0.793,66.667,462628.000,1.000
35.050,24.114,24.543,23.176,13.918,6.792,6.015,12.464,0.016,0.992,-0.091,-1.526,-0.793,0.854,66.667,462629.000,1.000
30.377,20.108,20.494,19.638,11.226,4.347,2.615,10.379,0.016,0.990,-0.091,-1.648,-0.854,0.824,66.667,462630.000,1.000
24.866,15.410,15.970,15.538,8.066,1.408,-0.939,7.772,0.015,0.989,-0.092,-1.617,-0.946,0.854,66.667,462631.000,1.000
20.116,12.164,12.921,12.492,6.044,0.203,-2.421,6.476,0.017,0.987,-0.093,-1.587,-1.038,0.885,66.667,462632.000,1.000
17.054,11.741,12.456,11.472,6.300,1.977,-0.261,8.019,0.017,0.988,-0.090,-1.495,-1.099,0.946,66.667,462633.000,1.000
15.265,13.750,14.065,12.061,8.681,6.114,4.845,12.072,0.016,0.990,-0.089,-1.434,-1.099,0.977,66.667,462634.000,1.000
13.157,16.096,15.750,12.531,11.518,10.345,9.871,16.028,0.017,0.989,-0.089,-1.587,-1.160,1.038,66.667,462635.000,1.000
9.307,16.512,15.496,11.245,12.922,12.383,11.950,17.198,0.015,0.987,-0.090,-1.678,-1.160,1.038,66.667,462636.000,1.000
3.793,14.241,12.812,8.078,12.353,11.456,10.625,15.264,0.015,0.983,-0.089,-1.465,-1.160,1.099,66.667,462637.000,1.000
-1.928,10.292,8.812,4.328,10.688,8.377,7.559,12.144,0.014,0.980,-0.088,-1.221,-1.190,0.946,66.667,462638.000,1.000
-6.323,6.385,5.069,1.526,9.143,4.729,4.826,9.998,0.012,0.981,-0.087,-1.038,-1.373,1.038,66.667,462639.000,1.000
-8.865,3.798,2.570,0.490,8.472,2.033,3.703,9.799,0.012,0.979,-0.087,-0.885,-1.526,1.068,66.667,462640.000,1.000
-10.132,2.856,1.426,1.148,8.870,1.303,4.569,11.368,0.012,0.983,-0.087,-0.702,-1.587,1.129,66.667,462641.000,1.000
-11.283,3.021,1.059,2.704,10.077,2.967,7.416,13.916,0.013,0.984,-0.088,-0.549,-1.648,1.038,66.667,462642.000,1.000
-13.472,3.268,0.527,3.909,11.310,6.501,11.689,16.123,0.014,0.985,-0.087,-0.427,-1.678,0.946,66.667,462643.000,1.000
-17.323,2.499,-1.084,3.522,11.287,9.858,15.305,16.230,0.014,0.983,-0.086,-0.366,-1.617,0.885,66.667,462644.000,1.000
-22.421,0.204,-4.039,1.058,8.932,10.174,15.175,13.111,0.017,0.981,-0.088,-0.366,-1.709,0.885,66.667,462645.000,1.000
-27.182,-2.935,-7.432,-2.655,4.496,5.965,9.755,7.475,0.017,0.979,-0.089,-0.275,-1.678,0.793,66.667,462646.000,1.000
-29.800,-5.420,-9.731,-5.959,-0.422,-1.535,0.573,1.486,0.017,0.976,-0.086,-0.122,-1.770,0.885,66.667,462647.000,1.000
-29.672,-6.216,-10.081,-7.605,-4.145,-9.327,-8.995,-2.799,0.018,0.975,-0.086,0.000,-1.770,0.946,66.667,462648.000,1.000
-27.942,-5.675,-9.019,-7.552,-6.013,-14.723,-15.857,-4.497,0.017,0.976,-0.087,0.336,-1.678,0.916,66.667,462649.000,1.000
-26.711,-5.214,-7.986,-6.768,-6.454,-16.661,-18.397,-3.908,0.017,0.978,-0.090,0.427,-1.648,0.824,66.667,462650.000,1.000
-27.428,-5.923,-8.021,-6.236,-6.165,-15.535,-16.488,-1.743,0.017,0.981,-0.087,0.610,-1.617,0.824,66.667,462651.000,1.000
-29.795,-7.423,-8.794,-6.084,-5.186,-12.109,-10.821,1.613,0.021,0.981,-0.089,0.763,-1.526,0.916,66.667,462652.000,1.000
-32.157,-8.145,-8.971,-5.689,-2.893,-6.771,-2.660,5.876,0.016,0.982,-0.090,0.763,-1.465,1.007,66.667,462653.000,1.000
-32.937,-6.847,-7.571,-4.532,1.007,-0.038,5.654,10.092,0.017,0.979,-0.093,0.854,-1.343,1.129,66.667,462654.000,1.000
-31.883,-3.993,-5.072,-2.956,5.579,6.529,10.985,12.625,0.017,0.980,-0.095,0.977,-1.312,1.221,66.667,462655.000,1.000
-30.020,-1.445,-3.051,-1.982,9.058,10.723,11.117,12.112,0.017,0.979,-0.092,1.068,-1.373,1.221,66.667,462656.000,1.000
-28.499,-0.736,-2.731,-2.406,10.186,11.295,6.268,8.320,0.016,0.981,-0.095,1.190,-1.251,1.282,66.667,462657.000,1.000
-27.800,-2.045,-4.149,-4.222,9.017,8.813,-0.974,2.390,0.016,0.983,-0.096,1.312,-1.221,1.282,66.667,462658.000,1.000
-27.866,-4.619,-6.563,-6.791,6.613,5.108,-6.979,-3.432,0.018,0.984,-0.095,1.404,-1.160,1.312,66.667,462659.000,1.000
-28.611,-7.635,-9.232,-9.391,4.109,2.031,-9.023,-6.977,0.019,0.985,-0.095,1.312,-1.068,1.251,66.667,462660.000,1.000
-30.058,-10.641,-11.731,-11.609,2.015,0.299,-7.051,-7.681,0.019,0.987,-0.092,1.251,-0.946,1.190,66.667,462661.000,1.000
-32.078,-13.482,-13.848,-13.317,0.196,-0.740,-3.600,-6.796,0.020,0.990,-0.093,1.190,-0.916,1.251,66.667,462662.000,1.000
-34.097,-15.938,-15.335,-14.393,-1.598,-2.093,-1.577,-6.001,0.020,0.991,-0.092,1.129,-0.824,1.282,66.667,462663.000,1.000
-35.181,-17.446,-15.789,-14.525,-3.204,-3.822,-1.831,-5.887,0.020,0.993,-0.094,1.038,-0.702,1.343,66.667,462664.000,1.000
-34.641,-17.334,-14.961,-13.477,-4.079,-4.763,-2.585,-5.757,0.020,0.995,-0.094,0.854,-0.458,1.312,66.667,462665.000,1.000
-32.486,-15.330,-13.069,-11.429,-3.747,-3.512,-1.005,-4.524,0.022,0.993,-0.093,0.641,-0.336,1.434,66.667,462666.000,1.000
-29.184,-11.789,-10.596,-8.839,-2.192,0.050,4.143,-1.659,0.021,0.995,-0.091,0.458,-0.244,1.495,66.667,462667.000,1.000
-25.339,-7.719,-8.123,-6.324,-0.229,3.879,10.465,2.056,0.019,0.997,-0.093,0.244,-0.275,1.617,66.667,462668.000,1.000
-21.554,-4.423,-6.270,-4.599,0.781,5.026,13.409,4.835,0.016,0.995,-0.090,0.061,-0.153,1.648,66.667,462669.000,1.000
-18.100,-2.558,-5.274,-4.027,0.139,2.337,10.584,5.410,0.015,0.993,-0.089,-0.183,-0.183,1.617,66.667,462670.000,1.000
-14.926,-1.794,-4.898,-4.430,-1.682,-2.638,3.309,3.573,0.014,0.991,-0.089,-0.488,-0.153,1.495,66.667,462671.000,1.000
-12.188,-1.490,-4.969,-5.479,-3.749,-7.267,-5.498,-0.301,0.013,0.986,-0.092,-0.580,-0.122,1.373,66.667,462672.000,1.000
-10.248,-1.130,-5.483,-6.790,-5.152,-9.369,-12.716,-4.983,0.016,0.983,-0.093,-0.702,-0.092,1.404,66.667,462673.000,1.000
-9.006,-0.127,-6.047,-7.609,-4.898,-7.605,-15.216,-8.118,0.016,0.981,-0.091,-0.549,-0.122,1.434,66.667,462674.000,1.000
-7.661,2.160,-5.711,-6.924,-2.220,-1.867,-11.289,-7.382,0.018,0.981,-0.094,-0.488,-0.061,1.373,66.667,462675.000,1.000
-5.619,5.665,-3.882,-4.420,2.487,6.007,-2.622,-2.474,0.019,0.983,-0.095,-0.458,-0.092,1.465,66.667,462676.000,1.000
-3.552,8.954,-1.387,-1.327,7.200,12.536,6.055,4.076,0.019,0.986,-0.095,-0.366,0.000,1.465,66.667,462677.000,1.000
-2.798,10.213,0.165,0.472,9.572,14.791,10.297,8.733,0.021,0.985,-0.096,-0.427,0.092,1.312,66.667,462678.000,1.000
-3.653,9.155,0.170,0.337,9.012,12.634,9.148,9.806,0.022,0.984,-0.098,-0.488,0.153,1.404,66.667,462679.000,1.000
-5.082,7.194,-0.574,-0.781,6.925,8.259,5.032,8.233,0.022,0.982,-0.098,-0.427,0.214,1.526,66.667,462680.000,1.000
-5.917,5.905,-1.053,-1.615,5.137,3.989,1.055,6.046,0.022,0.981,-0.097,-0.305,0.366,1.556,66.667,462681.000,1.000
-5.706,5.943,-0.888,-1.519,4.650,1.146,-1.020,4.783,0.020,0.982,-0.095,-0.214,0.427,1.648,66.667,462682.000,1.000
-4.740,6.998,-0.313,-0.500,5.476,0.157,-0.872,5.027,0.018,0.983,-0.094,-0.183,0.549,1.862,66.667,462683.000,1.000
-3.791,8.158,0.126,1.022,6.965,0.672,1.042,6.602,0.015,0.984,-0.096,-0.153,0.488,1.892,66.667,462684.000,1.000
-3.689,8.436,-0.121,2.422,8.194,1.657,3.734,8.762,0.014,0.983,-0.092,-0.122,0.336,1.770,66.667,462685.000,1.000
-4.790,7.337,-1.327,3.136,8.408,2.049,5.808,10.453,0.010,0.982,-0.089,-0.153,0.244,1.587,66.667,462686.000,1.000
-6.675,5.169,-3.266,2.966,7.477,1.791,6.421,10.904,0.009,0.981,-0.094,-0.183,0.153,1.495,66.667,462687.000,1.000
-8.417,2.781,-5.310,2.138,5.872,1.773,5.994,10.080,0.007,0.983,-0.095,-0.153,-0.031,1.373,66.667,462688.000,1.000
-9.285,0.758,-6.953,0.987,4.048,2.297,5.288,8.502,0.009,0.982,-0.095,-0.061,-0.214,1.282,66.667,462689.000,1.000
-9.245,-1.029,-8.234,-0.390,1.938,2.303,4.252,6.681,0.014,0.984,-0.095,-0.031,-0.488,1.221,66.667,462690.000,1.000
-8.684,-3.008,-9.519,-2.057,-0.824,0.469,2.129,4.672,0.011,0.983,-0.096,-0.031,-0.610,1.190,66.667,462691.000,1.000
-7.824,-5.246,-10.969,-3.841,-4.279,-3.486,-1.427,2.381,0.014,0.983,-0.096,-0.092,-0.671,1.099,66.667,462692.000,1.000
-6.731,-7.463,-12.503,-5.380,-7.978,-8.706,-5.570,0.133,0.013,0.984,-0.097,-0.092,-0.824,1.007,66.667,462693.000,1.000
-5.801,-9.607,-14.243,-6.692,-11.510,-14.010,-9.002,-1.732,0.015,0.986,-0.096,-0.031,-0.824,1.129,66.667,462694.000,1.000
-5.658,-11.913,-16.465,-8.251,-14.795,-18.506,-11.149,-3.489,0.015,0.986,-0.094,-0.031,-0.916,1.038,66.667,462695.000,1.000
-6.405,-14.279,-18.935,-10.202,-17.566,-21.422,-12.015,-5.378,0.017,0.987,-0.097,-0.031,-0.946,1.099,66.667,462696.000,1.000
-7.482,-16.141,-20.837,-11.975,-19.196,-22.100,-11.574,-6.902,0.019,0.988,-0.095,-0.031,-0.946,1.038,66.667,462697.000,1.000
-8.340,-17.145,-21.558,-12.930,-19.430,-20.759,-10.295,-7.599,0.019,0.987,-0.092,-0.183,-0.977,1.160,66.667,462698.000,1.000
-8.738,-17.339,-21.066,-12.968,-18.678,-18.633,-9.322,-7.797,0.020,0.989,-0.091,-0.275,-1.099,1.343,66.667,462699.000,1.000
-8.434,-16.679,-19.548,-12.319,-17.365,-16.786,-9.136,-7.908,0.019,0.989,-0.095,-0.336,-1.038,1.404,66.667,462700.000,1.000
-7.289,-15.098,-17.305,-11.282,-15.662,-15.573,-9.214,-7.909,0.018,0.990,-0.091,-0.366,-1.007,1.312,66.667,462701.000,1.000
-5.719,-13.053,-14.989,-10.305,-13.958,-15.350,-9.336,-7.953,0.018,0.987,-0.095,-0.397,-1.068,1.373,66.667,462702.000,1.000
-4.460,-11.284,-13.291,-9.815,-12.824,-16.444,-9.809,-8.514,0.017,0.989,-0.095,-0.366,-1.038,1.495,66.667,462703.000,1.000
-3.780,-9.895,-12.247,-9.730,-12.280,-18.025,-10.266,-9.593,0.016,0.989,-0.099,-0.427,-1.099,1.587,66.667,462704.000,1.000
-3.125,-8.011,-11.084,-9.332,-11.532,-18.077,-9.587,-10.341,0.017,0.990,-0.093,-0.488,-1.129,1.740,66.667,462705.000,1.000
-1.637,-4.644,-8.898,-7.800,-9.673,-15.067,-7.339,-9.721,0.017,0.989,-0.093,-0.458,-1.068,1.740,66.667,462706.000,1.000
0.924,0.097,-5.619,-5.049,-6.654,-9.311,-4.358,-7.481,0.018,0.987,-0.090,-0.549,-1.160,1.740,66.667,462707.000,1.000
3.798,4.839,-2.285,-2.000,-3.493,-2.693,-1.835,-4.510,0.019,0.988,-0.094,-0.641,-1.190,1.617,66.667,462708.000,1.000
5.869,8.036,-0.197,0.190,-1.415,2.657,-0.212,-2.002,0.019,0.987,-0.093,-0.702,-1.190,1.587,66.667,462709.000,1.000
6.751,9.235,0.282,1.224,-0.732,5.627,1.082,-0.291,0.019,0.986,-0.093,-0.641,-1.160,1.465,66.667,462710.000,1.000
6.989,9.076,-0.216,1.643,-0.957,6.080,2.300,0.866,0.021,0.984,-0.090,-0.763,-1.099,1.495,66.667,462711.000,1.000
7.173,8.257,-1.087,1.873,-1.829,3.916,2.207,1.247,0.022,0.985,-0.091,-0.732,-1.068,1.434,66.667,462712.000,1.000
7.589,7.268,-2.037,2.083,-3.259,-0.576,-0.311,0.643,0.023,0.982,-0.091,-0.580,-0.946,1.587,66.667,462713.000,1.000
8.699,6.904,-2.496,2.701,-4.553,-5.624,-4.289,-0.282,0.021,0.981,-0.094,-0.458,-0.854,1.373,66.667,462714.000,1.000
11.011,7.971,-1.712,4.226,-4.777,-8.794,-7.643,-0.727,0.024,0.983,-0.092,-0.397,-0.763,1.312,66.667,462715.000,1.000
14.520,10.586,0.620,6.679,-3.607,-8.804,-8.936,-0.471,0.024,0.985,-0.092,-0.275,-0.763,1.373,66.667,462716.000,1.000
18.768,14.242,4.219,9.588,-1.322,-5.859,-7.466,0.530,0.022,0.985,-0.091,-0.244,-0.641,1.373,66.667,462717.000,1.000
23.279,18.245,8.426,12.252,1.518,-1.077,-3.312,2.138,0.023,0.986,-0.090,-0.183,-0.610,1.373,66.667,462718.000,1.000
27.669,21.799,12.375,13.963,4.098,3.763,1.878,3.470,0.024,0.985,-0.093,-0.244,-0.366,1.282,66.667,462719.000,1.000
31.508,24.019,15.187,14.286,5.525,6.878,5.585,3.301,0.023,0.987,-0.091,-0.214,-0.397,1.251,66.667,462720.000,1.000
34.337,24.281,16.273,13.313,5.351,7.501,6.421,1.263,0.021,0.985,-0.089,-0.183,-0.336,1.099,66.667,462721.000,1.000
35.971,22.724,15.772,11.707,3.947,6.037,4.811,-1.647,0.019,0.983,-0.089,-0.214,-0.305,1.129,66.667,462722.000,1.000
36.840,20.418,14.796,10.516,2.408,3.544,2.180,-3.678,0.021,0.981,-0.092,-0.214,-0.275,1.068,66.667,462723.000,1.000
37.625,18.669,14.738,10.516,1.818,1.156,-0.069,-3.632,0.019,0.981,-0.092,-0.031,-0.214,1.007,66.667,462724.000,1.000
38.344,17.857,15.939,11.427,2.217,-0.644,-1.502,-1.984,0.018,0.984,-0.091,0.061,-0.305,0.885,66.667,462725.000,1.000
38.281,17.336,17.503,12.175,2.669,-2.105,-2.588,-0.401,0.017,0.985,-0.090,0.031,-0.214,0.793,66.667,462726.000,1.000
36.942,16.447,18.476,11.983,2.433,-3.353,-3.518,-0.186,0.017,0.984,-0.090,0.031,-0.275,0.824,66.667,462727.000,1.000
34.651,15.128,18.654,10.895,1.535,-4.068,-4.007,-1.694,0.015,0.985,-0.089,-0.031,-0.305,0.793,66.667,462728.000,1.000
32.383,13.688,18.417,9.569,0.433,-4.069,-4.085,-4.536,0.014,0.985,-0.090,0.000,-0.458,0.763,66.667,462729.000,1.000
31.211,12.488,18.277,8.878,-0.340,-3.594,-4.031,-7.656,0.014,0.985,-0.090,0.000,-0.580,0.671,66.667,462730.000,1.000
31.616,11.738,18.521,9.385,-0.382,-2.850,-3.681,-9.652,0.015,0.986,-0.092,0.000,-0.580,0.732,66.667,462731.000,1.000
33.114,11.385,19.057,10.958,0.388,-1.658,-2.396,-9.551,0.014,0.986,-0.089,0.031,-0.732,0.702,66.667,462732.000,1.000
34.624,11.173,19.577,12.959,1.754,0.163,0.152,-7.321,0.012,0.987,-0.088,0.031,-0.854,0.824,66.667,462733.000,1.000
35.189,10.796,19.839,14.752,3.413,2.255,3.332,-3.747,0.011,0.989,-0.089,0.031,-1.068,0.671,66.667,462734.000,1.000
34.421,10.108,19.792,15.984,5.154,3.911,6.080,0.109,0.012,0.987,-0.089,-0.122,-1.160,0.732,66.667,462735.000,1.000
32.641,9.317,19.620,16.638,6.945,4.721,7.839,3.536,0.012,0.986,-0.091,-0.214,-1.251,0.854,66.667,462736.000,1.000
30.756,8.879,19.704,16.990,8.834,4.714,8.582,6.341,0.011,0.985,-0.091,-0.153,-1.404,0.793,66.667,462737.000,1.000
29.614,8.973,20.163,17.240,10.547,3.991,8.252,8.184,0.012,0.985,-0.091,-0.092,-1.404,0.793,66.667,462738.000,1.000
29.174,9.086,20.407,17.018,11.269,2.590,6.563,8.110,0.011,0.987,-0.087,-0.122,-1.587,0.916,66.667,462739.000,1.000
28.522,8.364,19.452,15.544,10.078,0.641,3.378,5.320,0.013,0.986,-0.091,-0.122,-1.678,0.824,66.667,462740.000,1.000
26.782,6.395,16.766,12.399,6.720,-1.510,-0.809,0.141,0.014,0.983,-0.091,-0.214,-1.709,0.946,66.667,462741.000,1.000
23.826,3.574,12.715,8.001,1.938,-3.296,-4.791,-6.106,0.014,0.984,-0.090,-0.183,-1.862,1.007,66.667,462742.000,1.000
20.118,0.775,8.235,3.357,-2.938,-4.362,-7.459,-11.844,0.016,0.986,-0.092,-0.275,-1.831,0.977,66.667,462743.000,1.000
16.281,-1.239,4.277,-0.456,-6.734,-5.177,-8.912,-15.811,0.016,0.987,-0.091,-0.244,-1.801,1.099,66.667,462744.000,1.000
12.879,-2.149,1.508,-2.676,-8.901,-6.725,-10.217,-17.443,0.018,0.985,-0.090,-0.366,-1.831,1.129,66.667,462745.000,1.000
10.233,-2.111,0.162,-3.116,-9.487,-9.367,-11.996,-17.016,0.018,0.986,-0.090,-0.336,-1.709,1.129,66.667,462746.000,1.000
8.352,-1.465,0.099,-2.151,-8.692,-12.027,-13.422,-15.146,0.021,0.986,-0.092,-0.305,-1.831,1.190,66.667,462747.000,1.000
7.157,-0.368,1.040,-0.422,-6.542,-12.556,-12.880,-12.231,0.019,0.986,-0.089,-0.366,-1.831,1.251,66.667,462748.000,1.000
6.539,1.072,2.572,1.341,-3.196,-9.305,-9.835,-8.715,0.021,0.984,-0.089,-0.427,-1.740,1.282,66.667,462749.000,1.000
6.250,2.572,4.181,2.516,0.821,-2.468,-5.370,-5.273,0.021,0.983,-0.090,-0.366,-1.617,1.312,66.667,462750.000,1.000
6.025,3.902,5.618,2.968,4.919,5.996,-0.909,-2.297,0.021,0.984,-0.092,-0.366,-1.556,1.312,66.667,462751.000,1.000
5.651,4.971,6.900,2.963,8.518,13.340,2.699,0.246,0.022,0.986,-0.091,-0.214,-1.465,1.404,66.667,462752.000,1.000
4.788,5.554,7.836,2.648,10.880,17.342,5.081,2.427,0.023,0.985,-0.088,-0.305,-1.312,1.343,66.667,462753.000,1.000
3.052,5.308,7.968,1.916,11.438,17.468,6.286,4.296,0.024,0.987,-0.088,-0.275,-1.221,1.190,66.667,462754.000,1.000
0.535,4.172,7.124,0.776,10.264,14.738,6.621,5.808,0.023,0.989,-0.090,-0.305,-1.099,1.160,66.667,462755.000,1.000
-1.896,2.563,5.776,-0.378,7.976,10.379,5.910,6.392,0.022,0.988,-0.090,-0.336,-1.007,1.129,66.667,462756.000,1.000
-3.191,0.982,4.629,-1.019,5.243,5.017,3.372,5.107,0.022,0.989,-0.088,-0.397,-0.824,1.221,66.667,462757.000,1.000
-3.031,-0.384,4.034,-0.921,2.594,-0.662,-1.062,1.722,0.021,0.985,-0.088,-0.397,-0.763,1.282,66.667,462758.000,1.000
-1.835,-1.463,4.032,-0.156,0.651,-5.150,-5.648,-2.579,0.021,0.985,-0.090,-0.305,-0.610,1.129,66.667,462759.000,1.000
-0.185,-2.100,4.550,1.016,-0.126,-7.037,-8.012,-5.996,0.023,0.984,-0.090,-0.275,-0.580,1.099,66.667,462760.000,1.000
1.325,-2.420,5.151,2.028,-0.139,-6.605,-7.490,-7.563,0.022,0.983,-0.092,-0.214,-0.580,1.129,66.667,462761.000,1.000
2.083,-2.920,5.047,2.142,-0.443,-5.495,-5.424,-7.527,0.021,0.984,-0.091,-0.122,-0.397,1.068,66.667,462762.000,1.000
1.878,-3.827,3.812,1.073,-1.613,-4.882,-3.412,-6.634,0.021,0.987,-0.090,-0.092,-0.183,0.977,66.667,462763.000,1.000
1.190,-4.767,1.859,-0.685,-3.250,-4.801,-2.241,-5.652,0.021,0.986,-0.089,-0.061,-0.153,1.068,66.667,462764.000,1.000
0.704,-5.226,0.082,-2.276,-4.563,-4.739,-1.849,-5.194,0.021,0.984,-0.090,-0.061,-0.061,1.129,66.667,462765.000,1.000
0.787,-4.955,-0.714,-3.016,-4.908,-3.916,-1.383,-5.320,0.021,0.983,-0.089,-0.092,0.092,1.160,66.667,462766.000,1.000
1.520,-3.969,-0.133,-2.594,-4.029,-1.830,-0.061,-5.527,0.020,0.980,-0.090,-0.031,0.153,1.099,66.667,462767.000,1.000
2.790,-2.569,1.590,-1.189,-2.342,0.631,1.477,-5.390,0.019,0.979,-0.090,0.122,0.183,1.038,66.667,462768.000,1.000
4.119,-1.313,3.578,0.526,-0.763,1.583,1.710,-4.845,0.017,0.978,-0.089,0.366,0.153,1.038,66.667,462769.000,1.000
4.806,-0.592,4.868,1.766,0.041,0.346,0.384,-3.821,0.017,0.980,-0.090,0.641,0.244,0.946,66.667,462770.000,1.000
4.447,-0.419,5.009,2.047,-0.014,-1.826,-1.294,-2.426,0.018,0.984,-0.092,0.824,0.183,0.916,66.667,462771.000,1.000
2.979,-0.973,3.926,1.120,-1.000,-3.639,-2.594,-1.588,0.017,0.990,-0.088,0.946,0.153,0.885,66.667,462772.000,1.000
0.300,-2.941,1.530,-1.154,-3.253,-5.205,-3.981,-2.556,0.017,0.992,-0.086,0.885,0.122,1.007,66.667,462773.000,1.000
-3.715,-6.851,-2.173,-4.564,-6.831,-7.321,-6.110,-5.655,0.017,0.993,-0.084,0.732,0.122,1.038,66.667,462774.000,1.000
-8.720,-12.234,-6.743,-8.403,-11.046,-10.218,-8.947,-9.918,0.017,0.992,-0.085,0.641,0.183,1.251,66.667,462775.000,1.000
-13.601,-17.614,-11.236,-11.663,-14.609,-13.101,-11.677,-13.645,0.018,0.992,-0.088,0.366,0.092,1.190,66.667,462776.000,1.000
-16.913,-21.301,-14.479,-13.429,-16.225,-14.508,-13.090,-15.238,0.016,0.989,-0.091,0.275,0.183,1.404,66.667,462777.000,1.000
-17.846,-22.381,-15.655,-13.358,-15.365,-13.283,-12.322,-14.087,0.015,0.985,-0.092,0.336,0.031,1.312,66.667,462778.000,1.000
-16.753,-21.243,-14.815,-11.924,-12.658,-9.433,-9.400,-10.947,0.015,0.985,-0.090,0.458,-0.122,1.221,66.667,462779.000,1.000
-14.740,-19.201,-12.788,-10.073,-9.455,-4.166,-4.886,-7.209,0.016,0.984,-0.092,0.610,-0.122,1.221,66.667,462780.000,1.000
-12.842,-17.564,-10.582,-8.541,-6.993,0.633,0.436,-3.860,0.014,0.985,-0.090,0.793,-0.183,1.129,66.667,462781.000,1.000
-11.573,-16.957,-8.847,-7.538,-5.954,3.113,5.075,-1.429,0.015,0.985,-0.090,0.671,-0.183,1.038,66.667,462782.000,1.000
-11.059,-17.365,-7.889,-7.073,-6.571,2.283,6.871,-0.603,0.015,0.987,-0.086,0.793,-0.366,1.160,66.667,462783.000,1.000
-11.326,-18.578,-7.922,-7.271,-8.729,-1.515,4.481,-2.051,0.014,0.988,-0.088,0.641,-0.519,1.190,66.667,462784.000,1.000
-12.299,-20.356,-9.025,-8.220,-11.853,-6.878,-1.329,-5.570,0.015,0.988,-0.086,0.610,-0.549,1.221,66.667,462785.000,1.000
-13.771,-22.421,-11.042,-9.763,-14.973,-12.019,-8.189,-9.944,0.014,0.986,-0.087,0.580,-0.580,1.099,66.667,462786.000,1.000
-15.558,-24.457,-13.690,-11.566,-17.097,-15.212,-13.422,-13.657,0.015,0.986,-0.091,0.641,-0.732,1.190,66.667,462787.000,1.000
-17.357,-25.932,-16.445,-13.156,-17.513,-15.232,-15.056,-15.518,0.016,0.988,-0.090,0.610,-0.793,1.129,66.667,462788.000,1.000
-18.521,-26.158,-18.452,-14.001,-16.086,-12.259,-12.912,-15.191,0.014,0.990,-0.089,0.519,-0.854,1.221,66.667,462789.000,1.000
-18.526,-24.916,-19.093,-13.970,-13.668,-8.313,-9.164,-13.608,0.015,0.991,-0.091,0.549,-0.885,1.129,66.667,462790.000,1.000
-17.484,-22.663,-18.442,-13.467,-11.610,-5.787,-6.768,-12.262,0.013,0.991,-0.089,0.580,-0.916,1.251,66.667,462791.000,1.000
-15.776,-19.741,-16.754,-12.725,-10.298,-4.970,-6.411,-11.511,0.016,0.989,-0.093,0.458,-0.977,1.190,66.667,462792.000,1.000
-13.749,-16.109,-14.142,-11.474,-8.830,-3.926,-5.890,-10.232,0.014,0.988,-0.094,0.366,-1.129,1.190,66.667,462793.000,1.000
-12.104,-12.250,-11.137,-9.598,-6.503,-1.192,-3.056,-7.466,0.015,0.986,-0.091,0.427,-1.221,1.190,66.667,462794.000,1.000
-11.898,-9.503,-8.875,-7.598,-3.767,2.622,2.000,-3.561,0.017,0.987,-0.090,0.427,-1.251,1.221,66.667,462795.000,1.000
-13.793,-9.115,-8.364,-6.257,-1.631,5.871,7.524,0.246,0.019,0.985,-0.091,0.458,-1.343,1.251,66.667,462796.000,1.000
-17.424,-11.224,-9.698,-6.078,-0.854,6.979,11.142,2.624,0.018,0.985,-0.090,0.427,-1.282,1.221,66.667,462797.000,1.000
-21.503,-14.763,-11.986,-6.957,-1.665,4.766,10.797,2.813,0.018,0.984,-0.088,0.397,-1.251,1.160,66.667,462798.000,1.000
-24.682,-18.311,-14.059,-8.324,-3.726,-0.850,6.224,1.093,0.016,0.982,-0.090,0.336,-1.282,1.190,66.667,462799.000,1.000
-26.400,-20.959,-15.281,-9.605,-6.237,-8.145,-0.608,-1.444,0.016,0.981,-0.092,0.427,-1.251,1.251,66.667,462800.000,1.000
-26.884,-22.442,-15.669,-10.478,-8.223,-14.062,-6.901,-3.717,0.018,0.980,-0.092,0.458,-1.190,1.251,66.667,462801.000,1.000
-26.610,-22.798,-15.484,-10.820,-8.850,-15.709,-10.292,-5.072,0.020,0.982,-0.097,0.458,-1.251,1.282,66.667,462802.000,1.000
-25.834,-22.058,-14.795,-10.491,-7.635,-11.927,-9.381,-5.060,0.019,0.983,-0.095,0.580,-1.251,1.373,66.667,462803.000,1.000
-24.467,-20.253,-13.433,-9.338,-4.687,-4.142,-4.566,-3.593,0.019,0.985,-0.094,0.519,-1.282,1.343,66.667,462804.000,1.000
-22.512,-17.744,-11.466,-7.604,-0.959,4.292,1.822,-1.398,0.020,0.985,-0.092,0.671,-1.282,1.282,66.667,462805.000,1.000
-20.433,-15.279,-9.443,-5.988,2.230,10.275,7.403,0.609,0.019,0.984,-0.093,0.580,-1.190,1.221,66.667,462806.000,1.000
-18.727,-13.414,-7.863,-5.005,4.211,12.919,11.787,2.385,0.019,0.985,-0.092,0.519,-1.129,1.068,66.667,462807.000,1.000
-17.350,-12.169,-6.787,-4.617,5.130,13.156,15.653,4.401,0.018,0.986,-0.091,0.397,-1.129,0.977,66.667,462808.000,1.000
-15.798,-11.346,-6.101,-4.580,5.148,11.828,18.090,6.361,0.019,0.986,-0.094,0.366,-1.190,1.099,66.667,462809.000,1.000
-13.601,-10.747,-5.741,-4.753,4.120,9.104,16.705,7.042,0.022,0.985,-0.093,0.336,-1.160,1.068,66.667,462810.000,1.000
-10.814,-10.179,-5.672,-5.095,2.068,5.447,10.565,5.522,0.022,0.984,-0.094,0.214,-1.038,1.007,66.667,462811.000,1.000
-8.165,-9.651,-5.966,-5.665,-0.539,1.970,1.717,2.141,0.021,0.984,-0.094,0.244,-1.038,0.977,66.667,462812.000,1.000
-6.482,-9.353,-6.716,-6.518,-2.903,-0.063,-6.026,-1.691,0.020,0.984,-0.093,0.214,-0.916,1.007,66.667,462813.000,1.000
-5.882,-9.196,-7.652,-7.390,-4.024,0.427,-9.014,-4.189,0.021,0.983,-0.095,0.244,-0.885,1.007,66.667,462814.000,1.000
-5.759,-8.725,-8.118,-7.735,-3.152,3.645,-5.770,-4.100,0.021,0.981,-0.091,0.305,-0.793,0.946,66.667,462815.000,1.000
-5.624,-7.821,-7.730,-7.397,-0.654,7.818,1.307,-1.752,0.021,0.980,-0.093,0.244,-0.793,0.977,66.667,462816.000,1.000
-5.583,-7.000,-6.753,-6.940,2.009,9.938,7.222,1.067,0.021,0.977,-0.092,0.397,-0.671,1.068,66.667,462817.000,1.000
-5.838,-6.669,-5.570,-7.002,3.580,8.546,8.501,2.761,0.022,0.976,-0.093,0.305,-0.610,1.068,66.667,462818.000,1.000
-6.215,-6.557,-4.181,-7.598,3.947,5.196,5.699,3.121,0.021,0.976,-0.094,0.427,-0.610,1.068,66.667,462819.000,1.000
-6.279,-5.963,-2.350,-8.160,3.830,2.924,2.175,2.931,0.021,0.979,-0.097,0.610,-0.580,1.068,66.667,462820.000,1.000
-5.639,-4.373,0.008,-8.004,3.960,3.588,1.072,3.049,0.020,0.981,-0.096,0.641,-0.580,1.190,66.667,462821.000,1.000
-4.407,-2.112,2.418,-6.963,4.388,6.367,2.934,3.715,0.020,0.986,-0.095,0.702,-0.458,1.251,66.667,462822.000,1.000
-3.413,-0.360,3.866,-5.662,4.395,8.599,5.703,4.374,0.021,0.989,-0.094,0.671,-0.366,1.251,66.667,462823.000,1.000
-3.398,0.067,3.766,-4.771,3.548,8.580,7.273,4.554,0.021,0.992,-0.092,0.549,-0.366,1.221,66.667,462824.000,1.000
-4.107,-0.255,2.782,-4.140,2.595,7.260,7.705,4.803,0.020,0.991,-0.094,0.458,-0.427,1.343,66.667,462825.000,1.000
-4.846,-0.332,1.936,-3.299,2.481,6.482,8.269,5.876,0.019,0.991,-0.096,0.214,-0.366,1.312,66.667,462826.000,1.000
-5.643,-0.314,1.212,-2.533,2.814,6.469,9.347,7.174,0.016,0.991,-0.093,0.122,-0.366,1.312,66.667,462827.000,1.000
-7.089,-1.226,-0.194,-2.634,2.315,6.182,10.453,7.247,0.017,0.991,-0.094,0.092,-0.366,1.312,66.667,462828.000,1.000
-9.317,-3.467,-2.506,-3.741,0.542,5.239,11.390,5.789,0.015,0.990,-0.091,-0.153,-0.427,1.251,66.667,462829.000,1.000
-11.830,-6.403,-5.082,-5.138,-1.783,4.112,12.070,3.883,0.011,0.990,-0.092,-0.244,-0.519,1.221,66.667,462830.000,1.000
-14.316,-9.386,-7.468,-6.265,-4.057,2.763,11.471,2.268,0.012,0.993,-0.092,-0.305,-0.671,0.977,66.667,462831.000,1.000
-17.006,-12.376,-9.959,-7.311,-6.519,0.298,7.922,0.489,0.012,0.994,-0.089,-0.519,-0.824,0.885,66.667,462832.000,1.000
-19.971,-15.295,-12.835,-8.626,-9.498,-3.777,0.930,-2.039,0.012,0.994,-0.089,-0.549,-1.007,0.732,66.667,462833.000,1.000
-22.680,-17.482,-15.681,-10.116,-12.566,-8.475,-7.594,-4.946,0.015,0.993,-0.092,-0.702,-1.160,0.702,66.667,462834.000,1.000
-24.572,-18.251,-17.827,-11.509,-14.842,-11.831,-14.387,-7.247,0.013,0.993,-0.090,-0.885,-1.312,0.732,66.667,462835.000,1.000
-25.491,-17.522,-18.930,-12.693,-15.765,-12.338,-17.111,-8.219,0.015,0.991,-0.090,-0.916,-1.495,0.732,66.667,462836.000,1.000
-25.302,-15.582,-18.867,-13.447,-15.249,-9.821,-15.470,-7.646,0.014,0.991,-0.090,-1.038,-1.617,0.641,66.667,462837.000,1.000
-23.803,-12.824,-17.667,-13.352,-13.565,-5.420,-10.845,-5.782,0.014,0.989,-0.092,-1.007,-1.617,0.702,66.667,462838.000,1.000
-21.298,-9.953,-15.820,-12.284,-11.343,-1.032,-5.427,-3.402,0.015,0.989,-0.093,-0.977,-1.587,0.702,66.667,462839.000,1.000
-18.627,-7.749,-14.048,-10.536,-9.196,1.883,-0.956,-1.320,0.017,0.987,-0.094,-1.038,-1.740,0.763,66.667,462840.000,1.000
-16.516,-6.450,-12.637,-8.379,-7.192,3.289,2.295,0.340,0.017,0.986,-0.093,-1.038,-1.678,0.854,66.667,462841.000,1.000
-15.214,-5.728,-11.397,-5.967,-5.049,4.202,5.238,1.993,0.017,0.984,-0.093,-0.946,-1.770,0.793,66.667,462842.000,1.000
-14.572,-5.176,-10.152,-3.633,-2.837,5.307,8.290,3.637,0.016,0.983,-0.089,-0.946,-1.740,0.824,66.667,462843.000,1.000
-14.318,-4.805,-9.142,-2.077,-1.376,5.843,10.039,4.234,0.016,0.984,-0.088,-0.916,-1.801,0.946,66.667,462844.000,1.000
-14.320,-5.002,-8.916,-2.042,-1.685,4.351,8.653,2.561,0.016,0.981,-0.086,-0.732,-1.801,0.977,66.667,462845.000,1.000
-14.465,-5.791,-9.668,-3.548,-3.788,0.890,4.546,-1.175,0.015,0.982,-0.088,-0.732,-1.801,1.007,66.667,462846.000,1.000
-14.543,-6.587,-10.966,-5.729,-6.528,-2.654,0.108,-5.188,0.016,0.982,-0.087,-0.641,-1.770,0.946,66.667,462847.000,1.000
-14.450,-6.979,-12.313,-7.622,-8.821,-5.061,-3.272,-7.872,0.014,0.981,-0.087,-0.580,-1.892,1.099,66.667,462848.000,1.000
-14.212,-7.128,-13.449,-8.775,-10.431,-7.042,-6.276,-9.101,0.013,0.980,-0.087,-0.427,-2.045,0.977,66.667,462849.000,1.000
-13.654,-7.105,-13.917,-9.000,-11.314,-9.372,-9.566,-9.540,0.014,0.979,-0.089,-0.275,-1.984,0.885,66.667,462850.000,1.000
-12.340,-6.478,-12.960,-8.039,-10.957,-11.230,-12.182,-9.356,0.016,0.981,-0.088,-0.031,-1.984,0.946,66.667,462851.000,1.000
-9.986,-4.794,-10.174,-5.731,-8.809,-11.019,-12.436,-8.061,0.016,0.981,-0.088,0.061,-1.984,1.007,66.667,462852.000,1.000
-6.962,-2.253,-6.164,-2.417,-5.109,-8.014,-9.648,-5.372,0.016,0.981,-0.088,0.061,-2.014,0.977,66.667,462853.000,1.000
-4.338,0.207,-2.436,0.941,-1.110,-3.110,-4.967,-1.942,0.018,0.979,-0.091,0.244,-1.923,1.038,66.667,462854.000,1.000
-3.211,1.552,-0.499,3.186,1.568,1.546,-0.797,0.842,0.018,0.980,-0.088,0.427,-1.953,1.007,66.667,462855.000,1.000
-3.877,1.363,-0.936,3.622,1.886,3.692,0.604,1.756,0.019,0.980,-0.086,0.549,-1.862,0.946,66.667,462856.000,1.000
-5.625,-0.005,-3.119,2.421,-0.013,2.414,-1.377,0.534,0.019,0.979,-0.086,0.732,-1.770,0.854,66.667,462857.000,1.000
-7.215,-1.580,-5.583,0.572,-2.762,-0.969,-4.988,-1.854,0.019,0.979,-0.086,0.824,-1.648,0.763,66.667,462858.000,1.000
-7.630,-2.283,-6.871,-0.728,-4.555,-3.707,-7.218,-3.776,0.018,0.980,-0.087,0.977,-1.556,0.824,66.667,462859.000,1.000
-6.609,-1.665,-6.462,-0.905,-4.408,-3.813,-6.215,-4.177,0.017,0.981,-0.089,1.038,-1.373,0.824,66.667,462860.000,1.000
-4.538,-0.122,-4.893,-0.179,-2.662,-1.497,-2.718,-3.195,0.018,0.979,-0.087,1.160,-1.373,0.916,66.667,462861.000,1.000
-2.064,1.628,-3.075,0.898,-0.303,1.504,0.923,-1.574,0.018,0.980,-0.091,1.312,-1.343,0.946,66.667,462862.000,1.000
0.080,3.027,-1.735,1.763,1.815,3.609,2.821,0.096,0.018,0.978,-0.089,1.404,-1.251,1.099,66.667,462863.000,1.000
1.348,3.865,-1.182,2.024,3.265,4.335,2.623,1.572,0.020,0.980,-0.090,1.556,-1.160,1.068,66.667,462864.000,1.000
1.796,4.324,-1.201,1.743,4.014,4.029,1.123,2.811,0.018,0.982,-0.089,1.617,-1.007,1.099,66.667,462865.000,1.000
1.908,4.626,-1.376,1.267,4.079,2.986,-0.899,3.610,0.017,0.984,-0.087,1.740,-1.007,1.221,66.667,462866.000,1.000
1.988,4.716,-1.516,0.773,3.333,1.157,-3.127,3.545,0.018,0.985,-0.092,1.770,-0.885,1.160,66.667,462867.000,1.000
2.114,4.662,-1.420,0.377,2.035,-1.145,-5.016,2.674,0.019,0.988,-0.092,1.740,-0.824,1.282,66.667,462868.000,1.000
2.539,5.073,-0.471,0.520,1.210,-2.785,-5.433,2.019,0.018,0.989,-0.090,1.678,-0.732,1.312,66.667,462869.000,1.000
3.639,6.532,1.899,1.650,1.873,-2.722,-3.716,2.685,0.017,0.989,-0.092,1.526,-0.702,1.373,66.667,462870.000,1.000
5.492,8.796,5.433,3.567,3.979,-1.150,-0.791,4.562,0.019,0.990,-0.092,1.282,-0.580,1.434,66.667,462871.000,1.000
7.824,11.058,9.204,5.529,6.610,0.955,1.627,6.474,0.017,0.990,-0.092,1.160,-0.549,1.495,66.667,462872.000,1.000
10.274,12.784,12.396,6.961,8.924,3.039,2.701,7.372,0.017,0.989,-0.093,1.038,-0.458,1.434,66.667,462873.000,1.000
12.437,13.808,14.544,7.717,10.432,4.812,2.522,6.893,0.016,0.987,-0.092,0.916,-0.427,1.434,66.667,462874.000,1.000
13.831,13.980,15.378,7.858,10.784,5.455,1.265,5.224,0.015,0.989,-0.093,0.854,-0.397,1.404,66.667,462875.000,1.000
14.314,13.491,15.158,7.734,10.108,4.409,-0.503,3.186,0.017,0.989,-0.093,0.763,-0.336,1.465,66.667,462876.000,1.000
14.532,13.338,14.995,8.145,9.427,2.764,-1.114,2.178,0.016,0.990,-0.092,0.641,-0.336,1.373,66.667,462877.000,1.000
15.395,14.598,16.087,9.806,9.948,2.659,1.245,3.353,0.016,0.993,-0.090,0.580,-0.275,1.404,66.667,462878.000,1.000
16.959,17.080,18.431,12.465,11.721,5.101,6.457,6.546,0.016,0.992,-0.088,0.366,-0.214,1.373,66.667,462879.000,1.000
18.186,19.121,20.558,14.821,13.269,8.546,11.548,9.920,0.018,0.992,-0.090,0.214,-0.214,1.312,66.667,462880.000,1.000
18.093,19.026,20.854,15.537,12.767,9.706,12.194,10.940,0.017,0.987,-0.088,0.061,-0.275,1.221,66.667,462881.000,1.000
16.926,16.725,19.115,14.429,9.732,6.255,6.080,8.331,0.019,0.980,-0.091,-0.092,-0.214,1.160,66.667,462882.000,1.000
15.801,13.669,16.490,12.433,5.319,-1.245,-5.113,3.007,0.020,0.976,-0.094,0.061,-0.092,1.221,66.667,462883.000,1.000
15.334,11.173,13.993,10.431,1.045,-10.121,-17.104,-2.990,0.023,0.976,-0.096,0.214,0.000,1.129,66.667,462884.000,1.000
15.189,9.505,11.783,8.645,-2.137,-17.333,-25.505,-7.731,0.023,0.979,-0.095,0.336,0.031,1.221,66.667,462885.000,1.000
14.879,8.423,9.780,7.152,-3.644,-20.589,-27.429,-9.700,0.022,0.985,-0.094,0.458,0.092,1.160,66.667,462886.000,1.000
14.414,7.815,8.214,6.325,-3.117,-19.127,-22.489,-8.176,0.021,0.987,-0.091,0.427,0.153,1.312,66.667,462887.000,1.000
14.188,7.765,7.491,6.578,-0.767,-14.052,-13.144,-3.877,0.020,0.988,-0.093,0.275,0.336,1.404,66.667,462888.000,1.000
14.610,8.415,7.909,7.969,2.566,-7.593,-3.595,1.261,0.020,0.989,-0.093,0.153,0.305,1.526,66.667,462889.000,1.000
15.857,9.917,9.508,10.158,5.931,-1.802,2.677,5.439,0.020,0.987,-0.097,0.244,0.397,1.678,66.667,462890.000,1.000
17.669,12.207,11.940,12.492,8.653,2.118,4.575,7.934,0.022,0.986,-0.094,0.153,0.427,1.648,66.667,462891.000,1.000
19.243,14.612,14.343,14.106,10.174,3.639,2.832,8.691,0.022,0.983,-0.093,0.214,0.488,1.740,66.667,462892.000,1.000
19.608,15.962,15.631,14.264,10.055,2.698,-1.149,7.821,0.019,0.984,-0.091,0.153,0.458,1.709,66.667,462893.000,1.000
18.249,15.408,15.157,12.815,8.419,-0.053,-5.560,5.862,0.017,0.984,-0.089,0.061,0.458,1.648,66.667,462894.000,1.000
15.363,13.181,13.133,10.291,6.097,-3.055,-8.371,3.847,0.013,0.985,-0.092,-0.061,0.336,1.587,66.667,462895.000,1.000
11.675,10.437,10.403,7.540,4.062,-4.670,-8.560,2.501,0.012,0.982,-0.094,0.092,0.244,1.373,66.667,462896.000,1.000
8.031,8.327,7.748,5.154,2.666,-4.573,-7.186,1.565,0.011,0.979,-0.094,0.031,0.122,1.221,66.667,462897.000,1.000
5.174,7.311,5.537,3.338,1.630,-3.916,-6.496,0.346,0.010,0.980,-0.095,0.122,-0.092,1.038,66.667,462898.000,1.000
3.828,7.391,4.069,2.322,0.841,-3.872,-7.716,-1.119,0.009,0.981,-0.094,0.153,-0.305,0.763,66.667,462899.000,1.000
4.483,8.506,3.791,2.486,0.750,-4.324,-9.884,-1.813,0.012,0.984,-0.094,0.244,-0.397,0.854,66.667,462900.000,1.000
6.831,10.422,4.882,3.913,1.841,-4.147,-10.861,-0.701,0.011,0.988,-0.092,0.244,-0.519,0.671,66.667,462901.000,1.000
9.669,12.434,6.789,6.054,3.887,-2.608,-9.356,2.230,0.015,0.990,-0.093,0.153,-0.702,0.610,66.667,462902.000,1.000
11.603,13.467,8.351,7.927,5.827,-0.421,-6.077,5.748,0.015,0.989,-0.092,0.031,-0.641,0.732,66.667,462903.000,1.000
11.937,12.725,8.588,8.757,6.523,0.752,-3.021,8.163,0.016,0.987,-0.093,-0.031,-0.763,0.702,66.667,462904.000,1.000
11.106,10.423,7.458,8.524,5.733,-0.023,-1.609,8.562,0.017,0.987,-0.099,-0.183,-0.824,0.732,66.667,462905.000,1.000
10.292,7.729,5.819,7.900,4.253,-2.094,-1.737,7.348,0.017,0.987,-0.098,-0.153,-0.763,0.763,66.667,462906.000,1.000
10.509,5.920,4.687,7.680,3.175,-3.989,-2.319,5.820,0.017,0.988,-0.095,-0.153,-0.793,0.885,66.667,462907.000,1.000
12.018,5.731,4.682,8.344,3.257,-4.423,-2.120,5.378,0.018,0.990,-0.096,-0.183,-1.007,0.916,66.667,462908.000,1.000
14.538,7.336,5.976,9.970,4.747,-2.681,-0.356,6.657,0.019,0.989,-0.094,-0.214,-0.916,0.977,66.667,462909.000,1.000
17.604,10.436,8.351,12.270,7.341,1.228,2.892,9.083,0.020,0.991,-0.094,-0.427,-0.946,1.129,66.667,462910.000,1.000
20.563,14.188,11.226,14.614,10.261,6.494,6.778,11.417,0.018,0.989,-0.097,-0.519,-0.916,1.129,66.667,462911.000,1.000
22.583,17.302,13.813,16.232,12.566,11.683,10.165,12.688,0.018,0.988,-0.095,-0.702,-0.885,1.221,66.667,462912.000,1.000
22.859,18.469,15.291,16.445,13.452,15.143,12.013,12.558,0.019,0.984,-0.095,-0.763,-1.007,1.343,66.667,462913.000,1.000
20.914,16.960,15.011,14.844,12.482,15.655,11.718,11.212,0.017,0.987,-0.095,-0.763,-1.038,1.251,66.667,462914.000,1.000
17.150,13.307,13.093,11.806,10.095,13.331,9.825,9.477,0.016,0.985,-0.094,-0.671,-1.099,1.343,66.667,462915.000,1.000
13.165,9.393,10.827,8.852,7.878,9.854,8.266,8.920,0.015,0.983,-0.094,-0.641,-1.099,1.434,66.667,462916.000,1.000
10.803,7.240,9.780,7.695,7.481,7.200,8.970,10.734,0.016,0.983,-0.091,-0.488,-1.221,1.556,66.667,462917.000,1.000
10.501,7.369,10.286,8.592,8.942,5.968,11.671,14.051,0.015,0.983,-0.091,-0.336,-1.251,1.587,66.667,462918.000,1.000
10.865,8.397,11.061,10.020,10.462,5.109,13.409,16.053,0.014,0.983,-0.089,-0.244,-1.282,1.526,66.667,462919.000,1.000
9.948,8.300,10.397,10.064,9.979,3.176,11.016,14.335,0.016,0.983,-0.088,-0.153,-1.312,1.617,66.667,462920.000,1.000
6.844,6.054,7.605,7.916,6.838,-0.141,4.172,8.929,0.016,0.984,-0.087,-0.122,-1.282,1.495,66.667,462921.000,1.000
2.283,2.261,3.420,4.226,2.063,-3.650,-4.372,1.966,0.017,0.982,-0.091,-0.031,-1.404,1.495,66.667,462922.000,1.000
-1.844,-1.364,-0.549,0.513,-2.497,-5.866,-11.145,-3.959,0.019,0.978,-0.093,0.092,-1.312,1.404,66.667,462923.000,1.000
-3.661,-3.161,-2.801,-1.780,-5.261,-6.408,-14.143,-7.040,0.019,0.974,-0.097,0.305,-1.434,1.556,66.667,462924.000,1.000
-2.692,-2.753,-2.974,-2.173,-5.806,-6.040,-13.426,-6.934,0.018,0.975,-0.094,0.702,-1.465,1.556,66.667,462925.000,1.000
-0.385,-1.470,-2.225,-1.457,-5.101,-5.828,-10.670,-4.835,0.016,0.975,-0.091,1.068,-1.526,1.587,66.667,462926.000,1.000
0.809,-1.451,-2.493,-1.128,-4.779,-6.514,-8.046,-2.686,0.015,0.980,-0.089,1.282,-1.526,1.587,66.667,462927.000,1.000
-0.762,-3.921,-4.973,-2.205,-5.765,-8.035,-6.635,-1.683,0.015,0.981,-0.085,1.556,-1.648,1.526,66.667,462928.000,1.000
-4.719,-8.067,-9.067,-4.313,-7.427,-9.242,-5.628,-1.321,0.016,0.984,-0.087,1.526,-1.648,1.617,66.667,462929.000,1.000
-9.057,-11.686,-12.874,-6.063,-8.273,-8.591,-3.412,-0.250,0.016,0.985,-0.085,1.556,-1.648,1.678,66.667,462930.000,1.000
-11.732,-12.940,-14.689,-6.370,-7.432,-5.445,0.547,1.929,0.017,0.987,-0.088,1.556,-1.678,1.678,66.667,462931.000,1.000
-11.989,-11.510,-14.052,-5.281,-5.294,-0.583,5.261,4.187,0.018,0.988,-0.091,1.587,-1.709,1.556,66.667,462932.000,1.000
-10.520,-8.502,-11.717,-3.723,-2.977,4.370,9.155,5.172,0.019,0.988,-0.092,1.648,-1.862,1.648,66.667,462933.000,1.000
-8.434,-5.402,-8.775,-2.551,-1.392,7.778,11.053,4.433,0.018,0.990,-0.091,1.709,-1.862,1.648,66.667,462934.000,1.000
-6.220,-3.025,-5.845,-1.870,-0.697,8.739,10.643,2.683,0.018,0.990,-0.089,1.617,-1.923,1.648,66.667,462935.000,1.000
-4.031,-1.582,-3.326,-1.473,-0.690,7.318,8.169,0.833,0.019,0.992,-0.086,1.465,-2.014,1.556,66.667,462936.000,1.000
-2.565,-1.309,-1.930,-1.520,-1.346,4.408,4.286,-0.831,0.018,0.995,-0.085,1.282,-2.045,1.678,66.667,462937.000,1.000
-2.696,-2.150,-2.070,-2.175,-2.356,1.879,0.851,-2.036,0.017,0.993,-0.088,1.068,-2.045,1.587,66.667,462938.000,1.000
-4.372,-3.258,-3.069,-3.013,-2.733,1.795,0.373,-2.018,0.018,0.992,-0.091,0.885,-2.075,1.587,66.667,462939.000,1.000
-6.598,-3.671,-3.724,-3.428,-1.697,4.309,3.405,-0.491,0.018,0.991,-0.091,0.824,-1.984,1.495,66.667,462940.000,1.000
-8.226,-3.033,-3.236,-3.123,0.695,7.479,7.859,1.861,0.018,0.990,-0.094,0.763,-2.075,1.526,66.667,462941.000,1.000
-8.325,-1.207,-1.173,-1.820,4.196,9.815,11.660,4.496,0.020,0.987,-0.093,0.671,-1.923,1.587,66.667,462942.000,1.000
-6.421,1.868,2.555,0.772,8.618,11.417,14.402,7.505,0.016,0.984,-0.093,0.488,-1.923,1.526,66.667,462943.000,1.000
-3.104,5.369,7.044,4.132,12.996,12.403,16.079,10.521,0.017,0.981,-0.093,0.244,-1.862,1.312,66.667,462944.000,1.000
0.075,7.636,10.496,6.796,15.622,12.026,16.156,12.282,0.019,0.978,-0.099,0.336,-1.678,1.007,66.667,462945.000,1.000
1.970,7.772,11.814,7.761,15.714,10.117,14.720,12.161,0.021,0.982,-0.098,0.641,-1.587,0.946,66.667,462946.000,1.000
2.941,6.767,11.775,7.641,14.548,8.422,13.621,11.487,0.020,0.987,-0.096,0.763,-1.526,0.916,66.667,462947.000,1.000
4.357,6.650,12.257,7.966,14.373,9.587,15.323,12.269,0.017,0.987,-0.092,0.610,-1.587,1.068,66.667,462948.000,1.000
7.106,8.623,14.417,9.532,16.255,14.645,20.291,14.729,0.014,0.986,-0.089,0.397,-1.678,1.038,66.667,462949.000,1.000
10.482,11.812,17.528,11.548,18.952,21.439,25.805,16.818,0.020,0.985,-0.093,0.214,-1.678,1.099,66.667,462950.000,1.000
12.553,13.792,19.464,12.260,19.862,25.608,27.651,16.120,0.026,0.985,-0.094,0.336,-1.709,1.099,66.667,462951.000,1.000
12.004,12.834,18.629,10.574,17.334,23.763,23.349,11.849,0.026,0.985,-0.094,0.397,-1.526,1.343,66.667,462952.000,1.000
9.711,9.813,15.615,7.301,12.325,16.313,14.279,5.520,0.023,0.985,-0.092,0.336,-1.343,1.343,66.667,462953.000,1.000
8.150,7.574,12.803,4.738,7.844,7.446,5.076,0.241,0.017,0.989,-0.090,0.336,-1.251,1.373,66.667,462954.000,1.000
9.003,8.269,12.128,4.717,6.563,2.192,0.729,-1.272,0.016,0.990,-0.091,0.092,-1.190,1.312,66.667,462955.000,1.000
11.583,11.451,13.387,7.024,8.809,2.970,3.303,1.338,0.018,0.993,-0.094,-0.214,-1.190,1.190,66.667,462956.000,1.000
13.801,14.778,14.824,9.803,12.631,8.308,10.464,5.887,0.019,0.994,-0.093,-0.397,-1.068,0.977,66.667,462957.000,1.000
13.964,15.844,14.668,11.032,15.197,14.006,16.754,9.075,0.021,0.982,-0.102,-0.824,-0.977,0.824,66.667,462958.000,1.000
11.424,13.321,11.951,9.573,14.350,15.844,17.371,8.538,0.021,0.963,-0.105,-1.190,-0.793,1.038,66.667,462959.000,1.000
6.938,7.946,7.211,5.887,10.194,12.775,12.207,4.661,0.021,0.964,-0.103,-0.336,-0.763,1.190,66.667,462960.000,1.000
2.795,2.600,2.632,1.946,5.254,7.583,5.632,0.220,0.018,0.980,-0.094,0.397,-0.732,1.038,66.667,462961.000,1.000
1.217,0.060,0.355,-0.393,2.170,3.705,1.797,-2.337,0.017,0.992,-0.094,0.488,-0.824,0.885,66.667,462962.000,1.000
2.422,0.746,0.685,-0.852,1.621,2.346,1.461,-2.658,0.016,1.000,-0.089,0.214,-0.946,0.854,66.667,462963.000,1.000
4.705,3.060,2.311,-0.418,2.625,2.824,3.131,-1.608,0.018,1.000,-0.086,-0.061,-0.671,0.610,66.667,462964.000,1.000
6.132,5.218,3.757,-0.134,3.933,4.202,5.263,0.037,0.020,0.997,-0.086,-0.702,-0.641,0.458,66.667,462965.000,1.000
6.029,6.478,4.408,-0.407,4.795,5.905,6.941,1.752,0.022,0.989,-0.089,-1.251,-0.458,0.458,66.667,462966.000,1.000
5.068,7.063,4.411,-1.143,4.908,7.349,7.615,3.033,0.022,0.980,-0.096,-1.373,-0.244,0.366,66.667,462967.000,1.000
4.392,7.536,4.203,-1.989,4.341,7.889,7.250,3.738,0.022,0.972,-0.099,-1.312,-0.214,0.427,66.667,462968.000,1.000
4.759,8.188,4.194,-2.502,3.452,7.299,6.448,4.226,0.022,0.969,-0.098,-0.916,-0.153,0.458,66.667,462969.000,1.000
6.001,8.612,4.347,-2.604,2.278,5.725,5.621,4.530,0.018,0.966,-0.096,-0.549,-0.061,0.458,66.667,462970.000,1.000
7.496,8.288,4.401,-2.500,0.584,3.643,4.615,4.158,0.018,0.970,-0.094,-0.092,-0.031,0.488,66.667,462971.000,1.000
9.149,7.660,4.633,-2.019,-1.194,2.096,3.529,3.102,0.014,0.974,-0.096,0.214,0.000,0.397,66.667,462972.000,1.000
11.265,7.801,5.647,-0.706,-1.971,2.018,2.887,2.150,0.017,0.977,-0.096,0.488,-0.031,0.397,66.667,462973.000,1.000
13.753,9.343,7.626,1.596,-0.855,3.510,3.165,2.241,0.018,0.979,-0.096,0.641,0.092,0.397,66.667,462974.000,1.000
16.072,12.230,10.288,4.682,2.401,6.171,4.736,3.844,0.016,0.979,-0.096,0.732,0.061,0.336,66.667,462975.000,1.000
17.507,15.695,13.028,8.019,7.098,9.233,7.476,6.500,0.016,0.978,-0.095,0.793,-0.031,0.519,66.667,462976.000,1.000
17.229,18.271,14.846,10.651,11.473,11.349,10.220,8.855,0.014,0.978,-0.098,0.946,-0.031,0.610,66.667,462977.000,1.000
14.820,18.698,14.869,11.642,13.670,11.400,11.474,9.589,0.013,0.980,-0.097,1.007,-0.153,0.732,66.667,462978.000,1.000
11.031,17.162,13.217,10.907,13.246,9.762,10.869,8.539,0.012,0.982,-0.094,1.129,-0.244,0.732,66.667,462979.000,1.000
7.450,15.141,10.928,9.331,11.400,8.145,9.496,6.788,0.012,0.984,-0.093,1.312,-0.397,0.824,66.667,462980.000,1.000
5.177,13.944,8.929,7.960,9.699,7.990,8.706,5.643,0.010,0.986,-0.094,1.373,-0.488,0.946,66.667,462981.000,1.000
3.990,13.627,7.259,7.107,8.729,9.121,8.793,5.504,0.010,0.989,-0.092,1.373,-0.671,0.916,66.667,462982.000,1.000
2.679,13.080,5.101,6.102,7.747,9.722,8.681,5.457,0.010,0.990,-0.090,1.282,-0.793,1.038,66.667,462983.000,1.000
0.346,11.290,1.823,4.178,5.794,8.175,7.284,4.311,0.011,0.991,-0.094,1.129,-0.885,1.160,66.667,462984.000,1.000
-2.393,8.817,-1.758,1.740,3.301,5.205,5.282,2.284,0.010,0.990,-0.092,1.007,-1.007,1.099,66.667,462985.000,1.000
-4.120,7.191,-3.978,-0.020,1.705,2.917,4.316,0.749,0.011,0.989,-0.092,1.007,-1.251,1.190,66.667,462986.000,1.000
-4.571,6.738,-4.396,-0.834,1.372,1.692,4.524,0.261,0.013,0.988,-0.095,1.038,-1.465,1.160,66.667,462987.000,1.000
-4.876,6.277,-4.219,-1.672,1.138,-0.098,4.378,-0.007,0.012,0.986,-0.096,1.099,-1.526,1.343,66.667,462988.000,1.000
-5.991,4.947,-4.690,-3.398,-0.082,-3.498,2.562,-1.004,0.013,0.982,-0.095,1.068,-1.648,1.434,66.667,462989.000,1.000
-7.889,3.138,-6.034,-5.953,-2.241,-7.643,-0.919,-2.822,0.013,0.979,-0.095,1.251,-1.740,1.465,66.667,462990.000,1.000
-10.040,1.814,-7.761,-8.652,-4.490,-10.670,-4.809,-4.719,0.012,0.981,-0.095,1.434,-1.862,1.465,66.667,462991.000,1.000
-11.812,1.817,-9.111,-10.617,-5.759,-10.847,-6.993,-5.528,0.013,0.983,-0.096,1.404,-2.014,1.404,66.667,462992.000,1.000
-12.570,3.626,-9.297,-11.040,-5.116,-7.081,-5.373,-4.286,0.014,0.982,-0.094,1.526,-2.075,1.404,66.667,462993.000,1.000
-11.923,7.131,-7.847,-9.535,-2.185,0.665,0.831,-0.948,0.016,0.984,-0.093,1.495,-2.228,1.373,66.667,462994.000,1.000
-9.927,11.589,-4.839,-6.374,2.488,10.778,10.278,3.597,0.018,0.987,-0.093,1.617,-2.441,1.526,66.667,462995.000,1.000
-6.976,15.812,-0.857,-2.333,7.515,19.885,19.730,8.176,0.021,0.993,-0.091,1.617,-2.411,1.709,66.667,462996.000,1.000
-3.568,18.606,3.244,1.688,11.305,24.265,25.449,11.658,0.017,0.999,-0.087,1.526,-2.258,1.862,66.667,462997.000,1.000
-0.142,19.449,6.757,5.100,13.002,22.326,25.407,13.175,0.016,0.997,-0.090,0.946,-2.441,1.984,66.667,462998.000,1.000
2.721,18.581,9.225,7.678,12.790,15.586,20.683,12.687,0.018,0.994,-0.092,0.580,-2.472,1.892,66.667,462999.000,1.000
4.157,16.335,10.131,9.140,11.134,7.081,14.285,10.818,0.019,0.993,-0.091,0.488,-2.380,1.587,66.667,463000.000,1.000
3.703,12.976,9.077,9.109,8.204,-0.605,8.347,7.845,0.020,0.995,-0.092,0.549,-2.502,1.312,66.667,463001.000,1.000
1.809,9.007,6.248,7.530,4.122,-5.994,2.957,3.543,0.019,0.992,-0.092,0.336,-2.563,1.190,66.667,463002.000,1.000
-0.596,5.170,2.498,4.942,-0.531,-8.578,-2.410,-1.687,0.024,0.991,-0.093,0.092,-2.472,1.007,66.667,463003.000,1.000
-2.542,2.253,-0.889,2.383,-4.646,-8.653,-7.518,-6.387,0.024,0.991,-0.094,0.122,-2.319,0.977,66.667,463004.000,1.000
-3.343,0.785,-2.794,0.789,-7.161,-6.969,-11.374,-9.101,0.024,0.991,-0.095,-0.061,-2.319,0.946,66.667,463005.000,1.000
-2.839,0.952,-2.736,0.592,-7.389,-3.925,-12.356,-8.973,0.024,0.990,-0.096,-0.275,-2.228,0.946,66.667,463006.000,1.000
-1.143,2.954,-0.721,1.883,-4.892,0.876,-8.691,-5.430,0.022,0.991,-0.091,-0.336,-2.136,0.946,66.667,463007.000,1.000
1.439,6.648,2.657,4.230,-0.092,7.443,-0.516,1.128,0.023,0.990,-0.092,-0.549,-1.984,0.885,66.667,463008.000,1.000
3.917,10.531,5.763,6.195,4.853,13.751,8.638,8.291,0.023,0.990,-0.092,-0.671,-1.892,0.732,66.667,463009.000,1.000
4.693,12.058,6.476,5.886,6.913,16.332,13.853,12.699,0.023,0.993,-0.093,-0.641,-1.740,0.824,66.667,463010.000,1.000
2.658,9.581,3.763,2.370,4.473,13.137,12.648,12.366,0.021,0.995,-0.094,-0.854,-1.740,0.702,66.667,463011.000,1.000
-1.776,3.821,-1.395,-3.506,-1.307,5.644,6.860,7.884,0.019,0.988,-0.094,-1.099,-1.801,0.702,66.667,463012.000,1.000
-6.691,-2.474,-6.497,-9.490,-7.250,-2.129,0.993,1.976,0.018,0.980,-0.094,-1.160,-1.678,0.671,66.667,463013.000,1.000
-9.798,-6.299,-9.042,-13.234,-10.325,-6.723,-1.576,-2.366,0.017,0.975,-0.094,-1.129,-1.617,0.580,66.667,463014.000,1.000
-10.176,-6.504,-8.341,-13.944,-9.720,-7.455,-0.910,-4.066,0.020,0.971,-0.097,-1.068,-1.526,0.549,66.667,463015.000,1.000
-8.935,-4.503,-6.009,-12.861,-7.124,-6.009,0.657,-4.344,0.021,0.974,-0.097,-0.702,-1.373,0.580,66.667,463016.000,1.000
-7.696,-2.594,-4.170,-11.765,-4.905,-4.449,1.134,-4.889,0.021,0.979,-0.095,-0.427,-1.190,0.732,66.667,463017.000,1.000
-6.835,-1.809,-3.411,-11.221,-4.197,-3.904,-0.117,-6.097,0.019,0.981,-0.094,-0.275,-1.160,0.824,66.667,463018.000,1.000
-5.685,-1.763,-2.948,-10.652,-4.760,-4.643,-3.028,-7.269,0.018,0.986,-0.093,-0.244,-1.160,1.007,66.667,463019.000,1.000
-3.915,-1.912,-2.199,-9.594,-6.019,-6.637,-7.390,-7.902,0.016,0.987,-0.093,-0.244,-1.190,1.038,66.667,463020.000,1.000
-2.070,-2.190,-1.431,-8.177,-7.512,-9.547,-12.430,-7.975,0.016,0.986,-0.091,-0.275,-1.068,1.068,66.667,463021.000,1.000
-1.028,-2.670,-1.164,-6.668,-8.652,-12.215,-16.154,-7.247,0.013,0.980,-0.094,-0.305,-1.129,1.160,66.667,463022.000,1.000
-1.405,-3.435,-1.755,-5.289,-9.042,-13.168,-16.434,-5.474,0.013,0.979,-0.096,-0.183,-1.160,1.221,66.667,463023.000,1.000
-3.424,-4.937,-3.583,-4.550,-9.280,-12.256,-13.502,-3.544,0.014,0.975,-0.096,0.000,-1.129,1.251,66.667,463024.000,1.000
-6.985,-7.929,-7.004,-5.153,-10.725,-11.170,-10.278,-3.212,0.012,0.974,-0.098,0.244,-1.160,1.312,66.667,463025.000,1.000
-11.316,-12.316,-11.495,-6.968,-13.721,-11.413,-9.175,-4.920,0.014,0.977,-0.096,0.519,-1.312,1.282,66.667,463026.000,1.000
-14.491,-16.112,-14.949,-8.324,-16.381,-12.007,-9.282,-6.606,0.016,0.981,-0.092,0.824,-1.404,1.221,66.667,463027.000,1.000
-14.332,-16.681,-14.937,-7.255,-16.143,-10.451,-7.855,-5.793,0.015,0.981,-0.091,0.824,-1.434,1.282,66.667,463028.000,1.000
-10.460,-13.477,-11.150,-3.676,-12.564,-6.025,-4.053,-2.450,0.014,0.983,-0.092,0.763,-1.465,1.343,66.667,463029.000,1.000
-5.048,-8.868,-6.033,0.233,-7.963,-1.074,-0.020,0.811,0.015,0.984,-0.090,0.854,-1.404,1.526,66.667,463030.000,1.000
-1.454,-6.312,-3.031,1.686,-5.560,0.963,1.099,0.890,0.017,0.983,-0.086,0.732,-1.404,1.465,66.667,463031.000,1.000
-2.301,-8.200,-4.523,-0.995,-7.435,-1.921,-2.523,-3.682,0.018,0.982,-0.090,0.702,-1.282,1.526,66.667,463032.000,1.000
-7.913,-14.566,-10.542,-7.462,-13.399,-9.099,-10.041,-11.769,0.020,0.981,-0.090,0.671,-1.251,1.465,66.667,463033.000,1.000
-15.421,-22.409,-18.183,-15.013,-20.522,-17.087,-17.501,-19.719,0.020,0.982,-0.089,0.610,-1.160,1.617,66.667,463034.000,1.000
-19.710,-26.516,-22.511,-19.457,-24.048,-20.557,-19.385,-22.915,0.020,0.984,-0.088,0.702,-1.099,1.617,66.667,463035.000,1.000
-16.694,-22.728,-19.619,-17.678,-20.431,-15.484,-12.579,-18.830,0.020,0.986,-0.091,0.580,-1.190,1.709,66.667,463036.000,1.000
-6.967,-11.899,-10.174,-10.478,-10.790,-3.153,0.198,-9.563,0.021,0.988,-0.090,0.519,-0.977,1.678,66.667,463037.000,1.000
3.824,-0.381,0.201,-2.689,-1.108,9.082,11.193,-1.098,0.019,0.990,-0.090,0.366,-0.916,1.709,66.667,463038.000,1.000
9.346,4.800,5.211,0.511,2.264,12.972,13.064,1.042,0.021,0.990,-0.091,0.305,-0.885,1.740,66.667,463039.000,1.000
7.755,1.707,2.965,-2.227,-2.228,6.145,4.638,-3.937,0.022,0.990,-0.092,0.275,-0.793,1.862,66.667,463040.000,1.000
2.638,-5.598,-3.170,-7.863,-10.711,-6.626,-8.670,-12.020,0.021,0.990,-0.093,0.305,-0.793,2.014,66.667,463041.000,1.000
-0.714,-11.264,-8.192,-12.116,-17.786,-18.067,-19.874,-18.221,0.020,0.991,-0.091,0.183,-0.732,1.984,66.667,463042.000,1.000
0.184,-12.418,-9.610,-12.925,-20.672,-23.578,-25.230,-20.146,0.017,0.994,-0.093,0.031,-0.702,2.045,66.667,463043.000,1.000
3.708,-10.398,-8.526,-11.257,-20.136,-22.963,-24.833,-18.385,0.017,0.997,-0.092,-0.061,-0.732,2.045,66.667,463044.000,1.000
6.486,-8.388,-7.599,-9.355,-18.539,-18.907,-20.611,-14.866,0.015,0.997,-0.093,-0.122,-0.732,1.984,66.667,463045.000,1.000
6.387,-8.641,-8.622,-8.741,-17.729,-14.812,-15.213,-11.646,0.014,0.999,-0.091,-0.336,-0.763,1.953,66.667,463046.000,1.000
3.365,-11.607,-11.819,-9.675,-18.412,-13.336,-11.620,-10.451,0.014,0.997,-0.091,-0.549,-0.793,2.045,66.667,463047.000,1.000
-1.449,-16.321,-16.349,-11.616,-20.309,-15.042,-11.697,-12.075,0.012,0.995,-0.092,-0.702,-0.793,1.862,66.667,463048.000,1.000
-6.584,-20.994,-20.823,-13.693,-22.403,-18.021,-14.931,-16.007,0.013,0.995,-0.089,-0.885,-0.854,1.831,66.667,463049.000,1.000
-10.754,-23.979,-23.936,-15.146,-23.696,-19.783,-19.311,-20.917,0.015,0.993,-0.090,-0.977,-0.946,1.892,66.667,463050.000,1.000
-13.451,-24.920,-25.308,-15.834,-24.145,-19.670,-23.299,-25.513,0.019,0.992,-0.089,-0.946,-0.946,1.862,66.667,463051.000,1.000
-15.124,-24.875,-25.686,-16.312,-24.703,-19.207,-26.606,-29.115,0.019,0.990,-0.088,-0.885,-0.916,1.892,66.667,463052.000,1.000
-16.538,-25.035,-26.002,-17.124,-26.134,-20.113,-29.180,-31.502,0.017,0.991,-0.088,-0.885,-0.916,2.014,66.667,463053.000,1.000
-17.932,-25.484,-26.349,-18.054,-27.938,-22.204,-30.063,-32.331,0.019,0.991,-0.087,-0.885,-0.916,2.045,66.667,463054.000,1.000
-19.139,-25.663,-26.338,-18.530,-29.097,-23.968,-28.491,-31.509,0.018,0.991,-0.087,-0.854,-0.946,2.197,66.667,463055.000,1.000
-20.235,-25.649,-26.120,-18.595,-29.599,-24.913,-25.883,-29.978,0.017,0.990,-0.089,-0.763,-0.916,2.197,66.667,463056.000,1.000
-21.265,-25.907,-26.117,-18.684,-30.118,-25.727,-24.658,-28.912,0.016,0.990,-0.088,-0.854,-0.916,2.289,66.667,463057.000,1.000
-21.611,-26.164,-26.078,-18.684,-30.535,-26.389,-25.159,-28.300,0.015,0.991,-0.087,-0.854,-0.824,2.228,66.667,463058.000,1.000
-20.523,-25.634,-25.310,-17.975,-29.883,-25.895,-25.609,-27.206,0.016,0.990,-0.085,-0.885,-0.793,2.106,66.667,463059.000,1.000
-18.140,-24.120,-23.609,-16.251,-27.582,-23.805,-24.624,-24.995,0.016,0.990,-0.084,-0.793,-0.793,2.228,66.667,463060.000,1.000
-15.569,-22.339,-21.518,-13.928,-24.107,-20.920,-22.421,-21.899,0.018,0.988,-0.085,-0.702,-0.854,2.258,66.667,463061.000,1.000
-13.991,-21.253,-19.807,-11.834,-20.578,-18.564,-20.072,-18.741,0.018,0.988,-0.081,-0.702,-0.824,2.411,66.667,463062.000,1.000
-13.691,-21.201,-18.770,-10.523,-17.858,-17.713,-18.457,-16.206,0.016,0.986,-0.088,-0.641,-0.854,2.533,66.667,463063.000,1.000
-13.944,-21.657,-18.022,-9.868,-16.034,-18.505,-17.829,-14.408,0.016,0.983,-0.088,-0.549,-0.824,2.502,66.667,463064.000,1.000
-13.829,-21.857,-17.019,-9.443,-14.780,-20.257,-18.127,-13.364,0.015,0.982,-0.085,-0.366,-0.854,2.594,66.667,463065.000,1.000
-13.009,-21.529,-15.673,-9.085,-13.930,-21.971,-19.376,-13.379,0.014,0.982,-0.085,-0.153,-0.916,2.502,66.667,463066.000,1.000
-11.800,-20.933,-14.354,-8.882,-13.416,-22.729,-21.228,-14.480,0.015,0.984,-0.083,-0.122,-0.946,2.533,66.667,463067.000,1.000
-10.720,-20.389,-13.474,-8.861,-12.967,-21.853,-22.588,-15.958,0.014,0.987,-0.087,-0.061,-1.007,2.350,66.667,463068.000,1.000
-10.103,-20.122,-13.241,-8.941,-12.291,-19.311,-22.474,-16.829,0.014,0.985,-0.087,0.031,-1.099,2.411,66.667,463069.000,1.000
-10.070,-20.373,-13.694,-9.135,-11.498,-16.046,-20.896,-16.533,0.018,0.982,-0.084,0.244,-1.007,2.258,66.667,463070.000,1.000
-10.609,-21.245,-14.692,-9.575,-10.984,-13.367,-18.532,-15.104,0.016,0.979,-0.088,0.336,-1.129,2.228,66.667,463071.000,1.000
-11.430,-22.334,-15.795,-10.226,-10.848,-11.762,-15.828,-12.903,0.016,0.978,-0.084,0.427,-1.160,2.014,66.667,463072.000,1.000
-11.871,-22.788,-16.358,-10.706,-10.649,-10.560,-12.744,-10.371,0.016,0.979,-0.086,0.580,-1.282,1.831,66.667,463073.000,1.000
-11.371,-21.985,-15.996,-10.615,-9.898,-8.871,-9.219,-8.012,0.013,0.977,-0.088,0.671,-1.251,1.709,66.667,463074.000,1.000
-10.179,-20.147,-14.979,-10.039,-8.658,-6.546,-5.633,-6.376,0.016,0.970,-0.090,0.824,-1.312,1.404,66.667,463075.000,1.000
-9.216,-18.169,-14.011,-9.509,-7.509,-4.197,-2.847,-5.810,0.019,0.962,-0.092,1.099,-1.282,1.160,66.667,463076.000,1.000
-9.112,-16.804,-13.541,-9.380,-6.922,-2.724,-1.632,-6.119,0.022,0.960,-0.092,1.404,-1.221,0.916,66.667,463077.000,1.000
-9.645,-16.162,-13.362,-9.495,-6.849,-2.920,-2.030,-6.591,0.024,0.964,-0.092,1.801,-1.068,0.793,66.667,463078.000,1.000
-10.087,-15.902,-12.880,-9.475,-6.896,-5.086,-3.425,-6.432,0.026,0.971,-0.094,2.289,-1.007,0.732,66.667,463079.000,1.000
-9.810,-15.617,-11.681,-9.122,-6.750,-8.763,-5.139,-5.226,0.028,0.979,-0.093,2.441,-0.916,0.824,66.667,463080.000,1.000
-8.598,-14.986,-9.853,-8.487,-6.321,-12.761,-6.787,-3.247,0.026,0.983,-0.093,2.472,-0.793,0.946,66.667,463081.000,1.000
-6.625,-13.764,-7.813,-7.717,-5.565,-15.395,-7.973,-1.340,0.027,0.985,-0.094,2.289,-0.671,1.068,66.667,463082.000,1.000
-4.333,-11.919,-6.007,-6.992,-4.498,-15.257,-8.244,-0.511,0.026,0.985,-0.095,2.197,-0.397,1.099,66.667,463083.000,1.000
-2.317,-9.898,-4.834,-6.573,-3.482,-12.394,-7.837,-1.465,0.027,0.982,-0.097,2.045,-0.122,1.190,66.667,463084.000,1.000
-1.165,-8.512,-4.614,-6.706,-3.126,-8.475,-7.801,-4.054,0.026,0.983,-0.100,2.075,0.000,1.343,66.667,463085.000,1.000
-1.078,-8.279,-5.274,-7.289,-3.532,-5.337,-8.647,-7.002,0.023,0.985,-0.101,2.136,0.000,1.282,66.667,463086.000,1.000
-1.561,-8.865,-6.062,-7.682,-3.791,-3.288,-9.069,-8.377,0.022,0.985,-0.100,2.136,0.153,1.343,66.667,463087.000,1.000
-1.730,-9.292,-5.882,-7.072,-2.600,-1.150,-7.017,-6.819,0.020,0.986,-0.100,2.136,0.153,1.312,66.667,463088.000,1.000
-1.004,-8.745,-4.069,-5.089,0.531,2.030,-2.308,-2.593,0.017,0.990,-0.097,2.106,0.122,1.373,66.667,463089.000,1.000
0.594,-7.094,-0.783,-1.968,4.890,5.858,2.964,2.731,0.015,0.991,-0.095,1.984,0.122,1.312,66.667,463090.000,1.000
2.724,-4.727,3.279,1.761,9.261,9.138,6.596,7.477,0.014,0.992,-0.096,1.770,0.031,1.404,66.667,463091.000,1.000
5.057,-2.134,7.419,5.563,12.685,10.945,7.766,10.633,0.012,0.996,-0.095,1.526,0.031,1.373,66.667,463092.000,1.000
7.349,0.340,11.223,9.001,14.794,11.264,6.814,11.965,0.013,0.997,-0.096,1.312,-0.122,1.221,66.667,463093.000,1.000
9.481,2.585,14.526,11.777,15.857,11.067,4.935,11.892,0.013,0.996,-0.095,1.038,-0.244,1.190,66.667,463094.000,1.000
11.560,4.672,17.303,13.806,16.542,11.580,4.097,11.302,0.014,0.994,-0.097,0.732,-0.305,1.282,66.667,463095.000,1.000
13.773,6.671,19.619,15.245,17.446,13.325,6.106,11.318,0.015,0.995,-0.094,0.610,-0.336,1.312,66.667,463096.000,1.000
16.022,8.475,21.525,16.346,18.660,15.814,11.075,12.750,0.016,0.992,-0.093,0.366,-0.427,1.251,66.667,463097.000,1.000
17.836,9.741,22.919,17.211,19.663,17.707,16.674,15.382,0.016,0.990,-0.094,0.275,-0.641,1.190,66.667,463098.000,1.000
18.847,10.207,23.693,17.828,19.821,17.580,19.478,17.882,0.019,0.987,-0.098,0.061,-0.641,1.251,66.667,463099.000,1.000
19.235,10.132,24.044,18.326,19.148,15.249,17.733,18.723,0.020,0.987,-0.097,-0.031,-0.641,1.282,66.667,463100.000,1.000
19.567,10.203,24.482,19.044,18.439,11.934,12.544,17.384,0.022,0.987,-0.097,-0.092,-0.671,1.373,66.667,463101.000,1.000
20.239,10.927,25.433,20.215,18.511,8.824,6.288,14.616,0.023,0.988,-0.101,-0.092,-0.549,1.434,66.667,463102.000,1.000
21.093,12.127,26.781,21.553,19.393,6.014,0.704,11.621,0.024,0.986,-0.101,-0.061,-0.610,1.526,66.667,463103.000,1.000
21.632,13.156,27.982,22.467,20.534,3.183,-2.933,9.577,0.022,0.986,-0.102,0.000,-0.641,1.556,66.667,463104.000,1.000
21.649,13.762,28.768,22.820,21.791,0.892,-2.811,9.777,0.024,0.983,-0.101,-0.061,-0.519,1.678,66.667,463105.000,1.000
21.317,14.334,29.317,22.980,23.503,0.472,2.094,12.742,0.026,0.979,-0.101,-0.092,-0.488,1.709,66.667,463106.000,1.000
20.676,15.169,29.594,23.032,25.499,2.592,9.707,16.985,0.025,0.979,-0.100,0.000,-0.366,1.709,66.667,463107.000,1.000
19.558,16.049,29.112,22.562,26.840,6.597,15.831,19.845,0.023,0.979,-0.099,0.061,-0.305,1.831,66.667,463108.000,1.000
18.021,16.630,27.518,21.280,26.705,11.145,17.531,19.667,0.020,0.978,-0.102,0.122,-0.305,1.770,66.667,463109.000,1.000
16.454,16.791,25.065,19.446,25.119,15.004,14.751,16.830,0.017,0.977,-0.102,0.336,-0.305,1.709,66.667,463110.000,1.000
15.234,16.515,22.424,17.636,22.880,17.455,9.630,13.159,0.012,0.977,-0.100,0.427,-0.427,1.526,66.667,463111.000,1.000
14.435,15.728,20.158,16.307,20.985,18.479,5.205,10.638,0.014,0.975,-0.104,0.488,-0.458,1.465,66.667,463112.000,1.000
13.801,14.332,18.350,15.527,19.933,18.354,3.647,10.161,0.015,0.976,-0.102,0.610,-0.610,1.343,66.667,463113.000,1.000
12.920,12.265,16.674,15.012,19.405,16.879,4.643,11.138,0.017,0.975,-0.101,0.671,-0.702,1.099,66.667,463114.000,1.000
11.617,9.743,14.915,14.508,18.839,13.703,6.127,12.508,0.020,0.977,-0.101,0.916,-0.763,0.916,66.667,463115.000,1.000
10.315,7.566,13.492,14.225,18.424,9.761,6.955,14.138,0.022,0.981,-0.100,1.038,-0.702,0.946,66.667,463116.000,1.000
9.718,6.762,13.086,14.617,19.012,7.245,7.952,16.713,0.021,0.985,-0.098,1.129,-0.763,0.946,66.667,463117.000,1.000
9.915,7.460,13.498,15.504,20.705,7.389,10.101,20.102,0.021,0.986,-0.098,1.038,-0.763,0.916,66.667,463118.000,1.000
9.970,8.351,13.222,15.695,22.047,9.010,12.767,22.569,0.021,0.990,-0.097,0.916,-0.732,0.946,66.667,463119.000,1.000
8.529,7.606,10.518,13.754,21.013,9.545,13.950,21.961,0.021,0.993,-0.098,0.793,-0.793,1.007,66.667,463120.000,1.000
4.814,4.188,4.765,9.089,16.551,6.984,11.832,17.369,0.020,0.993,-0.101,0.641,-0.854,0.854,66.667,463121.000,1.000
-0.634,-1.352,-2.886,2.636,9.546,1.411,6.775,10.128,0.021,0.993,-0.100,0.366,-0.763,1.007,66.667,463122.000,1.000
-5.973,-6.970,-9.863,-3.299,2.654,-4.625,1.685,3.441,0.022,0.992,-0.096,0.244,-0.793,1.038,66.667,463123.000,1.000
-9.291,-10.457,-13.734,-6.494,-1.453,-7.880,-0.744,0.100,0.021,0.990,-0.097,0.092,-0.732,1.221,66.667,463124.000,1.000
-10.035,-11.056,-13.894,-6.478,-2.038,-7.020,-0.503,0.290,0.024,0.990,-0.096,-0.031,-0.641,1.312,66.667,463125.000,1.000
-9.055,-9.669,-11.676,-4.616,-0.422,-3.432,0.495,1.972,0.024,0.990,-0.096,-0.031,-0.641,1.282,66.667,463126.000,1.000
-7.573,-7.771,-9.041,-2.789,1.426,0.036,0.525,2.957,0.021,0.991,-0.095,-0.153,-0.641,1.526,66.667,463127.000,1.000
-6.415,-6.330,-7.278,-2.080,2.292,1.216,-0.625,2.557,0.019,0.991,-0.095,-0.183,-0.641,1.556,66.667,463128.000,1.000
-5.837,-5.408,-6.514,-2.329,2.347,0.224,-1.459,1.855,0.021,0.993,-0.096,-0.275,-0.702,1.465,66.667,463129.000,1.000
-5.773,-4.619,-6.272,-2.745,2.486,-1.107,-0.243,2.307,0.021,0.991,-0.095,-0.427,-0.671,1.587,66.667,463130.000,1.000
-6.273,-3.978,-6.420,-2.936,3.055,-1.407,2.871,3.980,0.021,0.991,-0.095,-0.458,-0.732,1.526,66.667,463131.000,1.000
-7.449,-3.872,-7.161,-3.067,3.720,-0.575,6.096,5.734,0.020,0.989,-0.098,-0.488,-0.763,1.526,66.667,463132.000,1.000
-8.809,-4.044,-8.067,-3.051,4.576,1.515,8.417,6.898,0.020,0.988,-0.097,-0.580,-0.732,1.434,66.667,463133.000,1.000
-9.252,-3.382,-7.959,-2.295,6.436,5.546,10.515,7.944,0.021,0.988,-0.097,-0.458,-0.824,1.404,66.667,463134.000,1.000
-8.194,-1.187,-6.176,-0.626,9.574,11.298,13.163,9.448,0.023,0.987,-0.096,-0.519,-0.793,1.434,66.667,463135.000,1.000
-6.063,2.038,-3.293,1.252,12.996,16.787,15.719,11.008,0.023,0.986,-0.098,-0.488,-0.793,1.404,66.667,463136.000,1.000
-3.566,5.314,-0.320,2.598,15.423,19.803,16.945,11.672,0.024,0.984,-0.098,-0.549,-0.732,1.343,66.667,463137.000,1.000
-1.321,7.929,2.017,3.244,16.366,19.809,16.656,11.149,0.024,0.985,-0.092,-0.488,-0.732,1.373,66.667,463138.000,1.000
-0.064,9.406,3.196,3.266,16.007,17.882,15.691,10.003,0.025,0.985,-0.094,-0.458,-0.732,1.343,66.667,463139.000,1.000
-0.360,9.489,2.922,2.703,14.624,15.268,14.667,8.887,0.025,0.983,-0.096,-0.336,-0.732,1.160,66.667,463140.000,1.000
-2.091,8.298,1.379,1.699,12.417,12.444,13.489,8.132,0.025,0.981,-0.095,-0.214,-0.702,1.251,66.667,463141.000,1.000
-4.639,6.201,-0.924,0.463,9.504,9.324,11.668,7.730,0.023,0.979,-0.094,-0.183,-0.641,1.160,66.667,463142.000,1.000
-7.406,3.500,-3.529,-0.943,5.948,5.739,8.560,7.346,0.022,0.980,-0.096,-0.214,-0.580,1.099,66.667,463143.000,1.000
-9.922,0.497,-6.005,-2.428,2.067,1.780,3.996,6.647,0.022,0.978,-0.099,0.061,-0.549,1.038,66.667,463144.000,1.000
-11.754,-2.171,-7.765,-3.614,-1.316,-1.733,-0.884,5.701,0.022,0.980,-0.098,0.214,-0.580,0.977,66.667,463145.000,1.000
-12.584,-3.535,-8.187,-3.960,-3.180,-3.253,-4.106,4.871,0.021,0.979,-0.096,0.305,-0.519,1.007,66.667,463146.000,1.000
-12.436,-2.964,-7.086,-3.245,-3.111,-1.759,-4.564,4.269,0.021,0.980,-0.095,0.427,-0.519,0.885,66.667,463147.000,1.000
-11.824,-0.910,-5.114,-1.968,-1.861,1.855,-2.976,3.405,0.022,0.980,-0.095,0.549,-0.641,0.732,66.667,463148.000,1.000
-11.426,1.339,-3.401,-1.015,-0.756,5.412,-0.754,1.770,0.020,0.980,-0.094,0.549,-0.641,0.671,66.667,463149.000,1.000
-11.483,2.729,-2.632,-0.857,-0.505,7.451,1.577,-0.282,0.020,0.982,-0.097,0.763,-0.702,0.641,66.667,463150.000,1.000
-11.693,3.033,-2.684,-1.303,-0.975,7.907,3.911,-1.856,0.018,0.984,-0.096,0.885,-0.885,0.702,66.667,463151.000,1.000
-11.457,2.813,-2.861,-1.805,-1.629,7.485,5.542,-2.403,0.018,0.985,-0.092,0.885,-0.946,0.610,66.667,463152.000,1.000
-10.068,3.187,-2.212,-1.732,-1.674,7.175,5.850,-1.858,0.016,0.984,-0.097,0.916,-1.099,0.702,66.667,463153.000,1.000
-7.115,5.194,-0.046,-0.741,-0.337,7.866,5.315,-0.390,0.016,0.982,-0.098,0.793,-1.221,0.641,66.667,463154.000,1.000
-3.177,8.842,3.320,0.731,2.370,9.815,5.162,1.505,0.014,0.979,-0.102,0.854,-1.251,0.580,66.667,463155.000,1.000
0.118,12.702,6.375,1.422,5.153,12.168,5.965,2.759,0.013,0.970,-0.103,0.946,-1.373,0.580,66.667,463156.000,1.000
1.312,14.885,7.451,0.156,6.223,13.291,6.958,2.235,0.012,0.969,-0.097,1.312,-1.587,0.458,66.667,463157.000,1.000
0.311,14.503,6.001,-3.114,4.720,12.160,7.021,-0.314,0.017,0.976,-0.092,1.648,-1.587,0.336,66.667,463158.000,1.000
-1.657,12.333,2.981,-7.136,1.512,9.872,6.375,-3.932,0.017,0.985,-0.092,1.617,-1.709,0.244,66.667,463159.000,1.000
-2.313,10.821,0.768,-9.611,-0.920,9.577,6.880,-6.722,0.018,0.992,-0.092,1.434,-1.678,0.214,66.667,463160.000,1.000
0.656,12.573,1.901,-8.345,-0.166,13.339,9.620,-6.994,0.017,0.995,-0.093,1.190,-1.770,0.366,66.667,463161.000,1.000
7.347,17.754,6.731,-3.264,3.733,19.101,12.980,-4.697,0.017,0.991,-0.092,0.916,-1.831,0.397,66.667,463162.000,1.000
15.084,23.816,12.991,3.318,8.337,22.379,14.253,-1.314,0.018,0.989,-0.094,0.732,-1.892,0.519,66.667,463163.000,1.000
20.376,27.694,17.665,8.460,10.877,20.185,11.809,1.152,0.017,0.990,-0.095,0.732,-1.953,0.610,66.667,463164.000,1.000
20.926,27.559,18.649,10.139,9.782,12.777,5.756,1.071,0.015,0.991,-0.098,0.610,-2.045,0.793,66.667,463165.000,1.000
16.628,23.480,15.587,8.012,5.409,3.427,-1.703,-1.751,0.015,0.992,-0.096,0.519,-2.228,0.885,66.667,463166.000,1.000
9.497,17.349,10.025,3.510,-0.059,-3.175,-6.905,-5.753,0.017,0.990,-0.094,0.336,-2.289,0.885,66.667,463167.000,1.000
2.490,11.782,4.475,-1.073,-3.960,-3.800,-7.175,-8.693,0.016,0.984,-0.097,0.092,-2.258,0.854,66.667,463168.000,1.000
-1.885,8.759,1.105,-3.790,-4.658,1.340,-2.743,-8.896,0.016,0.979,-0.101,-0.122,-2.197,0.977,66.667,463169.000,1.000
-2.454,8.946,0.855,-3.800,-2.141,9.195,3.751,-5.983,0.018,0.978,-0.099,0.092,-2.197,0.885,66.667,463170.000,1.000
0.005,11.439,2.965,-1.767,2.094,15.994,9.131,-1.216,0.017,0.986,-0.096,0.336,-2.075,0.793,66.667,463171.000,1.000
3.128,14.260,5.466,0.565,5.945,19.336,11.556,3.246,0.019,0.993,-0.096,0.427,-2.075,0.702,66.667,463172.000,1.000
5.064,16.053,7.060,2.045,8.404,19.395,11.598,6.237,0.019,0.997,-0.088,0.153,-2.197,0.763,66.667,463173.000,1.000
6.076,17.173,8.286,3.216,10.342,18.464,11.870,8.633,0.021,0.998,-0.085,-0.153,-2.136,0.641,66.667,463174.000,1.000
7.431,18.587,10.227,5.209,13.118,18.983,15.231,12.147,0.021,0.998,-0.088,-0.580,-2.045,0.610,66.667,463175.000,1.000
9.410,20.289,12.743,8.031,16.766,21.766,22.526,17.157,0.020,0.990,-0.090,-1.007,-2.014,0.793,66.667,463176.000,1.000
10.938,21.254,14.403,10.303,19.699,25.792,31.446,21.673,0.022,0.986,-0.095,-1.190,-2.045,0.854,66.667,463177.000,1.000
10.596,20.352,13.591,10.260,19.738,29.105,37.620,22.491,0.022,0.979,-0.096,-1.221,-1.923,0.946,66.667,463178.000,1.000
7.936,17.228,9.771,7.127,15.604,29.691,37.234,17.804,0.021,0.976,-0.096,-1.068,-1.892,0.916,66.667,463179.000,1.000
4.240,12.829,4.254,2.042,8.020,26.267,29.475,9.025,0.021,0.973,-0.095,-0.885,-1.740,0.854,66.667,463180.000,1.000
1.954,9.049,-0.342,-2.402,-0.437,19.203,17.270,0.182,0.021,0.971,-0.094,-0.702,-1.648,0.854,66.667,463181.000,1.000
3.040,7.469,-1.783,-3.851,-6.889,10.614,5.471,-4.741,0.022,0.975,-0.093,-0.427,-1.648,0.946,66.667,463182.000,1.000
7.536,8.238,0.316,-1.779,-9.939,3.019,-2.344,-4.504,0.021,0.977,-0.093,-0.366,-1.495,0.916,66.667,463183.000,1.000
13.349,9.912,4.263,2.159,-10.299,-2.168,-5.716,-1.277,0.022,0.979,-0.090,-0.336,-1.434,0.854,66.667,463184.000,1.000
17.554,10.436,7.459,5.301,-9.859,-4.896,-6.516,1.215,0.022,0.978,-0.089,-0.305,-1.312,0.977,66.667,463185.000,1.000
18.699,8.947,8.500,6.142,-9.763,-5.467,-6.626,0.712,0.021,0.977,-0.094,-0.092,-1.160,0.916,66.667,463186.000,1.000
18.032,6.781,8.389,5.604,-9.300,-3.702,-6.143,-1.861,0.022,0.976,-0.094,0.092,-1.190,1.007,66.667,463187.000,1.000
18.028,6.061,9.200,5.785,-7.100,0.164,-4.095,-3.723,0.024,0.977,-0.096,0.214,-1.129,0.946,66.667,463188.000,1.000
19.878,7.318,11.693,7.588,-3.144,4.220,-0.612,-3.084,0.025,0.976,-0.097,0.397,-1.007,1.007,66.667,463189.000,1.000
22.794,9.179,14.765,10.096,1.068,5.970,2.767,-0.373,0.021,0.980,-0.095,0.549,-0.916,1.007,66.667,463190.000,1.000
25.148,10.071,16.873,11.917,4.091,4.777,4.847,2.841,0.021,0.985,-0.096,0.702,-0.763,1.038,66.667,463191.000,1.000
25.662,9.536,17.293,12.421,5.646,2.346,5.977,5.470,0.021,0.988,-0.096,0.610,-0.671,1.099,66.667,463192.000,1.000
23.938,8.163,16.288,11.866,6.408,0.886,7.470,7.522,0.021,0.991,-0.092,0.580,-0.671,1.038,66.667,463193.000,1.000
20.479,6.762,14.618,10.891,7.099,1.305,10.065,9.426,0.021,0.992,-0.089,0.549,-0.610,1.038,66.667,463194.000,1.000
16.290,5.656,12.967,9.976,7.699,2.901,12.926,10.887,0.020,0.991,-0.092,0.458,-0.641,1.251,66.667,463195.000,1.000
12.574,4.809,11.786,9.353,7.621,4.357,14.242,10.852,0.017,0.988,-0.093,0.305,-0.671,1.251,66.667,463196.000,1.000
10.654,4.455,11.498,9.294,6.632,4.960,13.035,8.950,0.017,0.989,-0.096,0.275,-0.610,1.160,66.667,463197.000,1.000
11.518,5.100,12.374,10.052,5.152,4.811,9.986,6.163,0.018,0.988,-0.097,0.244,-0.580,1.160,66.667,463198.000,1.000
15.074,6.839,14.074,11.417,3.576,4.099,6.465,3.643,0.017,0.988,-0.096,0.244,-0.519,1.099,66.667,463199.000,1.000
19.984,8.973,15.599,12.605,1.780,2.787,3.621,1.723,0.019,0.990,-0.097,0.214,-0.488,1.068,66.667,463200.000,1.000
24.303,10.277,15.772,12.674,-0.719,0.962,2.079,0.117,0.019,0.991,-0.095,0.244,-0.519,1.038,66.667,463201.000,1.000
26.383,9.527,13.765,11.026,-4.432,-1.266,1.477,-1.649,0.019,0.990,-0.093,0.000,-0.549,1.099,66.667,463202.000,1.000
25.646,6.232,9.648,7.918,-9.354,-4.039,0.816,-3.613,0.020,0.992,-0.093,0.061,-0.488,1.160,66.667,463203.000,1.000
22.740,1.085,4.552,4.481,-14.598,-7.474,-0.412,-5.039,0.019,0.988,-0.095,-0.031,-0.519,1.129,66.667,463204.000,1.000
18.643,-4.677,-0.214,1.683,-19.137,-11.633,-2.396,-5.514,0.019,0.989,-0.097,-0.122,-0.549,1.160,66.667,463205.000,1.000
13.891,-10.165,-4.009,-0.453,-22.620,-16.705,-5.865,-5.931,0.019,0.986,-0.097,-0.092,-0.580,1.312,66.667,463206.000,1.000
8.881,-14.831,-6.626,-2.245,-25.036,-22.612,-11.409,-7.478,0.017,0.984,-0.101,-0.061,-0.671,1.465,66.667,463207.000,1.000
4.274,-18.211,-7.860,-3.556,-26.214,-28.585,-18.317,-10.355,0.015,0.983,-0.100,-0.092,-0.732,1.495,66.667,463208.000,1.000
0.900,-19.862,-7.458,-3.807,-25.786,-33.055,-24.460,-13.658,0.016,0.984,-0.100,0.122,-0.885,1.495,66.667,463209.000,1.000
-0.603,-19.336,-5.216,-2.392,-23.252,-33.887,-27.006,-15.829,0.015,0.986,-0.098,0.183,-0.946,1.556,66.667,463210.000,1.000
-0.266,-16.508,-1.296,0.827,-18.365,-29.663,-23.956,-15.317,0.013,0.988,-0.095,0.305,-1.099,1.404,66.667,463211.000,1.000
1.168,-11.905,3.569,5.327,-11.571,-21.034,-15.456,-11.237,0.013,0.987,-0.096,0.183,-1.099,1.404,66.667,463212.000,1.000
2.690,-6.648,8.228,10.076,-4.105,-10.528,-3.874,-4.046,0.017,0.987,-0.096,0.031,-1.160,1.465,66.667,463213.000,1.000
3.235,-2.326,11.232,13.599,2.052,-1.428,6.805,3.834,0.018,0.984,-0.097,-0.092,-1.251,1.343,66.667,463214.000,1.000
1.939,-0.469,11.307,14.451,4.829,3.491,12.544,9.006,0.020,0.980,-0.102,-0.214,-1.190,1.312,66.667,463215.000,1.000
-1.230,-1.585,8.263,12.187,3.413,3.123,11.409,9.393,0.021,0.977,-0.099,-0.061,-1.221,1.312,66.667,463216.000,1.000
-5.275,-4.860,3.212,7.629,-1.232,-1.618,4.393,5.182,0.019,0.978,-0.102,0.061,-1.221,1.221,66.667,463217.000,1.000
-8.750,-8.727,-2.102,2.280,-7.045,-8.421,-5.383,-1.810,0.018,0.977,-0.103,0.244,-1.099,1.221,66.667,463218.000,1.000
-10.656,-11.727,-6.198,-2.380,-11.869,-14.757,-14.167,-9.025,0.020,0.980,-0.101,0.458,-1.007,1.068,66.667,463219.000,1.000
-10.990,-13.116,-8.471,-5.398,-14.258,-18.866,-19.204,-14.123,0.022,0.983,-0.100,0.488,-1.068,0.854,66.667,463220.000,1.000
-10.472,-12.922,-9.175,-6.582,-13.804,-19.988,-19.585,-15.825,0.021,0.984,-0.098,0.458,-0.946,0.702,66.667,463221.000,1.000
-10.062,-11.853,-9.170,-6.615,-11.217,-18.424,-16.187,-14.431,0.022,0.985,-0.101,0.366,-0.824,0.793,66.667,463222.000,1.000
-10.802,-11.149,-9.703,-6.888,-8.179,-15.628,-11.265,-11.764,0.021,0.983,-0.099,0.366,-0.671,0.885,66.667,463223.000,1.000
-13.352,-11.754,-11.671,-8.542,-6.367,-13.413,-7.364,-9.873,0.022,0.981,-0.102,0.397,-0.671,0.885,66.667,463224.000,1.000
-17.198,-13.264,-14.651,-11.277,-6.020,-12.420,-5.508,-9.201,0.022,0.979,-0.101,0.397,-0.671,1.038,66.667,463225.000,1.000
-20.721,-14.064,-17.040,-13.417,-5.636,-11.360,-4.278,-8.254,0.021,0.977,-0.102,0.519,-0.580,0.977,66.667,463226.000,1.000
-22.683,-12.996,-17.682,-13.593,-3.596,-8.206,-1.128,-5.379,0.020,0.979,-0.099,0.641,-0.580,1.099,66.667,463227.000,1.000
-23.405,-10.695,-17.128,-12.134,-0.004,-2.379,4.924,-0.704,0.020,0.980,-0.095,0.702,-0.610,1.099,66.667,463228.000,1.000
-24.039,-8.903,-16.834,-10.418,3.519,4.426,12.019,4.124,0.017,0.980,-0.093,0.549,-0.519,1.129,66.667,463229.000,1.000
-25.052,-8.739,-17.471,-9.285,5.567,9.416,17.128,7.819,0.017,0.981,-0.093,0.488,-0.397,1.251,66.667,463230.000,1.000
-25.858,-9.996,-18.434,-8.495,5.960,10.457,18.643,10.433,0.016,0.981,-0.096,0.488,-0.488,1.251,66.667,463231.000,1.000
-25.681,-11.733,-18.670,-7.435,5.311,7.250,17.125,12.708,0.016,0.978,-0.099,0.336,-0.519,1.373,66.667,463232.000,1.000
-24.453,-13.080,-17.685,-5.988,4.104,1.523,13.852,14.726,0.017,0.979,-0.100,0.183,-0.671,1.465,66.667,463233.000,1.000
-22.803,-13.596,-15.853,-4.745,2.284,-4.000,9.155,15.065,0.017,0.980,-0.098,0.183,-0.763,1.556,66.667,463234.000,1.000
-21.328,-13.136,-13.883,-4.357,-0.299,-7.329,2.617,11.928,0.018,0.979,-0.099,0.214,-0.702,1.678,66.667,463235.000,1.000
-20.139,-11.711,-12.215,-4.885,-3.305,-8.129,-5.422,5.251,0.020,0.978,-0.101,0.275,-0.763,1.617,66.667,463236.000,1.000
-19.115,-9.551,-10.968,-5.894,-5.986,-7.194,-13.246,-2.964,0.021,0.978,-0.101,0.275,-0.732,1.740,66.667,463237.000,1.000
-18.146,-7.031,-10.009,-6.822,-7.574,-5.393,-18.566,-9.973,0.022,0.977,-0.103,0.336,-0.732,1.770,66.667,463238.000,1.000
-17.025,-4.368,-8.867,-7.057,-7.428,-3.027,-19.534,-13.374,0.022,0.979,-0.103,0.427,-0.671,1.740,66.667,463239.000,1.000
-15.436,-1.551,-6.923,-6.081,-5.246,0.125,-15.492,-11.871,0.021,0.983,-0.100,0.519,-0.641,1.678,66.667,463240.000,1.000
-13.284,1.326,-3.957,-3.886,-1.499,4.008,-7.819,-6.242,0.018,0.987,-0.097,0.580,-0.702,1.770,66.667,463241.000,1.000
-10.998,3.731,-0.539,-1.272,2.352,7.365,-0.123,0.387,0.016,0.991,-0.096,0.580,-0.916,1.587,66.667,463242.000,1.000
-9.251,4.928,2.309,0.590,4.619,8.210,3.703,4.252,0.017,0.994,-0.099,0.427,-0.854,1.465,66.667,463243.000,1.000
-8.220,4.763,4.059,1.194,4.832,5.914,2.645,3.806,0.018,0.999,-0.096,0.244,-1.007,1.343,66.667,463244.000,1.000
-7.473,3.941,5.005,0.993,4.044,2.163,-0.705,0.586,0.016,1.000,-0.094,0.000,-1.068,1.373,66.667,463245.000,1.000
-6.645,3.253,5.552,0.562,3.408,-0.939,-3.242,-2.820,0.018,0.999,-0.097,-0.183,-1.129,1.221,66.667,463246.000,1.000
-5.714,2.976,5.779,0.085,3.156,-2.892,-4.228,-4.930,0.020,0.998,-0.095,-0.336,-1.129,1.129,66.667,463247.000,1.000
-4.666,3.079,5.785,-0.318,3.103,-4.271,-4.538,-5.532,0.019,1.000,-0.096,-0.580,-1.190,1.099,66.667,463248.000,1.000
-3.342,3.478,5.873,-0.359,3.326,-5.243,-4.467,-4.770,0.020,0.998,-0.095,-0.793,-1.160,1.038,66.667,463249.000,1.000
-1.542,4.053,6.363,0.293,4.077,-5.332,-3.330,-2.661,0.019,0.997,-0.092,-0.916,-1.160,1.068,66.667,463250.000,1.000
0.985,4.791,7.561,1.945,5.528,-4.036,-0.508,0.718,0.018,0.999,-0.094,-1.190,-1.251,1.190,66.667,463251.000,1.000
4.436,5.876,9.672,4.696,7.575,-1.379,3.488,4.663,0.018,0.997,-0.094,-1.373,-1.312,1.068,66.667,463252.000,1.000
8.660,7.423,12.416,8.071,9.589,1.732,6.692,7.603,0.018,0.995,-0.093,-1.556,-1.343,1.099,66.667,463253.000,1.000
13.141,9.306,15.041,11.181,10.715,3.883,6.903,8.106,0.019,0.993,-0.093,-1.709,-1.373,1.038,66.667,463254.000,1.000
17.329,11.371,16.913,13.398,10.643,4.416,3.754,6.254,0.021,0.990,-0.094,-1.770,-1.404,1.099,66.667,463255.000,1.000
20.821,13.500,17.869,14.672,9.871,4.146,-0.827,3.619,0.019,0.988,-0.094,-1.862,-1.404,1.068,66.667,463256.000,1.000
23.234,15.427,18.053,15.310,9.288,4.522,-3.941,2.274,0.016,0.985,-0.093,-1.801,-1.526,1.129,66.667,463257.000,1.000
24.153,16.733,17.679,15.657,9.613,6.282,-3.343,3.769,0.016,0.984,-0.091,-1.770,-1.556,1.129,66.667,463258.000,1.000
23.288,16.971,16.809,15.752,10.895,8.846,1.161,7.986,0.016,0.983,-0.094,-1.770,-1.617,1.038,66.667,463259.000,1.000
20.717,15.889,15.312,15.198,12.339,10.684,7.310,12.722,0.015,0.981,-0.092,-1.770,-1.740,0.977,66.667,463260.000,1.000
17.129,13.750,13.202,13.636,12.899,10.483,11.806,15.086,0.014,0.976,-0.092,-1.678,-1.770,1.007,66.667,463261.000,1.000
13.761,11.403,10.943,11.312,12.154,8.263,12.515,13.530,0.013,0.972,-0.095,-1.495,-1.740,0.946,66.667,463262.000,1.000
11.822,9.816,9.267,9.051,10.586,5.336,9.651,8.819,0.015,0.972,-0.095,-1.312,-1.801,0.854,66.667,463263.000,1.000
11.779,9.418,8.617,7.688,9.091,3.346,5.375,3.457,0.014,0.973,-0.095,-1.099,-1.892,0.824,66.667,463264.000,1.000
13.066,9.806,8.767,7.464,8.269,3.327,2.292,-0.034,0.017,0.972,-0.094,-0.916,-2.014,0.702,66.667,463265.000,1.000
14.530,10.085,8.967,7.916,8.082,5.061,1.826,-0.659,0.020,0.974,-0.094,-0.793,-2.075,0.793,66.667,463266.000,1.000
15.237,9.603,8.580,8.414,8.119,7.223,3.749,1.026,0.019,0.976,-0.095,-0.519,-2.045,0.885,66.667,463267.000,1.000
14.960,8.522,7.584,8.803,8.131,8.621,6.963,3.988,0.019,0.979,-0.090,-0.336,-2.014,0.916,66.667,463268.000,1.000
13.905,7.504,6.300,9.258,8.014,8.891,9.962,7.272,0.019,0.981,-0.094,-0.275,-1.953,0.854,66.667,463269.000,1.000
12.075,6.781,4.638,9.540,7.271,7.833,10.835,9.686,0.020,0.980,-0.094,-0.244,-1.953,0.916,66.667,463270.000,1.000
9.125,5.794,2.008,8.858,5.158,5.270,8.385,10.036,0.020,0.980,-0.093,-0.275,-1.892,0.977,66.667,463271.000,1.000
4.861,3.821,-1.945,6.639,1.660,1.901,3.807,8.306,0.021,0.980,-0.097,-0.153,-1.801,1.007,66.667,463272.000,1.000
-0.257,0.777,-6.741,3.173,-2.117,-0.612,0.247,6.083,0.020,0.983,-0.094,0.000,-1.770,0.977,66.667,463273.000,1.000
-5.151,-2.645,-11.258,-0.602,-4.824,-0.943,-0.139,4.975,0.021,0.986,-0.096,0.031,-1.740,1.038,66.667,463274.000,1.000
-8.799,-5.626,-14.527,-3.887,-6.124,0.654,1.735,4.865,0.021,0.987,-0.094,0.031,-1.648,1.160,66.667,463275.000,1.000
-10.984,-7.946,-16.440,-6.525,-6.893,2.608,3.126,4.336,0.021,0.986,-0.091,0.000,-1.526,1.099,66.667,463276.000,1.000
-12.283,-9.897,-17.614,-8.785,-8.199,3.546,2.328,2.472,0.022,0.987,-0.090,-0.092,-1.556,1.038,66.667,463277.000,1.000
-13.292,-11.628,-18.538,-10.789,-10.240,3.407,0.040,-0.201,0.022,0.987,-0.093,-0.122,-1.465,1.099,66.667,463278.000,1.000
-14.053,-12.842,-19.010,-12.226,-12.218,3.235,-1.636,-2.172,0.020,0.985,-0.093,-0.183,-1.404,1.129,66.667,463279.000,1.000
-14.245,-13.127,-18.454,-12.636,-13.046,4.082,-1.117,-2.064,0.021,0.983,-0.089,-0.214,-1.404,1.160,66.667,463280.000,1.000
-13.753,-12.448,-16.642,-11.918,-12.190,5.961,1.489,0.381,0.022,0.983,-0.089,-0.183,-1.373,1.129,66.667,463281.000,1.000
-12.910,-11.370,-14.032,-10.538,-10.077,7.578,4.545,4.095,0.023,0.986,-0.090,-0.244,-1.129,1.160,66.667,463282.000,1.000
-12.215,-10.791,-11.460,-9.201,-7.762,7.165,6.004,7.498,0.023,0.986,-0.094,-0.244,-1.068,1.221,66.667,463283.000,1.000
-11.955,-11.375,-9.592,-8.387,-6.149,3.841,4.831,9.505,0.023,0.987,-0.092,-0.244,-0.946,1.251,66.667,463284.000,1.000
-12.139,-13.098,-8.642,-8.221,-5.487,-1.512,1.826,9.815,0.022,0.987,-0.090,-0.336,-0.946,1.221,66.667,463285.000,1.000
-12.597,-15.184,-8.445,-8.614,-5.458,-6.589,-1.128,8.559,0.023,0.988,-0.094,-0.305,-0.732,1.251,66.667,463286.000,1.000
-13.093,-16.515,-8.655,-9.424,-5.585,-9.009,-2.718,5.965,0.023,0.988,-0.091,-0.275,-0.641,1.282,66.667,463287.000,1.000
-13.318,-16.234,-8.848,-10.459,-5.513,-7.713,-3.014,2.346,0.023,0.989,-0.090,-0.305,-0.580,1.038,66.667,463288.000,1.000
-12.909,-14.164,-8.565,-11.383,-4.986,-3.542,-2.749,-1.565,0.019,0.990,-0.091,-0.336,-0.488,1.007,66.667,463289.000,1.000
-11.681,-10.850,-7.486,-11.791,-3.855,1.417,-2.247,-4.554,0.017,0.991,-0.092,-0.336,-0.458,1.068,66.667,463290.000,1.000
-9.708,-7.130,-5.504,-11.361,-2.150,5.276,-1.321,-5.578,0.017,0.988,-0.090,-0.397,-0.336,1.099,66.667,463291.000,1.000
-7.125,-3.623,-2.733,-9.940,-0.097,7.224,0.155,-4.524,0.019,0.985,-0.090,-0.366,-0.366,1.068,66.667,463292.000,1.000
-4.101,-0.633,0.364,-7.760,1.864,7.456,1.869,-2.361,0.020,0.981,-0.091,-0.397,-0.305,1.038,66.667,463293.000,1.000
-0.896,1.767,3.094,-5.450,3.252,6.800,3.223,-0.429,0.021,0.979,-0.095,-0.397,-0.275,1.068,66.667,463294.000,1.000
2.205,3.640,4.950,-3.643,3.818,6.051,3.665,0.497,0.023,0.981,-0.095,-0.244,-0.183,0.977,66.667,463295.000,1.000
4.933,5.036,5.828,-2.622,3.640,5.298,2.761,0.421,0.024,0.984,-0.093,-0.183,-0.183,0.977,66.667,463296.000,1.000
7.114,6.046,6.009,-2.173,3.155,4.283,0.603,-0.135,0.024,0.988,-0.093,-0.122,-0.061,1.038,66.667,463297.000,1.000
8.752,6.924,5.953,-1.761,3.036,3.333,-1.630,-0.531,0.022,0.990,-0.092,-0.244,0.092,1.068,66.667,463298.000,1.000
10.010,7.894,5.974,-0.980,3.789,3.421,-1.954,-0.464,0.021,0.990,-0.094,-0.275,0.153,1.129,66.667,463299.000,1.000
11.161,8.991,6.147,0.227,5.494,5.308,1.140,0.054,0.025,0.989,-0.094,-0.305,0.031,1.099,66.667,463300.000,1.000
12.473,9.977,6.396,1.631,7.638,8.427,6.699,0.726,0.025,0.988,-0.091,-0.336,0.214,1.282,66.667,463301.000,1.000
13.990,10.333,6.508,2.755,9.098,10.526,10.928,0.823,0.024,0.986,-0.089,-0.305,0.244,1.312,66.667,463302.000,1.000
15.403,9.600,6.221,3.071,8.807,9.089,10.167,-0.326,0.020,0.983,-0.091,-0.336,0.336,1.343,66.667,463303.000,1.000
16.202,7.856,5.453,2.363,6.621,3.442,3.933,-2.701,0.019,0.984,-0.088,-0.366,0.366,1.251,66.667,463304.000,1.000
16.103,5.842,4.449,0.984,3.474,-4.624,-5.129,-5.540,0.016,0.986,-0.089,-0.275,0.366,1.129,66.667,463305.000,1.000
15.458,4.675,3.799,-0.180,0.863,-11.980,-13.147,-7.586,0.013,0.987,-0.088,-0.366,0.336,1.099,66.667,463306.000,1.000
15.069,5.230,4.138,-0.225,0.006,-15.872,-17.020,-7.929,0.010,0.985,-0.090,-0.366,0.153,0.977,66.667,463307.000,1.000
15.478,7.480,5.624,1.059,0.979,-15.430,-16.201,-7.121,0.010,0.984,-0.091,-0.366,0.061,0.916,66.667,463308.000,1.000
16.525,10.375,7.709,2.991,2.619,-12.120,-12.945,-6.872,0.009,0.983,-0.089,-0.366,-0.092,0.793,66.667,463309.000,1.000
17.572,12.530,9.536,4.556,3.503,-8.547,-10.214,-8.340,0.012,0.980,-0.092,-0.275,-0.336,0.671,66.667,463310.000,1.000
18.062,13.158,10.581,5.160,3.058,-6.572,-9.391,-11.121,0.013,0.981,-0.093,-0.214,-0.488,0.671,66.667,463311.000,1.000
17.765,12.433,10.881,4.867,1.797,-6.271,-9.847,-13.765,0.013,0.983,-0.092,0.061,-0.549,0.641,66.667,463312.000,1.000
16.600,11.076,10.684,4.079,0.660,-6.405,-10.098,-14.845,0.013,0.986,-0.093,0.031,-0.549,0.641,66.667,463313.000,1.000
14.459,9.659,10.048,3.142,0.185,-5.989,-9.282,-13.721,0.014,0.989,-0.093,0.061,-0.732,0.641,66.667,463314.000,1.000
11.427,8.404,8.905,2.281,0.272,-5.195,-7.650,-10.764,0.016,0.988,-0.093,-0.061,-0.854,0.702,66.667,463315.000,1.000
7.967,7.385,7.337,1.637,0.529,-4.612,-5.974,-7.140,0.016,0.988,-0.094,-0.061,-0.763,0.610,66.667,463316.000,1.000
4.472,6.417,5.369,0.982,0.376,-4.546,-5.151,-4.537,0.016,0.989,-0.091,-0.244,-0.885,0.702,66.667,463317.000,1.000
0.748,4.797,2.569,-0.423,-1.063,-5.433,-6.217,-4.517,0.016,0.987,-0.092,-0.183,-1.038,0.763,66.667,463318.000,1.000
-3.670,1.773,-1.612,-3.208,-4.408,-7.842,-9.697,-7.376,0.016,0.988,-0.093,-0.092,-1.221,0.916,66.667,463319.000,1.000
-8.780,-2.619,-7.069,-7.180,-9.227,-11.569,-14.736,-11.785,0.016,0.986,-0.090,-0.092,-1.099,1.068,66.667,463320.000,1.000
-13.907,-7.449,-12.854,-11.397,-14.132,-15.440,-19.555,-15.840,0.019,0.986,-0.091,-0.061,-1.190,1.099,66.667,463321.000,1.000
-18.060,-11.501,-17.658,-14.789,-17.649,-18.119,-22.497,-18.154,0.019,0.988,-0.090,-0.122,-1.221,1.190,66.667,463322.000,1.000
-20.381,-13.812,-20.391,-16.601,-18.879,-18.628,-22.405,-18.108,0.017,0.988,-0.093,-0.092,-1.129,1.312,66.667,463323.000,1.000
-20.525,-14.037,-20.661,-16.584,-17.755,-16.650,-19.079,-15.880,0.018,0.990,-0.092,-0.122,-1.251,1.312,66.667,463324.000,1.000
-19.052,-12.732,-19.119,-15.155,-15.118,-13.029,-13.805,-12.489,0.015,0.989,-0.092,-0.122,-1.251,1.251,66.667,463325.000,1.000
-17.419,-11.189,-17.270,-13.337,-12.383,-9.493,-8.731,-9.286,0.019,0.989,-0.090,-0.214,-1.282,1.312,66.667,463326.000,1.000
-17.140,-10.526,-16.531,-12.190,-10.726,-7.357,-5.458,-7.120,0.020,0.989,-0.090,-0.092,-1.282,1.312,66.667,463327.000,1.000
-18.612,-10.799,-17.159,-12.083,-10.423,-6.705,-4.514,-6.087,0.021,0.987,-0.091,-0.122,-1.190,1.434,66.667,463328.000,1.000
-20.816,-11.143,-18.116,-12.523,-10.924,-6.929,-5.722,-5.949,0.021,0.986,-0.092,-0.122,-1.251,1.434,66.667,463329.000,1.000
-22.354,-10.796,-18.179,-12.807,-11.548,-7.614,-8.407,-6.458,0.023,0.983,-0.091,-0.244,-1.129,1.434,66.667,463330.000,1.000
-22.627,-9.813,-17.028,-12.646,-11.969,-8.681,-11.361,-7.223,0.023,0.984,-0.091,-0.244,-1.007,1.343,66.667,463331.000,1.000
-21.857,-8.711,-15.134,-12.038,-12.045,-9.993,-13.123,-7.636,0.025,0.986,-0.092,-0.122,-1.007,1.343,66.667,463332.000,1.000
-20.506,-7.871,-13.101,-11.043,-11.703,-11.290,-12.933,-7.399,0.025,0.984,-0.092,-0.092,-0.824,1.373,66.667,463333.000,1.000
-19.050,-7.513,-11.447,-9.928,-11.135,-12.458,-11.351,-6.852,0.023,0.982,-0.091,-0.061,-0.763,1.282,66.667,463334.000,1.000
-17.878,-7.715,-10.480,-9.104,-10.638,-13.417,-9.525,-6.479,0.026,0.983,-0.089,-0.122,-0.763,1.312,66.667,463335.000,1.000
-16.998,-8.218,-10.050,-8.775,-10.275,-14.011,-8.381,-6.665,0.022,0.984,-0.091,-0.061,-0.610,1.282,66.667,463336.000,1.000
-16.043,-8.555,-9.633,-8.844,-9.962,-14.444,-8.694,-7.901,0.025,0.983,-0.094,0.000,-0.458,1.160,66.667,463337.000,1.000
-14.586,-8.316,-8.655,-8.978,-9.526,-15.203,-10.856,-10.281,0.027,0.984,-0.098,0.153,-0.427,1.007,66.667,463338.000,1.000
-12.382,-7.232,-6.705,-8.664,-8.495,-16.087,-14.094,-12.852,0.026,0.984,-0.094,0.244,-0.336,0.977,66.667,463339.000,1.000
-9.595,-5.335,-3.854,-7.545,-6.440,-16.075,-16.675,-14.180,0.025,0.984,-0.094,0.183,-0.336,1.007,66.667,463340.000,1.000
-6.850,-3.129,-0.857,-5.792,-3.609,-14.418,-17.291,-13.507,0.023,0.986,-0.095,0.122,-0.214,0.824,66.667,463341.000,1.000
-4.818,-1.306,1.256,-3.946,-0.732,-11.143,-15.686,-10.916,0.022,0.985,-0.093,0.122,-0.122,0.763,66.667,463342.000,1.000
-3.746,-0.218,1.850,-2.448,1.744,-6.502,-12.136,-6.813,0.019,0.984,-0.093,0.153,-0.092,0.732,66.667,463343.000,1.000
-3.437,0.342,0.995,-1.439,3.939,-0.653,-7.030,-1.815,0.019,0.985,-0.093,0.214,0.061,0.519,66.667,463344.000,1.000
-3.523,0.840,-0.698,-0.885,6.105,5.886,-0.897,3.117,0.019,0.984,-0.093,0.153,0.031,0.458,66.667,463345.000,1.000
-3.652,1.474,-2.445,-0.707,8.131,11.678,5.238,6.881,0.019,0.983,-0.091,0.183,-0.031,0.488,66.667,463346.000,1.000
-3.571,1.971,-3.647,-0.815,9.484,14.691,9.480,8.682,0.018,0.985,-0.090,0.153,-0.153,0.336,66.667,463347.000,1.000
-3.155,1.977,-4.024,-1.029,9.718,13.749,9.896,8.453,0.017,0.984,-0.094,0.275,-0.183,0.336,66.667,463348.000,1.000
-2.296,1.649,-3.468,-0.961,9.138,9.988,6.552,7.034,0.017,0.988,-0.092,0.275,-0.183,0.397,66.667,463349.000,1.000
-0.872,1.668,-1.988,-0.167,8.715,6.474,2.099,5.760,0.014,0.989,-0.091,0.275,-0.244,0.397,66.667,463350.000,1.000
1.027,2.548,0.059,1.376,9.136,5.820,-0.349,5.660,0.012,0.987,-0.090,0.244,-0.305,0.366,66.667,463351.000,1.000
2.992,4.157,2.008,3.124,10.212,8.316,0.683,7.100,0.014,0.988,-0.091,0.092,-0.397,0.488,66.667,463352.000,1.000
4.424,5.849,3.223,4.299,11.125,12.094,4.582,9.737,0.014,0.988,-0.092,0.061,-0.519,0.549,66.667,463353.000,1.000
4.555,6.615,3.108,4.095,10.729,14.301,8.737,12.194,0.013,0.988,-0.089,-0.061,-0.610,0.488,66.667,463354.000,1.000
2.637,5.334,1.044,1.842,7.913,12.596,9.576,12.308,0.011,0.987,-0.092,-0.031,-0.671,0.488,66.667,463355.000,1.000
-1.271,1.657,-2.969,-2.301,2.629,6.907,5.313,8.869,0.014,0.989,-0.093,-0.061,-0.793,0.519,66.667,463356.000,1.000
-5.799,-3.293,-7.650,-6.880,-3.459,-0.096,-2.080,3.097,0.015,0.989,-0.092,-0.122,-0.824,0.519,66.667,463357.000,1.000
-9.111,-7.611,-11.122,-9.993,-8.053,-4.946,-8.446,-2.370,0.016,0.989,-0.093,-0.153,-0.977,0.610,66.667,463358.000,1.000
-10.248,-9.964,-12.259,-10.656,-9.842,-5.888,-10.852,-5.707,0.016,0.989,-0.092,-0.366,-1.068,0.763,66.667,463359.000,1.000
-9.558,-10.202,-11.230,-9.265,-9.056,-3.653,-9.215,-6.772,0.014,0.987,-0.093,-0.305,-1.129,0.916,66.667,463360.000,1.000
-8.295,-9.235,-9.215,-7.150,-7.060,-0.685,-5.547,-6.458,0.014,0.986,-0.092,-0.336,-1.221,0.854,66.667,463361.000,1.000
-7.919,-8.483,-7.745,-5.695,-5.462,0.422,-2.004,-5.545,0.015,0.986,-0.091,-0.366,-1.190,0.885,66.667,463362.000,1.000
-9.204,-8.893,-7.755,-5.438,-5.058,-1.394,0.544,-3.986,0.017,0.986,-0.091,-0.366,-1.343,0.916,66.667,463363.000,1.000
-11.745,-10.316,-9.120,-5.937,-5.617,-5.274,1.978,-1.586,0.015,0.984,-0.091,-0.427,-1.343,0.854,66.667,463364.000,1.000
-14.412,-11.888,-11.080,-6.539,-6.609,-9.484,1.736,0.724,0.019,0.984,-0.089,-0.488,-1.312,0.946,66.667,463365.000,1.000
-16.180,-12.791,-12.824,-6.983,-7.653,-12.379,-0.804,1.178,0.018,0.984,-0.092,-0.580,-1.190,1.038,66.667,463366.000,1.000
-16.548,-12.662,-13.738,-7.234,-8.365,-12.882,-5.062,-1.092,0.019,0.983,-0.093,-0.610,-1.251,0.977,66.667,463367.000,1.000
-15.461,-11.591,-13.487,-7.146,-8.341,-11.082,-9.258,-5.155,0.019,0.983,-0.092,-0.519,-1.251,1.068,66.667,463368.000,1.000
-13.079,-9.884,-11.979,-6.402,-7.324,-8.238,-11.488,-8.855,0.019,0.985,-0.094,-0.519,-1.282,1.099,66.667,463369.000,1.000
-9.769,-7.768,-9.285,-4.746,-5.291,-5.561,-10.536,-10.026,0.017,0.985,-0.094,-0.488,-1.251,1.160,66.667,463370.000,1.000
-6.301,-5.472,-5.810,-2.387,-2.625,-3.469,-6.626,-7.944,0.020,0.985,-0.093,-0.458,-1.251,1.343,66.667,463371.000,1.000
-3.722,-3.509,-2.445,-0.178,-0.242,-2.083,-1.512,-4.032,0.022,0.984,-0.091,-0.488,-1.160,1.251,66.667,463372.000,1.000
-2.728,-2.528,-0.176,0.917,0.923,-1.486,2.877,-0.611,0.021,0.984,-0.090,-0.488,-1.160,1.038,66.667,463373.000,1.000
-3.147,-2.823,0.563,0.569,0.567,-1.595,5.450,0.986,0.022,0.984,-0.091,-0.519,-1.099,1.038,66.667,463374.000,1.000
-4.040,-4.103,0.085,-0.762,-1.006,-2.427,5.553,0.818,0.022,0.986,-0.092,-0.519,-0.977,1.099,66.667,463375.000,1.000
-4.261,-5.654,-0.870,-2.198,-3.177,-4.052,2.794,-0.471,0.021,0.986,-0.093,-0.519,-0.916,1.160,66.667,463376.000,1.000
-3.098,-6.675,-1.614,-2.940,-5.161,-5.977,-2.211,-2.209,0.021,0.985,-0.092,-0.549,-0.885,1.160,66.667,463377.000,1.000
-0.747,-6.721,-1.870,-2.771,-6.350,-7.268,-7.664,-3.903,0.021,0.985,-0.092,-0.427,-0.702,0.977,66.667,463378.000,1.000
1.785,-5.950,-1.801,-2.186,-6.613,-7.345,-11.437,-5.310,0.021,0.985,-0.093,-0.397,-0.702,1.038,66.667,463379.000,1.000
3.417,-4.813,-1.644,-1.830,-6.033,-6.161,-11.955,-6.086,0.021,0.986,-0.091,-0.427,-0.610,1.129,66.667,463380.000,1.000
3.804,-3.544,-1.334,-1.778,-4.496,-3.857,-8.792,-5.441,0.023,0.985,-0.091,-0.427,-0.549,1.038,66.667,463381.000,1.000
3.445,-2.069,-0.614,-1.522,-1.884,-0.729,-2.918,-2.694,0.021,0.985,-0.089,-0.458,-0.519,1.007,66.667,463382.000,1.000
3.090,-0.353,0.554,-0.647,1.435,2.571,3.727,1.700,0.021,0.983,-0.091,-0.488,-0.397,0.885,66.667,463383.000,1.000
3.127,1.358,1.810,0.679,4.614,5.156,9.160,6.106,0.019,0.984,-0.092,-0.427,-0.336,0.977,66.667,463384.000,1.000
3.437,2.664,2.585,1.864,6.816,6.399,12.276,8.858,0.016,0.984,-0.089,-0.366,-0.366,0.916,66.667,463385.000,1.000
3.604,3.261,2.395,2.338,7.619,6.355,13.099,9.346,0.014,0.987,-0.091,-0.336,-0.427,0.946,66.667,463386.000,1.000
3.270,3.147,1.125,1.885,7.107,5.778,12.457,8.087,0.015,0.989,-0.090,-0.427,-0.427,0.732,66.667,463387.000,1.000
2.462,2.650,-0.793,0.807,5.789,5.676,11.454,6.081,0.016,0.987,-0.089,-0.427,-0.397,0.702,66.667,463388.000,1.000
1.624,2.212,-2.519,-0.180,4.332,6.515,10.896,4.275,0.016,0.988,-0.085,-0.519,-0.427,0.824,66.667,463389.000,1.000
1.175,1.999,-3.362,-0.478,3.068,7.533,10.706,3.167,0.014,0.986,-0.091,-0.610,-0.336,0.763,66.667,463390.000,1.000
1.156,1.814,-3.234,-0.082,1.764,7.141,9.950,2.524,0.014,0.986,-0.090,-0.641,-0.366,0.916,66.667,463391.000,1.000
1.397,1.421,-2.487,0.574,0.043,4.389,7.840,1.645,0.014,0.984,-0.088,-0.519,-0.305,0.885,66.667,463392.000,1.000
1.811,0.759,-1.542,1.060,-2.196,-0.213,4.440,-0.103,0.015,0.984,-0.087,-0.397,-0.305,0.763,66.667,463393.000,1.000
2.414,-0.073,-0.658,1.212,-4.723,-5.129,0.377,-2.779,0.016,0.983,-0.092,-0.458,-0.427,0.763,66.667,463394.000,1.000
3.268,-0.758,0.246,1.278,-6.942,-8.441,-3.155,-5.424,0.015,0.986,-0.091,-0.427,-0.458,0.854,66.667,463395.000,1.000
4.426,-0.869,1.479,1.753,-8.132,-8.887,-4.840,-6.673,0.017,0.987,-0.091,-0.336,-0.458,0.885,66.667,463396.000,1.000
5.749,-0.366,3.081,2.799,-8.216,-7.164,-4.940,-6.409,0.018,0.985,-0.091,-0.397,-0.488,0.854,66.667,463397.000,1.000
6.809,0.247,4.636,4.028,-7.870,-5.504,-5.368,-5.920,0.021,0.985,-0.091,-0.427,-0.397,0.977,66.667,463398.000,1.000
7.148,0.373,5.657,4.950,-7.709,-5.638,-7.439,-6.216,0.019,0.986,-0.091,-0.366,-0.458,1.129,66.667,463399.000,1.000
6.553,-0.344,5.817,5.259,-7.920,-7.721,-10.576,-7.155,0.021,0.987,-0.092,-0.275,-0.305,1.190,66.667,463400.000,1.000
5.045,-2.038,4.885,4.783,-8.534,-10.697,-13.071,-8.009,0.020,0.989,-0.091,-0.244,-0.275,1.190,66.667,463401.000,1.000
2.837,-4.490,2.894,3.545,-9.481,-13.013,-13.329,-8.090,0.020,0.988,-0.091,-0.244,-0.214,1.099,66.667,463402.000,1.000
0.444,-7.030,0.370,1.883,-10.488,-13.526,-10.980,-7.098,0.021,0.986,-0.088,-0.305,-0.122,1.129,66.667,463403.000,1.000
-1.322,-8.859,-1.863,0.328,-11.216,-12.153,-7.156,-5.378,0.020,0.987,-0.090,-0.397,-0.092,1.251,66.667,463404.000,1.000
-1.717,-9.478,-3.097,-0.630,-11.427,-9.584,-3.407,-3.757,0.019,0.985,-0.091,-0.458,-0.122,1.251,66.667,463405.000,1.000
-0.624,-8.950,-3.125,-0.800,-11.087,-6.698,-0.607,-3.002,0.019,0.986,-0.089,-0.397,-0.061,1.373,66.667,463406.000,1.000
1.178,-7.944,-2.479,-0.496,-10.494,-4.329,1.086,-3.372,0.018,0.986,-0.088,-0.488,-0.031,1.434,66.667,463407.000,1.000
2.535,-7.243,-2.081,-0.302,-10.039,-2.832,2.102,-4.402,0.019,0.985,-0.088,-0.458,-0.092,1.434,66.667,463408.000,1.000
2.873,-6.974,-2.375,-0.466,-9.646,-1.612,3.528,-5.045,0.019,0.985,-0.087,-0.397,-0.305,1.495,66.667,463409.000,1.000
2.499,-6.645,-3.007,-0.806,-8.903,0.123,6.119,-4.625,0.018,0.984,-0.087,-0.458,-0.244,1.556,66.667,463410.000,1.000
2.082,-5.958,-3.403,-1.208,-7.808,2.081,8.745,-3.804,0.016,0.986,-0.085,-0.519,-0.214,1.465,66.667,463411.000,1.000
2.077,-5.141,-3.338,-1.849,-6.901,3.105,9.065,-4.008,0.015,0.985,-0.085,-0.641,-0.214,1.373,66.667,463412.000,1.000
2.495,-4.620,-3.005,-2.904,-6.643,2.353,5.920,-5.827,0.015,0.983,-0.088,-0.519,-0.305,1.343,66.667,463413.000,1.000
2.935,-4.695,-2.741,-4.269,-6.981,-0.254,0.327,-8.407,0.014,0.982,-0.085,-0.519,-0.305,1.190,66.667,463414.000,1.000
2.990,-5.279,-2.559,-5.512,-7.396,-4.006,-5.317,-10.252,0.016,0.979,-0.087,-0.519,-0.397,1.160,66.667,463415.000,1.000
2.802,-5.710,-1.874,-5.975,-7.062,-7.240,-8.381,-10.260,0.017,0.982,-0.092,-0.336,-0.458,1.007,66.667,463416.000,1.000
3.030,-5.050,0.099,-5.129,-5.191,-7.722,-6.910,-8.177,0.019,0.982,-0.094,-0.244,-0.549,1.099,66.667,463417.000,1.000
4.147,-2.829,3.510,-3.022,-1.624,-3.993,-0.610,-4.678,0.020,0.983,-0.093,-0.214,-0.519,1.068,66.667,463418.000,1.000
5.903,0.333,7.444,-0.413,2.695,2.984,8.059,-1.299,0.019,0.986,-0.091,-0.183,-0.458,1.099,66.667,463419.000,1.000
7.532,2.928,10.390,1.652,6.058,9.722,14.444,0.247,0.020,0.984,-0.091,-0.153,-0.427,1.068,66.667,463420.000,1.000
8.479,3.736,11.370,2.616,7.286,12.686,14.989,-0.596,0.021,0.982,-0.092,-0.153,-0.427,1.068,66.667,463421.000,1.000
8.770,2.750,10.552,2.698,6.563,10.936,9.970,-2.817,0.021,0.980,-0.093,-0.122,-0.427,1.068,66.667,463422.000,1.000
8.717,0.866,8.818,2.402,4.838,6.187,2.542,-4.996,0.022,0.978,-0.089,0.000,-0.458,1.099,66.667,463423.000,1.000
8.598,-0.874,7.096,2.109,3.010,1.211,-3.797,-6.329,0.021,0.976,-0.091,0.122,-0.549,1.129,66.667,463424.000,1.000
8.656,-1.643,6.098,2.123,1.803,-1.551,-6.584,-6.472,0.021,0.978,-0.091,0.214,-0.458,1.312,66.667,463425.000,1.000
9.183,-0.956,6.265,2.815,1.861,-0.932,-4.904,-5.078,0.022,0.979,-0.092,0.336,-0.427,1.404,66.667,463426.000,1.000
10.364,1.148,7.649,4.491,3.512,2.564,0.395,-1.938,0.022,0.982,-0.089,0.397,-0.488,1.373,66.667,463427.000,1.000
11.920,3.884,9.706,6.989,6.315,7.073,6.915,2.363,0.022,0.984,-0.089,0.366,-0.488,1.312,66.667,463428.000,1.000
13.173,6.026,11.501,9.610,9.169,10.517,11.861,6.382,0.023,0.989,-0.087,0.366,-0.427,1.373,66.667,463429.000,1.000
13.741,6.923,12.475,11.772,11.297,12.289,14.134,9.016,0.021,0.990,-0.091,0.305,-0.336,1.495,66.667,463430.000,1.000
13.866,6.948,12.789,13.460,12.835,13.573,14.989,10.530,0.022,0.990,-0.090,0.122,-0.244,1.495,66.667,463431.000,1.000
13.794,6.687,12.695,14.779,14.062,15.459,15.917,11.772,0.022,0.989,-0.091,0.000,-0.275,1.526,66.667,463432.000,1.000
13.228,6.052,11.935,15.405,14.504,17.351,16.569,12.695,0.022,0.988,-0.091,-0.092,-0.366,1.495,66.667,463433.000,1.000
11.641,4.464,10.031,14.808,13.280,17.589,15.393,12.384,0.020,0.991,-0.092,-0.122,-0.336,1.404,66.667,463434.000,1.000
8.903,1.637,6.902,12.853,10.106,15.078,11.720,10.368,0.015,0.990,-0.091,-0.153,-0.427,1.404,66.667,463435.000,1.000
5.432,-2.054,3.028,9.986,5.677,10.051,6.543,7.285,0.013,0.992,-0.087,-0.305,-0.336,1.221,66.667,463436.000,1.000
1.973,-5.784,-0.790,6.956,1.220,3.759,1.608,4.254,0.014,0.992,-0.085,-0.458,-0.397,1.038,66.667,463437.000,1.000
-0.608,-8.582,-3.685,4.518,-2.163,-2.184,-1.763,2.027,0.012,0.992,-0.087,-0.610,-0.732,0.885,66.667,463438.000,1.000
-1.602,-9.683,-5.018,3.211,-3.972,-6.462,-3.350,0.665,0.012,0.995,-0.086,-0.793,-0.793,0.793,66.667,463439.000,1.000
-0.893,-9.008,-4.747,3.094,-4.544,-8.671,-4.004,-0.516,0.013,0.994,-0.087,-0.916,-0.977,0.793,66.667,463440.000,1.000
0.883,-7.327,-3.451,3.699,-4.779,-9.518,-5.013,-2.607,0.016,0.992,-0.088,-1.160,-1.099,0.702,66.667,463441.000,1.000
2.748,-5.765,-1.848,4.429,-5.406,-10.112,-7.039,-5.984,0.018,0.991,-0.089,-1.160,-1.221,0.610,66.667,463442.000,1.000
4.059,-4.988,-0.287,5.052,-6.385,-10.774,-9.211,-9.453,0.017,0.992,-0.088,-1.282,-1.343,0.610,66.667,463443.000,1.000
4.753,-4.899,1.172,5.626,-7.172,-10.870,-9.883,-11.337,0.018,0.991,-0.089,-1.251,-1.373,0.610,66.667,463444.000,1.000
4.978,-5.044,2.315,6.044,-7.522,-9.967,-8.711,-11.336,0.018,0.992,-0.091,-1.312,-1.404,0.671,66.667,463445.000,1.000
4.879,-4.959,2.875,6.105,-7.536,-8.380,-6.929,-10.412,0.016,0.992,-0.087,-1.221,-1.495,0.763,66.667,463446.000,1.000
4.820,-4.085,3.089,5.941,-7.080,-6.443,-5.578,-9.249,0.018,0.990,-0.087,-1.343,-1.373,0.824,66.667,463447.000,1.000
5.304,-1.980,3.617,5.891,-5.878,-4.368,-4.847,-7.867,0.020,0.989,-0.085,-1.343,-1.495,0.885,66.667,463448.000,1.000
