EEG 1,EEG 2,EEG 3,EEG 4,EEG 5,EEG 6,EEG 7,EEG 8,Accelerometer X,Accelerometer Y,Accelerometer Z,Gyroscope X,Gyroscope Y,Gyroscope Z,Battery Level,Counter,Validation Indicator
9.873,1.816,6.991,7.822,8.306,13.428,10.500,12.002,-0.058,0.900,-0.382,-0.397,-1.587,1.038,80.000,132961.000,1.000
9.409,1.076,5.867,8.215,8.205,12.517,10.311,12.640,-0.057,0.894,-0.384,-0.519,-1.617,0.946,80.000,132962.000,1.000
8.798,0.908,5.163,8.331,8.116,11.177,9.220,11.689,-0.053,0.892,-0.387,-0.580,-1.648,1.038,80.000,132963.000,1.000
8.751,2.016,5.458,8.961,9.291,11.143,9.106,11.404,-0.052,0.891,-0.387,-0.641,-1.495,0.977,80.000,132964.000,1.000
9.741,4.611,7.158,10.852,12.755,13.608,11.857,14.265,-0.047,0.891,-0.386,-0.580,-1.312,0.916,80.000,132965.000,1.000
11.416,7.816,9.697,13.680,17.805,17.739,16.852,19.976,-0.048,0.896,-0.388,-0.336,-1.312,1.007,80.000,132966.000,1.000
12.678,9.841,11.591,15.827,21.756,20.397,20.395,24.637,-0.046,0.898,-0.390,-0.427,-1.190,1.007,80.000,132967.000,1.000
12.577,9.302,11.642,15.754,22.096,18.693,19.134,24.263,-0.048,0.899,-0.391,-0.519,-1.038,1.007,80.000,132968.000,1.000
11.130,6.391,9.904,13.479,18.745,12.798,13.462,18.637,-0.049,0.899,-0.391,-0.610,-0.977,0.885,80.000,132969.000,1.000
9.357,2.833,7.818,10.632,14.114,6.077,7.388,11.436,-0.048,0.896,-0.387,-0.641,-0.763,0.977,80.000,132970.000,1.000
8.600,0.880,7.133,9.212,11.302,2.692,5.358,7.170,-0.048,0.892,-0.391,-0.549,-0.824,0.977,80.000,132971.000,1.000
9.526,1.843,8.642,10.075,11.747,4.280,8.560,7.668,-0.052,0.890,-0.392,-0.458,-0.763,0.885,80.000,132972.000,1.000
11.589,5.104,11.501,12.205,14.085,8.478,13.689,10.717,-0.054,0.892,-0.389,-0.427,-0.610,0.854,80.000,132973.000,1.000
13.645,8.794,13.927,13.679,15.623,11.341,16.009,12.451,-0.061,0.893,-0.389,-0.305,-0.610,0.671,80.000,132974.000,1.000
14.989,11.410,14.875,13.374,14.883,11.141,13.919,11.103,-0.061,0.891,-0.389,-0.336,-0.793,0.488,80.000,132975.000,1.000
15.649,12.509,14.378,11.502,12.428,9.294,9.791,7.932,-0.061,0.891,-0.386,-0.305,-0.916,0.397,80.000,132976.000,1.000
16.044,12.318,13.059,9.071,9.815,8.283,7.100,5.446,-0.061,0.892,-0.386,-0.305,-0.977,0.183,80.000,132977.000,1.000
16.534,11.233,11.644,7.169,8.305,9.347,7.484,5.428,-0.059,0.892,-0.388,-0.366,-1.007,-0.031,80.000,132978.000,1.000
17.200,9.632,10.567,6.476,8.198,11.587,9.853,7.953,-0.058,0.894,-0.392,-0.366,-1.038,-0.183,80.000,132979.000,1.000
17.961,7.959,10.111,7.162,9.017,13.026,11.872,11.679,-0.059,0.893,-0.389,-0.336,-1.160,-0.183,80.000,132980.000,1.000
18.798,6.841,10.432,9.051,10.275,12.687,12.187,15.132,-0.058,0.894,-0.389,-0.366,-1.160,-0.275,80.000,132981.000,1.000
19.734,6.813,11.538,11.740,11.818,11.271,11.254,17.696,-0.057,0.895,-0.386,-0.397,-1.221,-0.336,80.000,132982.000,1.000
20.580,7.715,13.028,14.452,13.353,9.888,10.065,19.114,-0.058,0.896,-0.387,-0.488,-1.282,-0.214,80.000,132983.000,1.000
20.996,8.645,13.969,16.161,14.182,8.847,8.743,18.813,-0.057,0.896,-0.388,-0.458,-1.312,-0.305,80.000,132984.000,1.000
20.843,8.698,13.672,16.223,13.763,7.742,6.933,16.532,-0.056,0.897,-0.390,-0.580,-1.312,-0.336,80.000,132985.000,1.000
20.330,7.624,12.123,14.741,12.244,6.176,4.671,12.940,-0.056,0.894,-0.390,-0.610,-1.373,-0.183,80.000,132986.000,1.000
19.844,5.889,9.961,12.422,10.350,4.215,2.465,9.226,-0.056,0.892,-0.387,-0.610,-1.373,-0.031,80.000,132987.000,1.000
19.592,4.249,8.049,10.181,8.892,2.376,0.889,6.418,-0.055,0.890,-0.385,-0.580,-1.343,0.000,80.000,132988.000,1.000
19.354,3.235,6.807,8.622,8.239,1.299,0.202,4.893,-0.055,0.891,-0.386,-0.519,-1.434,0.061,80.000,132989.000,1.000
18.677,2.924,6.129,7.757,8.107,1.274,0.321,4.307,-0.056,0.894,-0.386,-0.488,-1.343,0.183,80.000,132990.000,1.000
17.448,3.087,5.547,7.215,7.915,1.973,0.778,4.037,-0.058,0.895,-0.385,-0.336,-1.434,0.244,80.000,132991.000,1.000
16.214,3.553,4.856,6.780,7.335,2.678,0.881,3.700,-0.058,0.896,-0.389,-0.458,-1.465,0.305,80.000,132992.000,1.000
15.846,4.442,4.435,6.630,6.590,3.068,0.399,3.367,-0.059,0.896,-0.390,-0.397,-1.587,0.397,80.000,132993.000,1.000
16.820,5.977,4.753,7.069,6.259,3.573,-0.078,3.414,-0.058,0.895,-0.389,-0.488,-1.556,0.427,80.000,132994.000,1.000
18.703,7.900,5.808,7.988,6.463,4.358,-0.125,3.752,-0.059,0.894,-0.388,-0.397,-1.678,0.336,80.000,132995.000,1.000
20.354,9.350,6.849,8.699,6.472,4.541,-0.433,3.501,-0.062,0.893,-0.388,-0.488,-1.801,0.427,80.000,132996.000,1.000
20.775,9.658,7.186,8.641,5.570,3.319,-1.659,2.227,-0.061,0.893,-0.389,-0.458,-1.953,0.366,80.000,132997.000,1.000
19.698,8.951,6.880,7.891,3.893,1.132,-3.150,0.820,-0.063,0.894,-0.388,-0.336,-2.014,0.336,80.000,132998.000,1.000
17.541,7.859,6.385,6.903,2.134,-0.952,-3.727,0.614,-0.061,0.894,-0.391,-0.275,-2.075,0.458,80.000,132999.000,1.000
15.105,6.903,6.142,6.031,0.778,-2.481,-3.166,1.925,-0.062,0.895,-0.388,-0.397,-2.289,0.427,80.000,133000.000,1.000
13.156,6.180,6.162,5.214,-0.278,-3.799,-2.719,3.329,-0.059,0.893,-0.389,-0.519,-2.380,0.366,80.000,133001.000,1.000
12.093,5.449,6.166,4.125,-1.437,-5.397,-4.004,2.746,-0.060,0.893,-0.388,-0.519,-2.258,0.397,80.000,133002.000,1.000
11.834,4.369,5.878,2.574,-2.904,-7.453,-7.534,-0.643,-0.059,0.890,-0.386,-0.427,-2.136,0.427,80.000,133003.000,1.000
11.962,2.776,5.020,0.695,-4.507,-9.639,-12.339,-5.784,-0.057,0.889,-0.387,-0.397,-2.258,0.458,80.000,133004.000,1.000
12.107,0.938,3.656,-1.013,-5.757,-11.084,-16.436,-10.532,-0.057,0.889,-0.387,-0.336,-2.228,0.427,80.000,133005.000,1.000
12.275,-0.500,2.290,-1.817,-6.046,-11.001,-17.944,-12.773,-0.058,0.889,-0.390,-0.183,-2.289,0.488,80.000,133006.000,1.000
12.781,-0.988,1.624,-1.174,-5.079,-9.628,-16.347,-11.570,-0.062,0.889,-0.390,-0.122,-2.258,0.427,80.000,133007.000,1.000
13.843,-0.554,2.054,0.679,-3.281,-8.295,-12.974,-7.954,-0.058,0.890,-0.387,-0.031,-2.167,0.458,80.000,133008.000,1.000
15.342,0.240,3.308,2.695,-1.583,-8.320,-10.050,-4.370,-0.054,0.893,-0.391,-0.031,-2.106,0.458,80.000,133009.000,1.000
16.951,0.742,4.831,3.766,-0.703,-9.835,-8.886,-2.905,-0.053,0.893,-0.389,0.031,-2.045,0.580,80.000,133010.000,1.000
18.309,0.696,6.079,3.510,-0.585,-11.519,-8.908,-3.863,-0.055,0.894,-0.391,0.061,-2.106,0.641,80.000,133011.000,1.000
19.161,0.436,6.848,2.512,-0.498,-11.557,-8.344,-5.745,-0.053,0.893,-0.392,0.061,-1.892,0.580,80.000,133012.000,1.000
19.337,0.504,7.263,1.785,0.212,-9.252,-6.052,-6.554,-0.052,0.894,-0.388,0.031,-1.892,0.641,80.000,133013.000,1.000
18.684,1.148,7.368,2.045,1.593,-5.495,-2.431,-5.172,-0.051,0.893,-0.387,-0.092,-1.740,0.732,80.000,133014.000,1.000
17.151,2.221,7.203,3.423,3.186,-1.801,1.270,-1.933,-0.052,0.893,-0.387,0.092,-1.617,0.641,80.000,133015.000,1.000
14.908,3.229,6.672,5.383,4.152,0.338,3.389,1.412,-0.053,0.892,-0.387,0.061,-1.495,0.610,80.000,133016.000,1.000
12.361,3.476,5.568,6.896,3.516,-0.450,2.171,2.617,-0.054,0.891,-0.388,0.031,-1.556,0.580,80.000,133017.000,1.000
10.054,2.556,3.856,7.026,0.883,-4.620,-3.002,0.431,-0.053,0.890,-0.384,0.031,-1.404,0.702,80.000,133018.000,1.000
8.613,0.883,1.930,5.685,-2.859,-10.665,-10.532,-4.336,-0.054,0.889,-0.388,0.000,-1.373,0.671,80.000,133019.000,1.000
8.613,-0.392,0.813,3.890,-5.810,-15.667,-17.169,-9.147,-0.055,0.892,-0.386,0.031,-1.251,0.580,80.000,133020.000,1.000
10.232,-0.219,1.428,3.002,-6.316,-17.350,-20.080,-11.346,-0.056,0.892,-0.385,-0.061,-1.221,0.488,80.000,133021.000,1.000
13.077,1.708,3.994,3.816,-3.916,-15.295,-18.155,-9.532,-0.056,0.892,-0.385,0.061,-1.129,0.488,80.000,133022.000,1.000
16.364,4.926,7.971,6.118,0.493,-10.676,-12.238,-4.375,-0.055,0.894,-0.388,0.122,-1.099,0.427,80.000,133023.000,1.000
19.194,8.450,12.067,8.708,4.917,-5.736,-5.224,1.203,-0.055,0.895,-0.387,0.122,-0.977,0.366,80.000,133024.000,1.000
20.787,11.097,14.786,10.007,7.172,-3.013,-0.891,3.689,-0.057,0.896,-0.385,0.092,-0.946,0.275,80.000,133025.000,1.000
20.687,11.962,15.044,8.942,6.176,-3.917,-1.571,1.448,-0.055,0.896,-0.384,-0.031,-0.977,0.153,80.000,133026.000,1.000
19.008,10.896,12.787,5.628,2.570,-7.736,-6.604,-4.376,-0.057,0.897,-0.386,-0.061,-0.946,0.092,80.000,133027.000,1.000
16.555,8.650,9.188,1.429,-1.733,-12.102,-12.860,-10.783,-0.058,0.896,-0.387,-0.092,-0.854,0.153,80.000,133028.000,1.000
14.513,6.483,5.969,-1.755,-4.731,-14.619,-16.944,-14.690,-0.057,0.896,-0.386,-0.153,-0.854,0.122,80.000,133029.000,1.000
13.684,5.355,4.454,-2.679,-5.547,-14.399,-17.343,-14.753,-0.059,0.897,-0.386,-0.305,-0.793,0.092,80.000,133030.000,1.000
13.851,5.308,4.607,-1.598,-4.848,-12.297,-15.068,-12.168,-0.061,0.895,-0.383,-0.336,-0.732,0.031,80.000,133031.000,1.000
14.005,5.592,5.242,0.083,-4.052,-9.890,-12.248,-9.452,-0.061,0.893,-0.383,-0.214,-0.793,-0.061,80.000,133032.000,1.000
13.237,5.260,5.130,0.899,-4.182,-8.432,-10.259,-8.338,-0.062,0.894,-0.384,-0.305,-0.824,-0.122,80.000,133033.000,1.000
11.347,3.667,3.653,0.116,-5.413,-8.537,-9.291,-8.946,-0.062,0.895,-0.385,-0.275,-0.916,-0.153,80.000,133034.000,1.000
8.815,0.803,1.130,-2.016,-7.234,-10.066,-8.789,-10.298,-0.062,0.894,-0.384,-0.244,-0.946,-0.092,80.000,133035.000,1.000
6.496,-2.496,-1.438,-4.352,-8.688,-12.061,-8.004,-11.004,-0.061,0.894,-0.387,-0.244,-0.977,-0.061,80.000,133036.000,1.000
5.256,-4.818,-2.830,-5.361,-8.767,-13.137,-6.401,-9.916,-0.060,0.894,-0.385,-0.244,-0.946,-0.061,80.000,133037.000,1.000
5.421,-5.079,-2.347,-4.134,-7.140,-12.314,-4.040,-7.089,-0.059,0.893,-0.383,-0.214,-0.977,0.061,80.000,133038.000,1.000
6.491,-3.240,-0.424,-1.047,-4.492,-9.664,-1.738,-3.989,-0.061,0.894,-0.385,-0.336,-0.885,0.122,80.000,133039.000,1.000
7.498,-0.152,1.935,2.704,-1.911,-6.228,-0.312,-2.085,-0.060,0.894,-0.382,-0.305,-0.977,0.183,80.000,133040.000,1.000
7.599,3.029,3.785,5.900,-0.132,-3.371,0.126,-1.625,-0.061,0.892,-0.385,-0.305,-0.946,0.244,80.000,133041.000,1.000
6.418,5.272,4.522,7.690,0.540,-2.156,-0.039,-1.966,-0.061,0.893,-0.384,-0.092,-1.007,0.275,80.000,133042.000,1.000
4.104,5.921,3.936,7.739,-0.005,-3.031,-0.567,-2.536,-0.061,0.893,-0.385,-0.122,-1.007,0.427,80.000,133043.000,1.000
1.209,4.843,2.091,6.274,-1.728,-5.785,-1.668,-3.247,-0.061,0.892,-0.387,0.122,-1.007,0.519,80.000,133044.000,1.000
-1.578,2.424,-0.514,3.974,-4.328,-9.602,-3.482,-4.120,-0.061,0.890,-0.390,0.183,-1.099,0.641,80.000,133045.000,1.000
-3.722,-0.632,-3.252,1.577,-7.304,-13.299,-5.682,-5.021,-0.060,0.892,-0.385,0.153,-1.038,0.702,80.000,133046.000,1.000
-4.992,-3.516,-5.687,-0.490,-10.194,-15.771,-7.733,-6.001,-0.059,0.893,-0.384,0.122,-1.038,0.793,80.000,133047.000,1.000
-5.379,-5.480,-7.534,-2.143,-12.649,-16.322,-9.213,-7.388,-0.058,0.890,-0.383,0.214,-1.129,0.885,80.000,133048.000,1.000
-4.885,-5.984,-8.589,-3.357,-14.343,-14.944,-9.961,-9.198,-0.057,0.889,-0.383,0.214,-1.129,0.946,80.000,133049.000,1.000
-3.439,-4.940,-8.565,-3.966,-15.072,-12.564,-10.080,-10.783,-0.058,0.889,-0.384,0.214,-1.068,1.129,80.000,133050.000,1.000
-1.071,-2.768,-7.347,-3.789,-14.788,-10.401,-9.683,-11.165,-0.057,0.889,-0.385,0.427,-1.068,1.221,80.000,133051.000,1.000
1.866,-0.084,-5.159,-2.763,-13.395,-8.752,-8.444,-9.495,-0.057,0.887,-0.387,0.519,-1.038,1.373,80.000,133052.000,1.000
4.660,2.500,-2.561,-1.109,-10.932,-6.971,-5.942,-5.761,-0.060,0.888,-0.389,0.488,-0.854,1.343,80.000,133053.000,1.000
6.531,4.308,-0.515,0.502,-8.085,-4.702,-2.768,-1.426,-0.061,0.887,-0.390,0.702,-0.885,1.404,80.000,133054.000,1.000
7.089,4.608,0.083,1.167,-6.201,-2.875,-0.853,1.085,-0.058,0.890,-0.390,0.671,-0.824,1.465,80.000,133055.000,1.000
6.547,2.959,-1.114,0.341,-6.443,-3.176,-2.248,0.012,-0.057,0.890,-0.389,0.885,-0.824,1.404,80.000,133056.000,1.000
5.669,-0.217,-3.446,-1.564,-8.666,-6.190,-6.963,-4.162,-0.054,0.892,-0.389,0.885,-0.732,1.373,80.000,133057.000,1.000
5.387,-3.603,-5.442,-3.367,-11.338,-10.467,-12.467,-9.013,-0.056,0.891,-0.388,0.916,-0.702,1.465,80.000,133058.000,1.000
6.210,-5.750,-5.931,-4.017,-12.660,-13.666,-15.747,-12.090,-0.057,0.891,-0.389,0.946,-0.702,1.495,80.000,133059.000,1.000
7.903,-5.926,-4.603,-3.209,-11.642,-14.126,-15.273,-12.302,-0.057,0.891,-0.391,1.007,-0.732,1.526,80.000,133060.000,1.000
9.613,-4.443,-2.141,-1.495,-8.566,-11.649,-11.640,-10.303,-0.056,0.892,-0.390,1.007,-0.671,1.587,80.000,133061.000,1.000
10.385,-2.300,0.241,0.135,-4.706,-7.386,-6.822,-7.727,-0.056,0.891,-0.393,1.099,-0.641,1.556,80.000,133062.000,1.000
9.765,-0.417,1.709,1.093,-1.327,-2.923,-2.454,-5.417,-0.057,0.894,-0.391,1.068,-0.610,1.526,80.000,133063.000,1.000
8.034,0.866,2.183,1.595,1.073,0.589,1.069,-2.802,-0.056,0.894,-0.390,1.068,-0.488,1.434,80.000,133064.000,1.000
5.849,1.539,2.077,2.077,2.404,2.360,3.788,0.475,-0.053,0.894,-0.389,1.007,-0.488,1.343,80.000,133065.000,1.000
3.699,1.437,1.488,2.393,2.261,1.554,4.941,3.011,-0.054,0.893,-0.391,0.977,-0.519,1.251,80.000,133066.000,1.000
1.838,0.414,0.188,2.037,0.232,-2.116,3.535,2.801,-0.053,0.892,-0.391,0.946,-0.488,1.190,80.000,133067.000,1.000
0.436,-1.172,-1.725,0.918,-3.200,-7.420,0.047,-0.396,-0.054,0.893,-0.392,1.038,-0.488,1.160,80.000,133068.000,1.000
-0.441,-2.476,-3.756,-0.475,-6.607,-11.742,-3.322,-4.618,-0.054,0.893,-0.392,1.068,-0.366,1.099,80.000,133069.000,1.000
-0.863,-2.654,-5.158,-1.495,-8.527,-12.576,-4.114,-7.346,-0.054,0.894,-0.395,1.007,-0.397,0.977,80.000,133070.000,1.000
-1.010,-1.446,-5.435,-1.816,-8.501,-9.455,-1.705,-7.354,-0.055,0.895,-0.396,0.946,-0.458,0.793,80.000,133071.000,1.000
-1.111,0.630,-4.710,-1.582,-7.301,-4.458,2.110,-5.180,-0.059,0.894,-0.395,0.854,-0.397,0.763,80.000,133072.000,1.000
-1.320,2.721,-3.560,-1.177,-6.108,-0.368,4.922,-2.225,-0.058,0.893,-0.390,0.824,-0.244,0.732,80.000,133073.000,1.000
-1.609,4.246,-2.717,-0.924,-5.543,1.503,5.708,0.344,-0.059,0.891,-0.391,0.885,-0.183,0.641,80.000,133074.000,1.000
-1.820,5.049,-2.560,-0.932,-5.470,1.472,5.062,2.125,-0.060,0.891,-0.390,0.916,-0.366,0.549,80.000,133075.000,1.000
-1.857,5.127,-3.089,-1.180,-5.463,0.211,3.996,3.388,-0.061,0.890,-0.390,0.916,-0.397,0.427,80.000,133076.000,1.000
-1.846,4.441,-4.092,-1.687,-5.329,-2.043,2.828,4.370,-0.061,0.889,-0.391,0.793,-0.366,0.336,80.000,133077.000,1.000
-2.141,2.863,-5.335,-2.747,-5.430,-5.448,0.776,4.300,-0.058,0.888,-0.392,0.885,-0.488,0.366,80.000,133078.000,1.000
-3.029,0.398,-6.808,-4.789,-6.354,-10.047,-3.314,1.769,-0.059,0.888,-0.393,0.916,-0.519,0.336,80.000,133079.000,1.000
-4.209,-2.271,-8.182,-7.542,-7.867,-14.841,-8.968,-3.207,-0.057,0.889,-0.394,0.946,-0.488,0.275,80.000,133080.000,1.000
-4.666,-3.706,-8.524,-9.688,-8.515,-17.464,-13.306,-8.282,-0.055,0.888,-0.394,0.854,-0.519,0.397,80.000,133081.000,1.000
-3.301,-2.662,-6.843,-9.699,-6.696,-15.674,-13.032,-10.410,-0.055,0.890,-0.392,0.793,-0.549,0.519,80.000,133082.000,1.000
0.115,0.765,-2.923,-7.001,-2.106,-9.530,-7.256,-8.057,-0.055,0.892,-0.390,0.763,-0.519,0.610,80.000,133083.000,1.000
4.530,5.000,2.122,-2.444,3.801,-1.755,1.525,-2.273,-0.054,0.892,-0.391,0.671,-0.519,0.671,80.000,133084.000,1.000
8.149,8.057,6.467,2.143,8.639,4.294,9.207,3.851,-0.054,0.895,-0.388,0.732,-0.458,0.824,80.000,133085.000,1.000
9.517,8.865,8.557,4.971,10.659,7.108,13.023,7.195,-0.057,0.892,-0.393,0.580,-0.427,0.885,80.000,133086.000,1.000
8.321,7.807,7.994,5.307,9.840,7.707,13.331,6.837,-0.057,0.890,-0.392,0.519,-0.366,1.038,80.000,133087.000,1.000
5.357,6.092,5.715,3.707,7.555,8.008,12.697,4.428,-0.055,0.889,-0.392,0.458,-0.427,1.068,80.000,133088.000,1.000
1.892,4.682,3.023,1.385,5.256,8.623,13.059,2.450,-0.055,0.888,-0.391,0.519,-0.336,1.160,80.000,133089.000,1.000
-1.028,3.721,0.783,-0.612,3.448,8.414,14.082,2.222,-0.057,0.891,-0.393,0.519,-0.183,1.190,80.000,133090.000,1.000
-3.029,2.722,-0.938,-1.996,1.645,6.045,13.843,3.002,-0.058,0.890,-0.392,0.488,-0.336,1.282,80.000,133091.000,1.000
-4.323,1.208,-2.564,-3.140,-0.921,1.422,10.644,2.773,-0.056,0.891,-0.395,0.458,-0.336,1.373,80.000,133092.000,1.000
-5.169,-0.727,-4.256,-4.348,-4.367,-4.234,4.503,0.249,-0.057,0.889,-0.392,0.427,-0.458,1.404,80.000,133093.000,1.000
-5.535,-2.375,-5.695,-5.325,-7.731,-9.010,-2.616,-3.661,-0.056,0.888,-0.393,0.366,-0.427,1.434,80.000,133094.000,1.000
-5.338,-2.921,-6.259,-5.439,-9.499,-10.994,-7.714,-6.428,-0.057,0.887,-0.391,0.397,-0.427,1.526,80.000,133095.000,1.000
-4.836,-2.134,-5.735,-4.514,-8.808,-9.213,-8.679,-6.189,-0.057,0.886,-0.393,0.336,-0.366,1.526,80.000,133096.000,1.000
-4.514,-0.611,-4.679,-3.172,-6.262,-4.638,-6.074,-3.488,-0.057,0.885,-0.394,0.366,-0.397,1.434,80.000,133097.000,1.000
-4.513,0.780,-3.800,-2.237,-3.357,0.302,-2.530,-0.457,-0.058,0.884,-0.396,0.458,-0.336,1.465,80.000,133098.000,1.000
-4.317,1.810,-3.320,-1.905,-1.030,3.848,-0.077,1.497,-0.056,0.885,-0.397,0.580,-0.397,1.404,80.000,133099.000,1.000
-3.202,2.996,-2.752,-1.684,0.829,5.992,1.325,2.560,-0.054,0.887,-0.399,0.671,-0.366,1.404,80.000,133100.000,1.000
-1.019,4.708,-1.596,-1.087,2.605,7.342,2.560,3.513,-0.054,0.888,-0.397,0.732,-0.336,1.465,80.000,133101.000,1.000
1.598,6.471,0.037,-0.130,4.172,7.838,3.765,4.552,-0.054,0.890,-0.396,0.641,-0.366,1.434,80.000,133102.000,1.000
3.713,7.262,1.548,0.691,4.879,6.889,4.204,4.910,-0.055,0.890,-0.395,0.519,-0.305,1.434,80.000,133103.000,1.000
4.752,6.459,2.226,0.883,4.279,4.500,3.320,3.659,-0.055,0.891,-0.395,0.336,-0.366,1.312,80.000,133104.000,1.000
4.791,4.403,1.923,0.482,2.776,1.812,1.697,0.951,-0.055,0.891,-0.397,0.336,-0.488,1.190,80.000,133105.000,1.000
4.223,1.972,0.973,-0.060,1.313,0.138,0.406,-1.904,-0.054,0.891,-0.395,0.305,-0.275,1.129,80.000,133106.000,1.000
3.280,-0.101,-0.201,-0.279,0.621,-0.169,-0.103,-3.277,-0.055,0.892,-0.393,0.244,-0.305,1.129,80.000,133107.000,1.000
1.881,-1.484,-1.202,0.041,0.917,0.439,0.100,-2.208,-0.054,0.892,-0.395,0.153,-0.214,1.038,80.000,133108.000,1.000
-0.271,-2.260,-2.008,0.604,1.874,1.318,0.664,0.755,-0.052,0.891,-0.396,0.061,-0.275,0.946,80.000,133109.000,1.000
-3.313,-2.752,-2.819,0.787,2.804,1.677,0.981,3.888,-0.050,0.890,-0.396,0.031,-0.153,0.916,80.000,133110.000,1.000
-6.729,-3.034,-3.653,0.299,3.301,0.971,0.634,5.800,-0.046,0.891,-0.395,-0.153,-0.122,1.068,80.000,133111.000,1.000
-9.406,-2.717,-4.195,-0.464,3.659,-0.295,-0.048,6.337,-0.046,0.893,-0.395,-0.305,0.000,0.977,80.000,133112.000,1.000
-10.412,-1.458,-4.026,-0.786,4.436,-0.882,-0.275,6.141,-0.047,0.889,-0.395,-0.336,-0.031,0.977,80.000,133113.000,1.000
-9.688,0.509,-3.084,-0.163,5.847,-0.002,0.429,6.078,-0.048,0.891,-0.397,-0.458,0.061,0.977,80.000,133114.000,1.000
-8.025,2.441,-1.599,1.409,7.598,2.225,2.014,6.828,-0.052,0.889,-0.394,-0.580,0.122,1.007,80.000,133115.000,1.000
-6.549,3.546,-0.065,3.330,8.993,5.084,3.920,8.183,-0.056,0.889,-0.393,-0.671,0.153,0.977,80.000,133116.000,1.000
-6.107,3.373,0.863,4.643,9.246,7.639,5.259,8.962,-0.055,0.888,-0.395,-0.702,0.153,0.916,80.000,133117.000,1.000
-6.964,1.859,0.670,4.485,7.801,8.936,5.189,7.821,-0.056,0.887,-0.397,-0.732,0.122,0.854,80.000,133118.000,1.000
-8.809,-0.775,-1.009,2.409,4.512,8.224,2.996,4.043,-0.054,0.887,-0.396,-0.702,0.061,0.793,80.000,133119.000,1.000
-10.816,-3.885,-3.947,-1.218,-0.014,5.457,-1.299,-1.645,-0.053,0.890,-0.396,-0.671,-0.031,0.824,80.000,133120.000,1.000
-11.868,-6.345,-7.084,-5.094,-4.228,1.785,-6.162,-6.841,-0.054,0.888,-0.399,-0.763,-0.061,0.824,80.000,133121.000,1.000
-11.208,-7.134,-9.090,-7.696,-6.434,-0.945,-9.160,-8.975,-0.054,0.888,-0.396,-0.732,-0.122,0.824,80.000,133122.000,1.000
-9.079,-6.171,-9.316,-8.400,-6.105,-1.565,-8.867,-7.496,-0.053,0.887,-0.398,-0.885,0.000,0.854,80.000,133123.000,1.000
-6.659,-4.462,-8.398,-7.858,-4.240,-0.378,-6.088,-4.262,-0.052,0.887,-0.398,-0.885,-0.061,0.854,80.000,133124.000,1.000
-5.354,-3.515,-7.623,-7.349,-2.613,1.141,-3.185,-1.988,-0.054,0.888,-0.398,-0.854,-0.122,0.793,80.000,133125.000,1.000
-5.963,-4.361,-7.909,-7.794,-2.554,1.541,-2.293,-2.444,-0.055,0.890,-0.399,-0.854,-0.153,0.732,80.000,133126.000,1.000
-8.077,-6.615,-8.938,-8.931,-3.809,0.801,-3.495,-5.146,-0.057,0.891,-0.397,-0.946,-0.275,0.641,80.000,133127.000,1.000
-10.311,-8.701,-9.199,-9.465,-4.702,0.197,-4.787,-7.522,-0.057,0.892,-0.396,-1.038,-0.366,0.580,80.000,133128.000,1.000
-11.305,-9.240,-7.428,-8.252,-3.766,0.601,-4.349,-7.071,-0.056,0.895,-0.393,-1.160,-0.397,0.580,80.000,133129.000,1.000
-10.501,-7.980,-3.498,-5.206,-0.924,1.699,-2.271,-3.540,-0.057,0.898,-0.395,-1.251,-0.366,0.427,80.000,133130.000,1.000
-8.298,-5.580,1.543,-1.283,2.760,2.855,-0.106,1.111,-0.059,0.900,-0.396,-1.373,-0.580,0.275,80.000,133131.000,1.000
-5.773,-2.967,5.984,2.150,6.061,3.950,0.935,4.786,-0.058,0.900,-0.396,-1.556,-0.763,0.275,80.000,133132.000,1.000
-3.977,-0.772,8.564,4.203,8.415,5.406,1.200,7.013,-0.056,0.902,-0.392,-1.709,-0.854,0.183,80.000,133133.000,1.000
-3.231,0.966,9.160,4.915,10.048,7.716,1.904,8.470,-0.057,0.902,-0.394,-1.831,-1.038,0.214,80.000,133134.000,1.000
-3.178,2.465,8.645,4.880,11.308,10.696,3.728,9.609,-0.055,0.899,-0.396,-2.014,-1.038,0.031,80.000,133135.000,1.000
-3.483,3.632,7.814,4.595,12.094,13.143,6.196,10.377,-0.054,0.898,-0.395,-2.136,-1.068,0.031,80.000,133136.000,1.000
-4.218,4.053,6.702,4.173,11.929,13.574,8.038,10.551,-0.054,0.896,-0.396,-2.197,-1.129,0.000,80.000,133137.000,1.000
-5.730,3.326,4.891,3.283,10.235,11.294,7.866,9.477,-0.051,0.894,-0.394,-2.289,-1.160,0.031,80.000,133138.000,1.000
-8.174,1.442,2.033,1.449,6.796,7.010,5.040,6.271,-0.051,0.892,-0.393,-2.350,-1.160,0.061,80.000,133139.000,1.000
-10.988,-0.909,-1.295,-1.130,2.400,2.646,0.724,1.252,-0.051,0.890,-0.391,-2.350,-1.099,0.092,80.000,133140.000,1.000
-13.034,-2.633,-3.752,-3.445,-1.420,0.063,-2.746,-3.791,-0.050,0.889,-0.394,-2.319,-1.038,0.031,80.000,133141.000,1.000
-13.390,-3.010,-4.355,-4.514,-3.475,-0.146,-3.739,-7.036,-0.051,0.885,-0.391,-2.228,-1.160,0.031,80.000,133142.000,1.000
-11.943,-2.058,-3.114,-4.020,-3.412,1.536,-2.006,-7.573,-0.051,0.885,-0.393,-2.136,-1.129,0.000,80.000,133143.000,1.000
-9.436,-0.397,-1.083,-2.374,-1.609,4.188,1.500,-5.508,-0.052,0.883,-0.396,-1.953,-1.099,0.000,80.000,133144.000,1.000
-7.116,1.064,0.369,-0.453,0.972,6.670,5.123,-1.818,-0.052,0.884,-0.395,-1.862,-1.160,0.031,80.000,133145.000,1.000
-6.105,1.559,0.340,0.794,3.231,8.137,7.535,2.218,-0.055,0.885,-0.392,-1.709,-1.190,0.031,80.000,133146.000,1.000
-6.956,0.742,-1.364,0.656,4.393,8.436,8.427,5.553,-0.054,0.883,-0.392,-1.617,-1.099,0.061,80.000,133147.000,1.000
-9.756,-1.517,-4.454,-1.328,3.884,7.587,7.904,7.180,-0.055,0.883,-0.393,-1.556,-1.129,0.092,80.000,133148.000,1.000
-14.274,-5.160,-8.614,-5.253,1.351,5.471,5.867,6.274,-0.055,0.882,-0.392,-1.373,-1.160,0.122,80.000,133149.000,1.000
-19.742,-9.504,-13.142,-10.330,-2.659,2.577,2.950,3.287,-0.054,0.882,-0.391,-1.312,-1.221,0.092,80.000,133150.000,1.000
-24.847,-13.238,-16.878,-14.937,-6.558,0.296,0.885,0.095,-0.054,0.885,-0.392,-1.129,-1.434,0.214,80.000,133151.000,1.000
-28.280,-15.205,-18.758,-17.467,-8.700,-0.170,1.099,-1.466,-0.055,0.883,-0.391,-1.007,-1.404,0.092,80.000,133152.000,1.000
-29.480,-15.147,-18.270,-17.202,-8.453,1.088,3.483,-0.824,-0.056,0.883,-0.393,-0.916,-1.434,0.183,80.000,133153.000,1.000
-29.068,-13.823,-15.984,-14.693,-6.517,2.814,6.472,1.201,-0.058,0.883,-0.391,-0.854,-1.343,0.153,80.000,133154.000,1.000
-28.554,-12.545,-13.323,-11.429,-4.352,3.608,8.335,3.136,-0.055,0.882,-0.393,-0.702,-1.373,0.183,80.000,133155.000,1.000
-29.348,-12.491,-11.787,-9.044,-3.272,2.756,8.290,3.714,-0.057,0.884,-0.392,-0.488,-1.465,0.153,80.000,133156.000,1.000
-31.807,-14.157,-12.147,-8.568,-3.971,0.155,6.390,2.212,-0.054,0.884,-0.393,-0.427,-1.373,0.275,80.000,133157.000,1.000
-35.063,-17.175,-13.993,-10.066,-6.450,-4.017,2.950,-1.483,-0.054,0.884,-0.392,-0.336,-1.434,0.366,80.000,133158.000,1.000
-37.700,-20.518,-16.319,-12.758,-10.008,-9.024,-1.486,-6.775,-0.053,0.883,-0.393,-0.153,-1.495,0.427,80.000,133159.000,1.000
-38.679,-23.017,-18.176,-15.485,-13.483,-13.383,-5.840,-12.502,-0.052,0.884,-0.393,-0.122,-1.495,0.580,80.000,133160.000,1.000
-37.877,-23.978,-19.112,-17.271,-15.863,-15.692,-9.008,-17.405,-0.052,0.885,-0.394,-0.031,-1.465,0.610,80.000,133161.000,1.000
-36.028,-23.489,-19.244,-17.771,-16.856,-15.726,-10.799,-20.746,-0.054,0.885,-0.390,0.061,-1.404,0.610,80.000,133162.000,1.000
-34.257,-22.240,-18.883,-17.345,-16.929,-14.472,-11.931,-22.564,-0.052,0.886,-0.390,0.244,-1.434,0.641,80.000,133163.000,1.000
-33.338,-20.934,-18.376,-16.556,-16.615,-13.082,-13.081,-23.028,-0.053,0.887,-0.391,0.214,-1.495,0.702,80.000,133164.000,1.000
-33.141,-19.787,-17.805,-15.594,-15.872,-11.912,-13.990,-21.790,-0.052,0.889,-0.391,0.275,-1.434,0.763,80.000,133165.000,1.000
-32.864,-18.564,-17.059,-14.353,-14.311,-10.475,-13.788,-18.529,-0.052,0.889,-0.391,0.305,-1.434,0.824,80.000,133166.000,1.000
-31.731,-16.948,-16.009,-12.708,-11.681,-8.042,-11.791,-13.454,-0.052,0.890,-0.392,0.305,-1.434,0.977,80.000,133167.000,1.000
-29.549,-14.926,-14.548,-10.599,-8.084,-4.400,-7.795,-7.010,-0.054,0.891,-0.393,0.336,-1.526,1.007,80.000,133168.000,1.000
-26.845,-12.977,-13.078,-8.302,-4.164,-0.199,-2.386,0.015,-0.054,0.894,-0.394,0.336,-1.556,0.977,80.000,133169.000,1.000
-24.516,-11.827,-12.359,-6.495,-1.036,3.481,3.160,6.169,-0.055,0.895,-0.397,0.275,-1.465,0.977,80.000,133170.000,1.000
-23.248,-12.004,-12.922,-5.834,0.275,5.713,7.387,9.804,-0.055,0.897,-0.396,0.092,-1.526,0.977,80.000,133171.000,1.000
-23.007,-13.428,-14.578,-6.323,-0.439,6.079,9.292,10.212,-0.055,0.898,-0.393,0.153,-1.404,1.007,80.000,133172.000,1.000
-22.908,-15.255,-16.172,-7.077,-2.245,4.851,9.044,8.411,-0.057,0.898,-0.392,0.000,-1.465,1.007,80.000,133173.000,1.000
-21.770,-16.294,-16.426,-6.961,-3.648,2.810,7.750,6.432,-0.055,0.899,-0.395,-0.183,-1.434,1.038,80.000,133174.000,1.000
-19.168,-16.000,-14.942,-5.738,-3.961,0.459,6.056,5.138,-0.057,0.897,-0.394,-0.305,-1.495,1.038,80.000,133175.000,1.000
-16.025,-15.056,-12.692,-4.568,-4.069,-2.484,3.142,3.032,-0.057,0.895,-0.393,-0.519,-1.556,0.977,80.000,133176.000,1.000
-13.863,-14.545,-11.217,-4.874,-5.268,-6.141,-1.801,-1.671,-0.055,0.893,-0.392,-0.702,-1.617,0.977,80.000,133177.000,1.000
-13.333,-14.583,-10.897,-6.681,-7.486,-9.220,-7.318,-8.099,-0.055,0.890,-0.393,-0.702,-1.587,1.007,80.000,133178.000,1.000
-13.667,-14.169,-10.700,-8.524,-9.158,-9.560,-10.337,-12.969,-0.052,0.890,-0.392,-0.671,-1.526,0.885,80.000,133179.000,1.000
-13.469,-12.270,-9.200,-8.774,-8.727,-6.177,-8.872,-13.349,-0.051,0.891,-0.394,-0.519,-1.404,0.916,80.000,133180.000,1.000
-11.774,-8.785,-5.776,-6.795,-5.963,-0.617,-3.839,-8.794,-0.050,0.894,-0.396,-0.519,-1.434,0.763,80.000,133181.000,1.000
-8.436,-4.486,-0.989,-3.070,-1.940,4.161,1.697,-1.480,-0.052,0.896,-0.399,-0.519,-1.404,0.732,80.000,133182.000,1.000
-3.929,-0.255,4.112,1.358,1.988,6.322,5.037,5.302,-0.050,0.895,-0.398,-0.671,-1.434,0.916,80.000,133183.000,1.000
1.009,3.512,8.588,5.499,5.133,6.447,5.592,9.243,-0.048,0.896,-0.396,-0.916,-1.343,1.007,80.000,133184.000,1.000
5.678,6.868,12.049,8.782,7.630,6.539,4.797,10.263,-0.047,0.892,-0.395,-0.946,-1.282,1.068,80.000,133185.000,1.000
9.536,9.853,14.530,11.079,9.972,8.011,4.570,10.058,-0.047,0.889,-0.395,-0.916,-1.221,1.007,80.000,133186.000,1.000
12.264,12.300,16.148,12.597,12.578,10.778,5.969,10.728,-0.050,0.886,-0.394,-0.793,-1.099,0.977,80.000,133187.000,1.000
13.814,13.996,17.089,13.626,15.505,13.844,8.960,13.252,-0.052,0.886,-0.394,-0.732,-1.007,1.038,80.000,133188.000,1.000
14.334,14.819,17.323,14.176,18.263,16.203,12.533,16.672,-0.056,0.887,-0.391,-0.641,-1.007,1.007,80.000,133189.000,1.000
14.128,14.844,16.780,14.110,20.095,17.410,15.345,19.023,-0.057,0.888,-0.395,-0.580,-1.007,0.946,80.000,133190.000,1.000
13.614,14.358,15.545,13.515,20.485,17.658,16.512,19.004,-0.055,0.888,-0.393,-0.610,-1.221,0.824,80.000,133191.000,1.000
13.195,13.728,13.840,12.735,19.473,17.407,16.005,16.835,-0.058,0.888,-0.393,-0.549,-1.251,0.641,80.000,133192.000,1.000
13.135,13.255,12.118,12.118,17.614,17.119,14.685,13.977,-0.058,0.889,-0.393,-0.580,-1.282,0.580,80.000,133193.000,1.000
13.518,13.052,10.660,11.706,15.551,17.040,13.535,11.891,-0.059,0.890,-0.393,-0.580,-1.282,0.427,80.000,133194.000,1.000
14.350,13.066,9.567,11.350,13.666,17.062,13.038,11.125,-0.059,0.890,-0.394,-0.549,-1.434,0.244,80.000,133195.000,1.000
15.669,13.241,8.979,11.058,12.204,17.077,13.315,11.534,-0.057,0.891,-0.393,-0.488,-1.526,0.183,80.000,133196.000,1.000
17.393,13.518,8.953,10.987,11.325,17.326,14.140,12.623,-0.059,0.889,-0.395,-0.458,-1.617,0.153,80.000,133197.000,1.000
19.127,13.664,9.371,11.180,10.879,18.006,14.788,13.596,-0.056,0.892,-0.392,-0.519,-1.556,0.061,80.000,133198.000,1.000
20.333,13.390,9.938,11.618,10.533,18.812,14.484,13.880,-0.054,0.891,-0.393,-0.519,-1.526,-0.092,80.000,133199.000,1.000
20.795,12.711,10.633,12.491,10.266,19.189,13.472,13.944,-0.054,0.890,-0.392,-0.549,-1.526,-0.183,80.000,133200.000,1.000
20.750,11.969,11.656,13.939,10.323,18.876,12.837,14.753,-0.055,0.892,-0.391,-0.488,-1.587,-0.122,80.000,133201.000,1.000
20.594,11.451,12.861,15.478,10.606,17.963,13.031,16.112,-0.055,0.889,-0.392,-0.488,-1.617,-0.153,80.000,133202.000,1.000
20.593,11.120,13.806,16.154,10.524,16.513,13.359,16.503,-0.054,0.887,-0.398,-0.549,-1.556,-0.122,80.000,133203.000,1.000
20.866,10.766,14.006,15.396,9.648,14.514,12.800,14.852,-0.052,0.887,-0.399,-0.610,-1.556,-0.122,80.000,133204.000,1.000
21.520,10.393,13.528,13.686,8.340,12.418,11.300,11.936,-0.053,0.886,-0.401,-0.610,-1.617,-0.031,80.000,133205.000,1.000
22.614,10.293,12.985,12.196,7.501,11.208,9.962,9.726,-0.054,0.887,-0.399,-0.397,-1.556,0.000,80.000,133206.000,1.000
23.920,10.668,12.816,11.730,7.588,11.387,9.747,9.468,-0.055,0.886,-0.397,-0.305,-1.587,0.000,80.000,133207.000,1.000
24.883,11.376,13.048,12.173,8.159,12.290,10.505,10.765,-0.056,0.887,-0.395,-0.336,-1.587,0.000,80.000,133208.000,1.000
24.959,12.121,13.355,12.816,8.437,12.668,11.241,12.256,-0.057,0.888,-0.390,-0.214,-1.556,0.061,80.000,133209.000,1.000
24.061,12.770,13.551,13.084,8.108,11.719,11.145,12.855,-0.056,0.890,-0.392,-0.366,-1.587,0.153,80.000,133210.000,1.000
22.706,13.467,13.790,12.915,7.544,9.647,10.210,12.374,-0.060,0.889,-0.394,-0.397,-1.678,0.183,80.000,133211.000,1.000
21.730,14.424,14.214,12.606,7.346,7.347,8.867,11.190,-0.059,0.889,-0.395,-0.397,-1.709,0.214,80.000,133212.000,1.000
21.841,15.691,14.906,12.596,7.853,5.727,7.560,9.836,-0.062,0.890,-0.395,-0.458,-1.862,0.214,80.000,133213.000,1.000
23.300,17.215,15.804,13.352,9.163,5.471,6.761,9.064,-0.062,0.886,-0.391,-0.397,-1.892,0.275,80.000,133214.000,1.000
25.786,18.936,16.824,15.081,11.184,6.867,7.014,9.579,-0.062,0.887,-0.390,-0.488,-2.014,0.275,80.000,133215.000,1.000
28.509,20.693,17.781,17.349,13.432,9.456,8.348,11.214,-0.062,0.887,-0.395,-0.549,-2.136,0.214,80.000,133216.000,1.000
30.664,22.196,18.325,19.242,15.144,12.173,9.947,12.758,-0.060,0.890,-0.392,-0.702,-2.106,0.305,80.000,133217.000,1.000
31.862,23.124,18.355,20.000,15.735,14.000,10.853,12.922,-0.062,0.892,-0.391,-0.671,-2.197,0.305,80.000,133218.000,1.000
32.165,23.169,17.904,19.420,15.065,14.346,10.573,11.324,-0.064,0.889,-0.393,-0.641,-2.319,0.336,80.000,133219.000,1.000
31.879,22.167,17.082,17.807,13.392,13.233,9.307,8.664,-0.062,0.889,-0.395,-0.580,-2.380,0.366,80.000,133220.000,1.000
31.295,20.234,15.983,15.622,11.128,11.240,7.574,5.995,-0.059,0.887,-0.394,-0.641,-2.472,0.366,80.000,133221.000,1.000
30.519,17.727,14.530,13.244,8.608,9.037,5.568,3.926,-0.057,0.887,-0.392,-0.641,-2.533,0.427,80.000,133222.000,1.000
29.537,15.137,12.848,11.061,6.233,7.141,3.573,2.710,-0.060,0.888,-0.391,-0.671,-2.502,0.488,80.000,133223.000,1.000
28.388,12.906,11.233,9.413,4.513,5.838,2.214,2.415,-0.059,0.889,-0.395,-0.610,-2.411,0.427,80.000,133224.000,1.000
27.202,11.183,10.007,8.353,3.635,4.845,1.699,2.556,-0.058,0.889,-0.396,-0.732,-2.411,0.427,80.000,133225.000,1.000
26.185,9.907,9.450,7.748,3.393,3.592,1.557,2.252,-0.057,0.889,-0.392,-0.732,-2.502,0.549,80.000,133226.000,1.000
25.619,9.149,9.784,7.630,3.644,1.979,1.345,1.169,-0.058,0.887,-0.392,-0.702,-2.563,0.519,80.000,133227.000,1.000
25.709,9.052,11.236,8.123,4.343,0.348,0.900,-0.311,-0.057,0.889,-0.394,-0.702,-2.502,0.610,80.000,133228.000,1.000
26.346,9.533,13.586,9.020,5.220,-0.959,-0.110,-1.885,-0.057,0.888,-0.397,-0.702,-2.502,0.671,80.000,133229.000,1.000
27.216,10.343,16.255,9.908,5.938,-1.600,-1.813,-3.406,-0.059,0.888,-0.398,-0.641,-2.472,0.671,80.000,133230.000,1.000
28.073,11.337,18.677,10.618,6.544,-1.099,-3.506,-4.253,-0.058,0.887,-0.397,-0.580,-2.350,0.641,80.000,133231.000,1.000
28.769,12.518,20.443,11.357,7.453,0.882,-3.993,-3.458,-0.058,0.890,-0.397,-0.641,-2.441,0.610,80.000,133232.000,1.000
29.140,13.878,21.563,12.474,8.923,4.033,-2.474,-0.652,-0.059,0.890,-0.396,-0.702,-2.350,0.580,80.000,133233.000,1.000
28.964,15.313,22.163,14.104,10.711,7.393,0.746,3.364,-0.056,0.892,-0.396,-0.763,-2.350,0.549,80.000,133234.000,1.000
28.065,16.669,22.370,16.008,12.231,9.866,4.356,6.954,-0.056,0.891,-0.398,-0.732,-2.258,0.519,80.000,133235.000,1.000
26.390,17.707,22.221,17.585,12.840,10.553,6.627,8.442,-0.056,0.892,-0.397,-0.763,-2.258,0.458,80.000,133236.000,1.000
24.102,18.184,21.553,18.241,12.292,9.173,6.562,7.305,-0.056,0.891,-0.398,-0.702,-2.167,0.488,80.000,133237.000,1.000
21.691,18.140,20.433,17.889,11.094,6.519,4.826,4.734,-0.054,0.890,-0.397,-0.702,-2.136,0.488,80.000,133238.000,1.000
19.814,17.894,19.101,16.845,10.074,3.899,2.714,2.396,-0.054,0.891,-0.394,-0.824,-2.075,0.427,80.000,133239.000,1.000
18.960,17.805,17.936,15.546,9.795,2.347,1.114,1.281,-0.053,0.892,-0.392,-0.885,-2.014,0.397,80.000,133240.000,1.000
19.346,18.147,17.446,14.534,10.579,2.597,0.874,2.015,-0.053,0.892,-0.396,-0.916,-1.953,0.397,80.000,133241.000,1.000
20.881,18.825,17.735,14.160,12.204,4.452,2.323,4.610,-0.055,0.891,-0.399,-1.007,-1.862,0.366,80.000,133242.000,1.000
23.022,19.064,18.192,14.018,13.279,5.962,4.022,7.288,-0.054,0.893,-0.396,-1.190,-1.770,0.366,80.000,133243.000,1.000
24.970,17.945,17.778,13.140,11.983,4.737,3.447,7.149,-0.054,0.893,-0.391,-1.068,-1.678,0.397,80.000,133244.000,1.000
26.200,15.316,16.148,11.088,7.824,0.152,-0.536,2.948,-0.057,0.893,-0.392,-1.160,-1.556,0.366,80.000,133245.000,1.000
26.686,11.893,13.976,8.500,2.225,-6.254,-6.625,-3.508,-0.057,0.892,-0.390,-1.221,-1.617,0.336,80.000,133246.000,1.000
26.766,8.736,12.215,6.540,-2.474,-11.835,-12.068,-8.805,-0.059,0.895,-0.392,-1.343,-1.495,0.214,80.000,133247.000,1.000
26.872,6.698,11.613,5.977,-4.513,-14.276,-14.374,-10.477,-0.058,0.893,-0.393,-1.404,-1.404,0.214,80.000,133248.000,1.000
27.143,5.902,12.110,6.609,-3.756,-13.117,-13.124,-8.613,-0.059,0.890,-0.394,-1.282,-1.343,0.275,80.000,133249.000,1.000
27.264,5.699,12.972,7.532,-1.564,-10.078,-10.084,-5.320,-0.059,0.891,-0.394,-1.282,-1.343,0.305,80.000,133250.000,1.000
26.849,5.358,13.536,7.945,0.434,-7.367,-7.337,-2.803,-0.059,0.889,-0.394,-1.312,-1.373,0.214,80.000,133251.000,1.000
25.934,4.761,13.666,7.734,1.518,-5.886,-5.616,-1.873,-0.060,0.890,-0.394,-1.373,-1.312,0.214,80.000,133252.000,1.000
24.885,4.218,13.740,7.359,1.872,-5.409,-4.397,-1.796,-0.058,0.890,-0.393,-1.373,-1.190,0.275,80.000,133253.000,1.000
23.852,3.791,13.813,7.156,1.784,-5.689,-3.269,-1.456,-0.059,0.890,-0.391,-1.343,-1.312,0.305,80.000,133254.000,1.000
22.592,3.259,13.545,7.011,1.253,-6.572,-2.464,-0.554,-0.061,0.890,-0.392,-1.312,-1.221,0.458,80.000,133255.000,1.000
20.858,2.709,12.742,6.730,0.373,-7.399,-2.266,0.315,-0.062,0.890,-0.391,-1.190,-1.221,0.458,80.000,133256.000,1.000
18.662,2.619,11.404,6.309,-0.527,-7.300,-2.740,0.282,-0.060,0.890,-0.396,-1.251,-1.160,0.488,80.000,133257.000,1.000
16.141,3.194,9.638,5.764,-1.297,-6.243,-3.961,-1.270,-0.061,0.889,-0.396,-1.251,-1.282,0.458,80.000,133258.000,1.000
13.449,4.097,7.456,5.039,-2.104,-5.131,-6.078,-4.270,-0.060,0.889,-0.394,-1.312,-1.251,0.488,80.000,133259.000,1.000
10.777,4.763,4.983,4.110,-3.225,-4.926,-8.964,-8.091,-0.059,0.888,-0.394,-1.129,-1.160,0.641,80.000,133260.000,1.000
8.294,4.711,2.517,2.977,-4.833,-5.898,-11.894,-11.938,-0.059,0.887,-0.392,-1.099,-1.160,0.732,80.000,133261.000,1.000
6.219,3.879,0.425,1.803,-6.583,-7.204,-13.430,-14.603,-0.059,0.886,-0.396,-1.007,-1.099,0.732,80.000,133262.000,1.000
4.876,2.700,-0.781,0.936,-7.722,-7.654,-12.451,-14.891,-0.057,0.888,-0.396,-0.977,-1.038,0.824,80.000,133263.000,1.000
4.425,1.676,-1.041,0.533,-7.861,-7.174,-9.724,-12.816,-0.057,0.888,-0.394,-0.916,-1.038,0.854,80.000,133264.000,1.000
4.701,1.077,-0.773,0.446,-7.174,-6.731,-7.095,-9.388,-0.058,0.887,-0.393,-0.885,-1.038,0.977,80.000,133265.000,1.000
5.258,0.787,-0.570,0.225,-6.344,-7.377,-6.194,-6.137,-0.057,0.888,-0.392,-0.793,-0.977,1.129,80.000,133266.000,1.000
5.457,0.281,-1.087,-0.827,-6.442,-9.620,-8.135,-5.013,-0.056,0.888,-0.390,-0.671,-0.885,1.099,80.000,133267.000,1.000
4.924,-0.736,-2.243,-2.866,-7.812,-12.405,-12.134,-6.807,-0.056,0.889,-0.392,-0.702,-0.793,1.190,80.000,133268.000,1.000
4.032,-1.788,-3.133,-4.982,-9.366,-13.470,-15.445,-10.060,-0.058,0.886,-0.392,-0.702,-0.793,1.221,80.000,133269.000,1.000
3.576,-2.154,-2.781,-5.920,-9.675,-11.753,-15.882,-12.436,-0.057,0.886,-0.391,-0.671,-0.702,1.343,80.000,133270.000,1.000
3.961,-1.576,-0.926,-5.095,-8.124,-8.156,-13.256,-12.406,-0.058,0.886,-0.392,-0.519,-0.671,1.404,80.000,133271.000,1.000
4.871,-0.346,1.741,-2.926,-5.069,-4.092,-8.780,-9.998,-0.058,0.887,-0.390,-0.336,-0.702,1.373,80.000,133272.000,1.000
5.441,0.758,4.087,-0.606,-1.728,-0.878,-4.373,-6.766,-0.059,0.889,-0.391,-0.305,-0.610,1.373,80.000,133273.000,1.000
4.681,0.653,4.840,0.501,0.305,0.211,-2.029,-4.740,-0.058,0.888,-0.395,-0.336,-0.641,1.251,80.000,133274.000,1.000
2.178,-1.343,3.392,-0.273,0.059,-1.228,-2.521,-5.005,-0.058,0.886,-0.396,-0.214,-0.458,1.404,80.000,133275.000,1.000
-1.385,-4.846,0.352,-2.447,-2.105,-4.229,-4.913,-7.092,-0.057,0.884,-0.394,-0.214,-0.549,1.343,80.000,133276.000,1.000
-4.607,-8.505,-2.927,-4.738,-4.717,-7.208,-7.405,-9.250,-0.059,0.885,-0.392,-0.092,-0.580,1.312,80.000,133277.000,1.000
-6.473,-10.873,-5.080,-5.965,-6.217,-8.951,-8.334,-9.568,-0.058,0.886,-0.393,0.092,-0.488,1.312,80.000,133278.000,1.000
-7.087,-11.215,-5.692,-5.825,-5.855,-8.742,-6.825,-7.260,-0.060,0.886,-0.393,0.275,-0.519,1.434,80.000,133279.000,1.000
-7.318,-9.664,-5.269,-4.781,-3.886,-6.393,-3.043,-3.056,-0.057,0.884,-0.395,0.397,-0.488,1.465,80.000,133280.000,1.000
-8.220,-7.185,-4.801,-3.652,-1.534,-3.102,1.267,1.088,-0.059,0.885,-0.398,0.488,-0.519,1.495,80.000,133281.000,1.000
-10.635,-5.121,-5.363,-3.217,-0.303,-1.097,3.563,3.269,-0.059,0.885,-0.395,0.549,-0.458,1.434,80.000,133282.000,1.000
-14.591,-4.120,-7.113,-3.643,-0.654,-1.400,3.046,3.239,-0.059,0.885,-0.395,0.702,-0.458,1.556,80.000,133283.000,1.000
-19.245,-4.017,-9.517,-4.659,-2.018,-3.132,0.880,1.865,-0.061,0.885,-0.394,0.946,-0.549,1.648,80.000,133284.000,1.000
-23.585,-4.745,-12.157,-6.214,-3.976,-5.137,-1.786,-0.540,-0.060,0.884,-0.393,1.160,-0.702,1.709,80.000,133285.000,1.000
-26.755,-6.425,-14.810,-8.360,-6.513,-7.157,-4.742,-4.284,-0.061,0.885,-0.391,1.312,-0.793,1.801,80.000,133286.000,1.000
-28.086,-8.764,-17.167,-10.744,-9.295,-9.248,-7.844,-8.910,-0.062,0.887,-0.394,1.312,-0.916,1.831,80.000,133287.000,1.000
-27.389,-10.910,-18.482,-12.547,-11.228,-10.564,-9.642,-12.329,-0.061,0.885,-0.390,1.495,-0.916,1.923,80.000,133288.000,1.000
-24.944,-11.727,-17.944,-12.852,-10.773,-9.030,-7.549,-11.800,-0.058,0.885,-0.390,1.526,-1.038,2.075,80.000,133289.000,1.000
-21.313,-10.495,-15.240,-11.353,-7.215,-3.164,-0.190,-6.484,-0.056,0.886,-0.396,1.770,-1.129,2.167,80.000,133290.000,1.000
-17.465,-7.973,-11.298,-9.209,-2.297,4.696,9.365,0.411,-0.059,0.888,-0.401,1.923,-1.129,2.289,80.000,133291.000,1.000
-14.565,-6.216,-8.198,-8.559,0.303,8.549,14.164,3.229,-0.059,0.887,-0.396,2.075,-1.099,2.350,80.000,133292.000,1.000
-13.167,-6.682,-7.344,-10.524,-1.800,4.314,9.585,-1.152,-0.059,0.889,-0.394,2.014,-1.129,2.502,80.000,133293.000,1.000
-12.719,-8.671,-8.322,-13.924,-7.133,-5.319,-1.557,-9.968,-0.058,0.886,-0.392,2.075,-1.068,2.502,80.000,133294.000,1.000
-11.941,-9.816,-9.136,-15.955,-11.202,-12.675,-10.595,-16.065,-0.055,0.887,-0.391,2.136,-1.038,2.472,80.000,133295.000,1.000
-10.051,-8.432,-8.032,-14.640,-10.461,-12.187,-10.532,-13.958,-0.055,0.888,-0.391,2.136,-1.038,2.411,80.000,133296.000,1.000
-7.818,-5.584,-5.580,-11.047,-5.959,-5.899,-2.914,-5.582,-0.054,0.889,-0.394,2.136,-0.946,2.502,80.000,133297.000,1.000
-7.082,-4.390,-4.087,-8.530,-2.440,-1.281,3.806,1.230,-0.053,0.889,-0.398,2.106,-0.854,2.563,80.000,133298.000,1.000
-9.075,-7.100,-5.385,-9.657,-3.723,-3.959,2.478,0.266,-0.052,0.889,-0.398,2.167,-0.763,2.594,80.000,133299.000,1.000
-13.039,-12.817,-8.762,-13.800,-9.198,-12.869,-6.467,-7.659,-0.052,0.888,-0.398,2.167,-0.732,2.625,80.000,133300.000,1.000
-16.601,-17.943,-11.232,-17.604,-14.389,-21.199,-15.662,-15.914,-0.053,0.886,-0.400,2.289,-0.763,2.625,80.000,133301.000,1.000
-17.828,-19.092,-10.388,-17.922,-14.880,-22.121,-17.449,-17.991,-0.054,0.885,-0.396,2.380,-0.671,2.563,80.000,133302.000,1.000
-16.672,-15.621,-6.292,-14.165,-9.844,-14.569,-10.158,-12.384,-0.053,0.886,-0.397,2.502,-0.580,2.563,80.000,133303.000,1.000
-14.551,-9.551,-1.200,-8.188,-2.028,-3.570,1.513,-2.467,-0.051,0.888,-0.397,2.686,-0.519,2.563,80.000,133304.000,1.000
-13.144,-3.760,2.234,-2.747,4.671,4.305,10.918,6.681,-0.051,0.891,-0.396,2.655,-0.488,2.472,80.000,133305.000,1.000
-13.481,-0.283,2.515,-0.058,7.467,5.479,13.623,10.925,-0.049,0.895,-0.397,2.594,-0.488,2.533,80.000,133306.000,1.000
-15.493,0.482,-0.231,-0.815,5.917,1.148,9.477,8.827,-0.046,0.894,-0.392,2.502,-0.458,2.441,80.000,133307.000,1.000
-18.184,-0.552,-4.438,-4.009,1.775,-4.343,2.374,2.322,-0.049,0.894,-0.391,2.380,-0.244,2.411,80.000,133308.000,1.000
-20.330,-2.285,-8.507,-7.906,-2.625,-7.498,-3.324,-5.079,-0.050,0.892,-0.395,2.319,-0.092,2.258,80.000,133309.000,1.000
-21.081,-4.110,-11.564,-11.024,-5.813,-8.060,-5.911,-10.605,-0.049,0.892,-0.393,2.258,-0.031,2.319,80.000,133310.000,1.000
-20.224,-5.728,-13.169,-12.463,-7.161,-7.401,-5.560,-12.588,-0.048,0.890,-0.396,2.167,-0.031,2.289,80.000,133311.000,1.000
-18.046,-6.724,-13.086,-11.879,-6.267,-5.720,-2.225,-10.009,-0.049,0.889,-0.394,2.228,0.061,2.167,80.000,133312.000,1.000
-14.881,-6.542,-11.057,-9.359,-3.006,-2.092,4.247,-2.954,-0.050,0.890,-0.396,2.106,0.214,2.075,80.000,133313.000,1.000
-11.151,-5.248,-7.626,-5.805,1.359,2.538,11.441,5.868,-0.052,0.888,-0.398,2.136,0.305,1.953,80.000,133314.000,1.000
-7.756,-4.096,-4.553,-3.199,3.770,4.145,13.644,10.898,-0.052,0.880,-0.400,2.136,0.519,1.862,80.000,133315.000,1.000
-5.728,-4.492,-3.632,-3.341,1.652,-0.680,6.400,7.556,-0.054,0.877,-0.402,2.197,0.488,1.709,80.000,133316.000,1.000
-5.278,-6.376,-5.083,-5.984,-4.141,-10.376,-8.128,-2.812,-0.054,0.873,-0.401,2.411,0.458,1.556,80.000,133317.000,1.000
-5.512,-8.152,-7.061,-8.788,-9.675,-19.282,-21.905,-13.376,-0.055,0.871,-0.402,2.808,0.397,1.434,80.000,133318.000,1.000
-5.291,-8.288,-7.512,-9.425,-11.385,-22.564,-27.650,-17.707,-0.054,0.875,-0.399,3.265,0.305,1.282,80.000,133319.000,1.000
-4.391,-6.839,-6.054,-7.613,-8.891,-19.686,-24.048,-14.602,-0.056,0.882,-0.398,3.571,0.244,1.160,80.000,133320.000,1.000
-3.768,-5.458,-4.190,-5.234,-4.866,-13.841,-15.504,-7.927,-0.054,0.890,-0.395,3.693,0.092,1.007,80.000,133321.000,1.000
-4.341,-5.613,-3.712,-4.347,-2.274,-8.654,-7.729,-2.467,-0.051,0.896,-0.391,3.510,0.153,1.099,80.000,133322.000,1.000
-5.602,-6.852,-4.441,-5.031,-1.670,-5.325,-3.181,0.046,-0.048,0.898,-0.389,3.265,0.122,1.099,80.000,133323.000,1.000
-6.079,-7.323,-4.658,-5.687,-1.392,-2.655,-0.717,0.950,-0.048,0.895,-0.388,2.838,0.092,1.129,80.000,133324.000,1.000
-5.096,-5.908,-3.218,-5.023,0.112,0.688,1.596,2.126,-0.049,0.889,-0.393,2.594,0.244,1.190,80.000,133325.000,1.000
-3.585,-3.361,-0.688,-3.236,2.741,4.275,4.239,4.362,-0.048,0.882,-0.394,2.380,0.336,1.190,80.000,133326.000,1.000
-3.149,-1.364,1.227,-1.492,5.169,6.140,6.152,7.251,-0.052,0.880,-0.397,2.411,0.488,1.251,80.000,133327.000,1.000
-4.664,-0.921,1.395,-0.774,6.011,4.574,5.979,9.457,-0.052,0.880,-0.401,2.594,0.458,1.221,80.000,133328.000,1.000
-7.865,-1.818,-0.323,-1.465,4.464,-0.479,2.819,8.990,-0.056,0.883,-0.402,2.838,0.336,1.160,80.000,133329.000,1.000
-11.660,-3.000,-3.167,-3.254,0.790,-7.022,-2.775,4.718,-0.058,0.888,-0.404,3.021,0.214,1.160,80.000,133330.000,1.000
-14.438,-2.986,-5.510,-4.808,-3.052,-11.407,-7.628,-1.348,-0.060,0.892,-0.403,3.082,0.122,1.129,80.000,133331.000,1.000
-14.721,-0.610,-5.742,-4.292,-4.132,-10.146,-7.181,-4.429,-0.062,0.896,-0.399,3.021,-0.061,1.038,80.000,133332.000,1.000
-12.432,3.704,-3.562,-1.165,-1.108,-2.696,0.621,-1.197,-0.058,0.897,-0.395,2.777,-0.122,1.007,80.000,133333.000,1.000
-9.294,7.740,-0.771,2.813,4.246,7.666,12.709,6.729,-0.054,0.897,-0.397,2.625,-0.183,0.977,80.000,133334.000,1.000
-7.448,9.156,0.189,5.058,8.612,16.108,23.222,14.473,-0.052,0.896,-0.395,2.472,-0.214,1.068,80.000,133335.000,1.000
-7.933,7.143,-1.771,4.205,9.688,19.195,27.806,18.090,-0.051,0.894,-0.397,2.167,-0.336,1.038,80.000,133336.000,1.000
-10.396,2.579,-6.064,0.668,7.218,16.296,25.396,16.520,-0.053,0.889,-0.400,2.106,-0.336,1.099,80.000,133337.000,1.000
-13.676,-2.867,-11.000,-4.017,2.435,9.200,17.659,11.005,-0.054,0.883,-0.404,2.045,-0.214,1.251,80.000,133338.000,1.000
-16.475,-7.623,-14.990,-8.124,-2.833,0.930,7.689,3.957,-0.054,0.880,-0.402,2.167,-0.366,1.251,80.000,133339.000,1.000
-17.652,-10.511,-16.904,-10.265,-6.760,-5.399,-1.031,-1.831,-0.054,0.879,-0.403,2.228,-0.336,1.343,80.000,133340.000,1.000
-16.551,-10.946,-16.104,-9.756,-8.188,-7.837,-5.897,-4.325,-0.052,0.874,-0.406,2.533,-0.580,1.312,80.000,133341.000,1.000
-13.522,-9.256,-13.077,-6.988,-7.198,-6.447,-6.299,-3.218,-0.051,0.874,-0.406,2.838,-0.549,1.312,80.000,133342.000,1.000
-10.066,-6.781,-9.347,-3.454,-5.096,-3.030,-3.614,0.113,-0.052,0.878,-0.406,3.143,-0.488,1.282,80.000,133343.000,1.000
-8.102,-5.359,-6.946,-1.218,-3.807,-0.163,-0.659,3.203,-0.050,0.881,-0.405,3.357,-0.549,1.343,80.000,133344.000,1.000
-8.389,-5.939,-6.858,-1.446,-4.479,0.532,0.156,4.000,-0.050,0.883,-0.403,3.387,-0.610,1.312,80.000,133345.000,1.000
-9.874,-7.708,-8.168,-3.424,-6.491,-0.330,-1.253,2.420,-0.051,0.886,-0.401,3.448,-0.610,1.312,80.000,133346.000,1.000
-11.056,-9.091,-9.401,-5.497,-8.224,-0.840,-3.076,0.139,-0.053,0.888,-0.402,3.448,-0.671,1.312,80.000,133347.000,1.000
-11.337,-9.067,-9.577,-6.433,-8.381,0.426,-3.109,-0.786,-0.053,0.887,-0.401,3.265,-0.702,1.282,80.000,133348.000,1.000
-11.032,-7.573,-8.669,-5.968,-6.661,3.431,-0.459,0.586,-0.053,0.890,-0.400,3.235,-0.793,1.343,80.000,133349.000,1.000
-10.912,-5.437,-7.428,-4.742,-3.979,6.531,3.333,3.251,-0.053,0.887,-0.401,3.143,-0.763,1.221,80.000,133350.000,1.000
-11.742,-3.867,-6.772,-3.730,-1.837,7.621,5.410,5.236,-0.050,0.887,-0.403,2.991,-0.763,1.190,80.000,133351.000,1.000
-13.567,-3.377,-7.077,-3.275,-0.910,6.152,4.426,5.669,-0.049,0.886,-0.405,2.869,-0.702,1.129,80.000,133352.000,1.000
-15.295,-3.191,-7.465,-2.648,-0.465,3.630,1.785,5.387,-0.048,0.885,-0.403,2.808,-0.702,1.221,80.000,133353.000,1.000
-15.634,-2.278,-6.961,-1.165,0.358,1.720,-0.456,5.275,-0.045,0.885,-0.405,2.808,-0.610,1.282,80.000,133354.000,1.000
-14.530,-0.809,-5.854,0.515,1.150,0.531,-1.601,4.944,-0.046,0.880,-0.408,2.808,-0.580,1.251,80.000,133355.000,1.000
-13.197,-0.041,-5.401,0.816,0.717,-0.764,-1.999,3.380,-0.048,0.879,-0.407,2.899,-0.549,1.251,80.000,133356.000,1.000
-12.799,-0.953,-6.623,-1.208,-1.456,-2.346,-2.049,0.166,-0.048,0.876,-0.406,2.991,-0.580,1.221,80.000,133357.000,1.000
-13.222,-3.176,-9.009,-4.760,-4.397,-3.240,-1.525,-3.632,-0.051,0.874,-0.406,3.265,-0.671,1.282,80.000,133358.000,1.000
-13.092,-5.094,-10.862,-7.622,-6.056,-2.145,0.248,-5.602,-0.051,0.875,-0.404,3.357,-0.702,1.251,80.000,133359.000,1.000
-11.256,-5.228,-10.688,-7.930,-4.938,1.218,3.519,-3.932,-0.050,0.877,-0.404,3.418,-0.671,1.129,80.000,133360.000,1.000
-8.119,-3.614,-8.439,-5.766,-1.521,5.555,7.427,0.641,-0.050,0.881,-0.406,3.448,-0.854,1.099,80.000,133361.000,1.000
-5.120,-1.610,-5.622,-2.870,2.167,8.702,10.183,5.227,-0.049,0.883,-0.407,3.510,-0.854,1.068,80.000,133362.000,1.000
-3.269,-0.593,-3.726,-1.093,4.090,8.912,10.038,6.781,-0.048,0.884,-0.411,3.479,-0.946,1.068,80.000,133363.000,1.000
-2.533,-0.951,-3.180,-1.131,3.630,6.215,6.624,4.348,-0.046,0.883,-0.411,3.448,-0.793,1.007,80.000,133364.000,1.000
-2.190,-1.919,-3.121,-2.070,2.120,2.792,2.071,0.389,-0.046,0.886,-0.409,3.357,-0.854,1.038,80.000,133365.000,1.000
-1.676,-2.465,-2.379,-2.368,1.530,1.134,-0.549,-1.210,-0.045,0.886,-0.409,3.296,-0.824,1.007,80.000,133366.000,1.000
-1.245,-2.443,-1.018,-1.501,2.431,1.689,-0.374,1.050,-0.051,0.886,-0.413,3.265,-0.885,0.916,80.000,133367.000,1.000
-1.694,-2.668,-0.026,-0.267,3.746,2.991,1.090,5.390,-0.049,0.890,-0.412,3.204,-0.885,0.824,80.000,133368.000,1.000
-3.436,-3.831,-0.219,0.348,4.354,3.851,2.356,9.185,-0.052,0.892,-0.412,3.326,-0.885,0.732,80.000,133369.000,1.000
-5.839,-5.489,-1.207,0.378,4.461,4.727,3.694,11.480,-0.053,0.894,-0.414,3.052,-1.099,0.641,80.000,133370.000,1.000
-7.644,-6.371,-1.620,0.661,5.047,6.583,5.914,12.607,-0.052,0.896,-0.411,2.899,-1.190,0.549,80.000,133371.000,1.000
-8.186,-5.744,-0.736,1.467,6.192,8.896,7.936,12.115,-0.052,0.898,-0.410,2.777,-1.251,0.366,80.000,133372.000,1.000
-7.998,-4.085,1.009,2.131,6.836,9.833,7.552,9.078,-0.051,0.898,-0.409,2.380,-1.282,0.305,80.000,133373.000,1.000
-8.135,-2.336,2.445,1.976,6.233,8.479,4.320,4.177,-0.054,0.898,-0.412,2.197,-1.282,0.244,80.000,133374.000,1.000
-8.861,-0.741,2.940,1.326,5.151,6.253,0.849,0.187,-0.052,0.899,-0.411,2.045,-1.404,0.092,80.000,133375.000,1.000
-9.181,1.239,3.068,1.328,5.264,5.498,0.511,-0.063,-0.050,0.901,-0.411,1.801,-1.373,0.061,80.000,133376.000,1.000
-8.017,3.727,3.413,2.539,7.193,6.780,3.709,3.633,-0.050,0.900,-0.410,1.587,-1.404,-0.122,80.000,133377.000,1.000
-5.517,5.743,3.789,4.148,9.737,8.603,7.705,8.640,-0.047,0.899,-0.410,1.251,-1.556,-0.061,80.000,133378.000,1.000
-2.875,6.174,3.499,4.864,11.301,9.679,9.754,11.905,-0.046,0.898,-0.407,0.885,-1.526,-0.061,80.000,133379.000,1.000
-1.161,4.953,2.377,4.257,11.450,10.187,9.436,12.292,-0.047,0.893,-0.408,0.732,-1.617,-0.031,80.000,133380.000,1.000
-0.732,2.899,0.937,2.835,10.748,10.657,8.008,10.668,-0.047,0.891,-0.409,0.641,-1.526,-0.061,80.000,133381.000,1.000
-1.421,0.846,-0.501,1.194,9.767,10.825,6.514,8.411,-0.048,0.888,-0.411,0.488,-1.556,-0.031,80.000,133382.000,1.000
-2.767,-0.738,-1.750,-0.358,8.717,10.089,5.306,6.467,-0.048,0.889,-0.410,0.366,-1.526,0.031,80.000,133383.000,1.000
-4.296,-1.830,-2.887,-1.810,7.536,8.322,4.147,5.089,-0.047,0.885,-0.411,0.275,-1.526,0.031,80.000,133384.000,1.000
-5.802,-2.851,-4.297,-3.380,5.892,5.913,2.391,3.847,-0.047,0.883,-0.411,0.244,-1.495,0.061,80.000,133385.000,1.000
-7.283,-4.368,-6.290,-5.300,3.374,3.389,-0.502,2.095,-0.050,0.881,-0.410,0.153,-1.373,0.122,80.000,133386.000,1.000
-8.613,-6.494,-8.854,-7.482,0.033,1.313,-4.381,-0.256,-0.051,0.879,-0.412,0.092,-1.404,0.183,80.000,133387.000,1.000
-9.358,-8.550,-11.222,-9.285,-3.279,0.378,-8.050,-2.402,-0.050,0.876,-0.409,0.092,-1.465,0.183,80.000,133388.000,1.000
-9.100,-9.469,-12.428,-9.941,-5.390,1.142,-10.020,-3.317,-0.052,0.876,-0.407,0.000,-1.495,0.214,80.000,133389.000,1.000
-7.884,-8.631,-11.964,-9.219,-5.690,3.630,-9.538,-2.664,-0.053,0.875,-0.408,0.061,-1.526,0.275,80.000,133390.000,1.000
-6.310,-6.469,-10.094,-7.655,-4.675,7.042,-7.213,-1.119,-0.053,0.877,-0.408,-0.061,-1.617,0.305,80.000,133391.000,1.000
-5.268,-4.385,-8.032,-6.287,-3.778,9.641,-5.012,-0.118,-0.053,0.877,-0.410,-0.153,-1.709,0.366,80.000,133392.000,1.000
-5.362,-3.769,-6.903,-5.859,-4.270,9.653,-4.732,-0.695,-0.055,0.876,-0.408,-0.092,-1.740,0.336,80.000,133393.000,1.000
-6.509,-4.969,-7.054,-6.250,-6.139,6.772,-6.543,-2.402,-0.055,0.876,-0.408,-0.214,-1.770,0.305,80.000,133394.000,1.000
-8.275,-7.354,-8.119,-6.898,-8.404,2.331,-9.269,-4.039,-0.055,0.875,-0.404,-0.122,-1.770,0.366,80.000,133395.000,1.000
-10.405,-10.004,-9.476,-7.561,-10.216,-1.757,-11.659,-5.166,-0.055,0.873,-0.404,-0.153,-1.862,0.366,80.000,133396.000,1.000
-12.628,-11.834,-10.583,-8.192,-11.069,-3.826,-12.928,-5.982,-0.055,0.873,-0.406,-0.092,-1.923,0.427,80.000,133397.000,1.000
-14.291,-11.684,-10.673,-8.437,-10.592,-3.164,-12.683,-6.451,-0.055,0.872,-0.409,-0.031,-2.014,0.519,80.000,133398.000,1.000
-14.979,-9.244,-9.619,-8.126,-8.968,-0.713,-11.425,-6.510,-0.052,0.872,-0.409,-0.031,-2.014,0.580,80.000,133399.000,1.000
-15.159,-5.704,-8.373,-7.719,-7.127,1.357,-10.337,-6.255,-0.052,0.873,-0.409,-0.031,-2.075,0.610,80.000,133400.000,1.000
-15.389,-2.761,-7.799,-7.587,-5.944,1.248,-10.264,-5.576,-0.051,0.874,-0.412,-0.153,-2.045,0.732,80.000,133401.000,1.000
-15.417,-1.248,-7.945,-7.494,-5.621,-1.229,-11.452,-4.596,-0.051,0.875,-0.411,-0.244,-2.014,0.824,80.000,133402.000,1.000
-14.826,-1.269,-8.434,-7.317,-6.239,-5.005,-13.976,-4.566,-0.049,0.873,-0.413,-0.244,-1.984,0.854,80.000,133403.000,1.000
-13.937,-2.856,-9.458,-7.649,-8.146,-8.967,-18.005,-7.171,-0.048,0.872,-0.416,-0.244,-1.984,0.916,80.000,133404.000,1.000
-13.279,-5.625,-11.175,-8.910,-11.145,-12.451,-22.846,-12.239,-0.049,0.872,-0.416,-0.122,-1.984,0.946,80.000,133405.000,1.000
-12.776,-8.433,-12.844,-10.564,-14.005,-14.811,-26.394,-17.198,-0.049,0.872,-0.417,-0.153,-1.892,1.068,80.000,133406.000,1.000
-11.999,-10.136,-13.660,-11.784,-15.421,-15.197,-26.573,-19.421,-0.050,0.875,-0.412,-0.061,-1.953,1.160,80.000,133407.000,1.000
-10.811,-10.559,-13.391,-12.324,-15.173,-13.368,-23.050,-18.360,-0.049,0.875,-0.413,-0.092,-1.953,1.099,80.000,133408.000,1.000
-9.498,-10.552,-12.591,-12.571,-14.175,-10.604,-17.747,-15.497,-0.048,0.875,-0.414,0.031,-1.892,1.221,80.000,133409.000,1.000
-8.395,-11.124,-12.010,-12.990,-13.540,-8.989,-13.391,-12.880,-0.047,0.877,-0.416,0.061,-1.831,1.221,80.000,133410.000,1.000
-7.780,-12.725,-12.021,-13.806,-13.774,-9.657,-11.452,-11.845,-0.049,0.877,-0.417,-0.031,-1.770,1.312,80.000,133411.000,1.000
-7.962,-15.144,-12.800,-15.031,-14.624,-11.975,-11.480,-12.507,-0.051,0.878,-0.417,-0.092,-1.801,1.373,80.000,133412.000,1.000
-8.686,-17.412,-13.711,-16.094,-15.157,-14.168,-11.704,-13.691,-0.051,0.881,-0.417,-0.153,-1.709,1.343,80.000,133413.000,1.000
-8.760,-18.069,-13.475,-15.851,-14.245,-14.746,-10.608,-13.736,-0.051,0.878,-0.417,-0.183,-1.740,1.312,80.000,133414.000,1.000
-7.230,-16.379,-11.371,-13.746,-11.680,-13.576,-8.159,-12.051,-0.051,0.882,-0.416,-0.275,-1.770,1.190,80.000,133415.000,1.000
-4.608,-13.175,-8.084,-10.729,-8.630,-11.598,-5.539,-9.801,-0.052,0.883,-0.418,-0.275,-1.678,1.099,80.000,133416.000,1.000
-2.424,-10.130,-5.325,-8.504,-6.639,-9.748,-3.902,-8.629,-0.050,0.884,-0.418,-0.397,-1.709,1.038,80.000,133417.000,1.000
-1.845,-8.421,-4.215,-7.970,-6.347,-8.404,-3.361,-8.937,-0.051,0.885,-0.419,-0.488,-1.678,0.854,80.000,133418.000,1.000
-2.988,-8.158,-4.834,-8.721,-7.276,-7.611,-3.541,-9.898,-0.049,0.887,-0.419,-0.610,-1.678,0.702,80.000,133419.000,1.000
-5.130,-8.707,-6.447,-9.705,-8.531,-7.513,-4.416,-10.595,-0.048,0.889,-0.415,-0.732,-1.617,0.610,80.000,133420.000,1.000
-7.175,-9.103,-7.812,-9.927,-9.236,-8.056,-5.787,-10.372,-0.047,0.889,-0.413,-0.946,-1.587,0.458,80.000,133421.000,1.000
-7.970,-8.243,-7.840,-8.712,-8.449,-8.120,-6.314,-8.467,-0.045,0.887,-0.415,-1.099,-1.495,0.549,80.000,133422.000,1.000
-6.877,-5.534,-6.029,-6.073,-5.781,-6.231,-4.441,-4.754,-0.043,0.884,-0.415,-1.343,-1.343,0.336,80.000,133423.000,1.000
-4.596,-1.926,-3.446,-3.282,-2.579,-2.912,-1.154,-1.179,-0.040,0.882,-0.419,-1.404,-1.251,0.305,80.000,133424.000,1.000
-2.937,0.367,-2.234,-2.141,-1.361,-0.988,0.298,-0.613,-0.042,0.880,-0.418,-1.556,-1.068,0.336,80.000,133425.000,1.000
-3.181,-0.217,-3.548,-3.224,-3.414,-2.657,-1.914,-3.736,-0.043,0.881,-0.420,-1.312,-0.763,0.275,80.000,133426.000,1.000
-4.897,-3.239,-6.759,-5.421,-7.599,-7.341,-6.555,-8.394,-0.043,0.883,-0.418,-1.343,-0.671,0.275,80.000,133427.000,1.000
-6.523,-6.949,-10.096,-7.216,-11.734,-12.767,-11.153,-12.070,-0.044,0.888,-0.418,-1.434,-0.580,0.244,80.000,133428.000,1.000
-6.791,-9.826,-12.252,-8.023,-14.387,-16.923,-14.156,-13.921,-0.046,0.888,-0.420,-1.465,-0.519,0.275,80.000,133429.000,1.000
-5.411,-11.249,-12.850,-8.105,-15.187,-18.592,-14.908,-14.285,-0.044,0.887,-0.417,-1.556,-0.610,0.244,80.000,133430.000,1.000
-2.764,-11.214,-11.911,-7.715,-14.229,-17.195,-12.961,-13.454,-0.045,0.884,-0.415,-1.740,-0.458,0.244,80.000,133431.000,1.000
0.630,-9.909,-9.723,-6.666,-11.710,-13.033,-8.371,-11.329,-0.047,0.884,-0.414,-1.923,-0.275,0.275,80.000,133432.000,1.000
4.293,-7.615,-6.554,-4.596,-8.007,-7.483,-1.968,-7.707,-0.048,0.886,-0.407,-1.923,-0.275,0.305,80.000,133433.000,1.000
7.578,-4.917,-3.115,-1.703,-3.993,-2.616,4.528,-3.075,-0.052,0.890,-0.406,-2.106,-0.336,0.305,80.000,133434.000,1.000
9.601,-2.729,-0.639,0.901,-1.086,-0.401,8.836,0.751,-0.052,0.894,-0.405,-2.411,-0.305,0.305,80.000,133435.000,1.000
9.625,-1.904,-0.184,1.781,-0.583,-1.738,9.140,1.346,-0.052,0.898,-0.406,-2.747,-0.458,0.305,80.000,133436.000,1.000
7.569,-2.734,-2.088,0.347,-2.631,-5.695,5.435,-2.192,-0.055,0.899,-0.405,-2.960,-0.427,0.275,80.000,133437.000,1.000
4.195,-4.871,-5.363,-2.541,-5.990,-9.968,-0.007,-7.993,-0.057,0.901,-0.402,-3.448,-0.549,0.427,80.000,133438.000,1.000
0.765,-7.587,-8.421,-5.358,-9.022,-12.539,-4.476,-13.094,-0.058,0.899,-0.406,-3.937,-0.671,0.610,80.000,133439.000,1.000
-1.454,-9.816,-9.910,-6.916,-10.633,-12.623,-6.650,-15.763,-0.059,0.892,-0.411,-4.395,-0.793,0.580,80.000,133440.000,1.000
-1.678,-10.249,-9.121,-6.651,-10.325,-10.350,-6.554,-15.792,-0.058,0.880,-0.411,-4.669,-0.885,0.671,80.000,133441.000,1.000
-0.084,-8.124,-6.501,-4.613,-8.186,-6.686,-5.098,-13.690,-0.061,0.868,-0.417,-4.639,-1.038,0.671,80.000,133442.000,1.000
2.270,-3.889,-3.030,-1.308,-4.909,-3.261,-3.337,-10.198,-0.061,0.857,-0.422,-4.333,-1.129,0.580,80.000,133443.000,1.000
4.242,1.243,0.477,2.646,-1.234,-0.862,-1.462,-6.002,-0.058,0.853,-0.424,-3.662,-1.343,0.610,80.000,133444.000,1.000
5.362,6.090,3.795,6.783,2.555,1.439,1.437,-1.389,-0.059,0.850,-0.421,-3.082,-1.495,0.549,80.000,133445.000,1.000
5.802,9.648,6.945,10.583,6.166,4.569,5.771,3.400,-0.060,0.854,-0.417,-2.380,-1.648,0.580,80.000,133446.000,1.000
5.791,10.972,9.224,13.057,8.585,7.482,9.731,7.147,-0.059,0.857,-0.418,-1.953,-1.862,0.549,80.000,133447.000,1.000
5.275,9.428,9.612,12.918,8.232,7.715,10.227,7.517,-0.056,0.862,-0.417,-1.648,-1.984,0.732,80.000,133448.000,1.000
4.261,5.363,7.610,9.554,4.305,3.947,5.698,2.897,-0.056,0.865,-0.415,-1.312,-2.075,0.732,80.000,133449.000,1.000
3.349,0.427,3.979,4.108,-1.894,-2.156,-1.782,-5.164,-0.056,0.866,-0.417,-1.099,-2.106,0.916,80.000,133450.000,1.000
3.449,-3.304,0.395,-0.893,-7.522,-6.988,-7.708,-12.377,-0.057,0.870,-0.417,-0.946,-2.075,0.977,80.000,133451.000,1.000
5.046,-4.648,-1.917,-3.253,-10.276,-8.097,-8.875,-14.972,-0.057,0.871,-0.419,-0.854,-2.167,1.038,80.000,133452.000,1.000
7.876,-3.847,-2.441,-2.403,-9.857,-6.199,-5.538,-12.137,-0.058,0.868,-0.418,-0.671,-2.258,1.068,80.000,133453.000,1.000
11.145,-2.071,-1.448,0.587,-7.621,-4.035,-0.482,-5.806,-0.057,0.862,-0.422,-0.458,-2.319,1.129,80.000,133454.000,1.000
14.122,-0.331,0.474,4.147,-5.008,-3.246,3.982,1.367,-0.058,0.863,-0.421,-0.092,-2.441,1.099,80.000,133455.000,1.000
16.416,0.941,2.749,6.974,-2.923,-3.353,7.036,6.968,-0.058,0.862,-0.418,0.366,-2.411,0.946,80.000,133456.000,1.000
17.575,1.239,4.226,7.855,-2.429,-3.864,7.493,8.443,-0.055,0.865,-0.421,0.732,-2.441,1.007,80.000,133457.000,1.000
16.977,-0.085,3.811,6.077,-4.346,-5.238,4.300,4.616,-0.055,0.871,-0.420,1.251,-2.563,0.977,80.000,133458.000,1.000
14.474,-2.838,1.398,2.294,-7.822,-7.283,-1.075,-2.225,-0.051,0.872,-0.419,1.282,-2.625,0.946,80.000,133459.000,1.000
10.880,-5.697,-1.750,-1.605,-10.525,-8.480,-4.963,-7.581,-0.054,0.877,-0.418,1.373,-2.563,1.007,80.000,133460.000,1.000
7.517,-7.267,-3.715,-3.797,-10.560,-7.529,-4.609,-8.380,-0.055,0.874,-0.413,1.434,-2.502,1.007,80.000,133461.000,1.000
5.299,-7.159,-3.520,-3.717,-7.886,-4.716,-0.436,-5.016,-0.053,0.873,-0.419,1.312,-2.563,1.099,80.000,133462.000,1.000
4.246,-6.040,-1.467,-2.067,-3.994,-1.455,4.965,-0.190,-0.055,0.879,-0.411,1.678,-2.502,1.007,80.000,133463.000,1.000
3.696,-4.950,1.105,-0.128,-0.701,0.935,8.946,3.395,-0.054,0.882,-0.417,1.801,-2.533,0.854,80.000,133464.000,1.000
2.996,-4.497,2.824,1.109,0.846,1.789,10.110,4.438,-0.057,0.895,-0.410,2.258,-2.594,0.732,80.000,133465.000,1.000
2.036,-4.398,3.401,1.530,0.699,1.352,8.857,3.444,-0.055,0.899,-0.409,1.892,-2.808,0.732,80.000,133466.000,1.000
1.303,-3.535,3.579,1.917,0.278,1.324,7.573,2.673,-0.057,0.905,-0.410,1.312,-2.869,0.885,80.000,133467.000,1.000
1.554,-0.639,4.816,3.461,1.564,4.156,9.559,4.832,-0.055,0.901,-0.406,0.824,-2.808,0.885,80.000,133468.000,1.000
3.097,4.355,7.731,6.471,5.004,10.062,15.428,10.001,-0.052,0.887,-0.415,0.153,-2.747,0.916,80.000,133469.000,1.000
5.193,9.568,11.148,9.613,8.477,15.538,21.450,14.693,-0.055,0.881,-0.409,0.244,-2.655,0.916,80.000,133470.000,1.000
6.479,12.370,13.126,10.867,9.106,16.370,22.956,15.135,-0.049,0.871,-0.416,0.061,-2.625,0.885,80.000,133471.000,1.000
6.091,11.396,12.379,9.200,5.887,11.637,18.605,10.757,-0.054,0.870,-0.420,0.305,-2.625,0.793,80.000,133472.000,1.000
4.367,7.375,9.317,5.329,0.312,4.241,11.116,4.221,-0.051,0.867,-0.415,0.702,-2.563,0.763,80.000,133473.000,1.000
2.442,2.224,5.270,0.926,-5.239,-2.091,4.022,-1.421,-0.053,0.866,-0.424,0.793,-2.594,0.793,80.000,133474.000,1.000
1.353,-2.230,1.564,-2.466,-9.123,-5.632,-1.054,-4.808,-0.056,0.869,-0.417,1.160,-2.502,0.763,80.000,133475.000,1.000
1.468,-4.864,-0.715,-3.950,-10.752,-6.702,-4.107,-6.084,-0.054,0.867,-0.419,1.312,-2.625,0.702,80.000,133476.000,1.000
2.411,-5.369,-1.194,-3.462,-10.154,-6.005,-5.234,-5.741,-0.056,0.874,-0.413,1.678,-2.380,0.580,80.000,133477.000,1.000
3.489,-4.077,0.003,-1.489,-7.486,-3.560,-3.580,-3.560,-0.055,0.877,-0.410,1.953,-2.441,0.427,80.000,133478.000,1.000
4.207,-1.728,2.151,1.211,-3.095,0.778,1.586,0.947,-0.052,0.885,-0.414,1.801,-2.502,0.427,80.000,133479.000,1.000
4.508,0.718,4.122,3.595,1.951,6.110,8.974,6.826,-0.052,0.888,-0.409,1.923,-2.441,0.366,80.000,133480.000,1.000
4.620,2.373,5.078,4.519,5.879,10.289,15.164,11.156,-0.051,0.888,-0.411,1.617,-2.441,0.519,80.000,133481.000,1.000
4.775,2.841,4.764,3.402,7.304,11.312,16.821,11.139,-0.055,0.892,-0.408,1.343,-2.441,0.458,80.000,133482.000,1.000
5.155,2.474,3.901,0.869,6.447,9.324,13.740,6.934,-0.053,0.890,-0.411,1.099,-2.441,0.427,80.000,133483.000,1.000
6.015,2.229,3.585,-1.471,5.161,7.097,9.298,1.984,-0.054,0.889,-0.410,0.854,-2.502,0.427,80.000,133484.000,1.000
7.820,3.160,4.739,-1.876,5.591,7.756,7.649,0.423,-0.054,0.891,-0.407,0.732,-2.563,0.397,80.000,133485.000,1.000
10.924,5.675,7.722,0.429,8.330,11.545,9.997,3.600,-0.052,0.889,-0.412,0.397,-2.594,0.427,80.000,133486.000,1.000
14.920,9.062,11.558,4.523,11.692,15.204,13.290,8.673,-0.053,0.895,-0.409,0.275,-2.472,0.397,80.000,133487.000,1.000
18.540,11.945,14.590,8.336,13.001,14.770,13.059,10.926,-0.050,0.894,-0.410,-0.031,-2.411,0.397,80.000,133488.000,1.000
20.379,13.399,15.423,10.078,10.819,9.097,7.315,7.678,-0.053,0.891,-0.410,-0.397,-2.197,0.488,80.000,133489.000,1.000
19.893,13.691,13.930,9.488,6.112,0.888,-1.871,0.345,-0.053,0.888,-0.407,-0.671,-2.228,0.458,80.000,133490.000,1.000
17.802,13.918,11.523,7.868,1.453,-5.658,-10.118,-6.868,-0.053,0.886,-0.410,-1.129,-2.197,0.336,80.000,133491.000,1.000
15.598,15.114,9.956,7.000,-0.682,-7.734,-13.721,-9.922,-0.056,0.888,-0.408,-1.129,-2.106,0.336,80.000,133492.000,1.000
14.662,17.660,10.527,8.057,0.890,-4.744,-11.053,-7.003,-0.052,0.882,-0.416,-1.526,-2.106,0.336,80.000,133493.000,1.000
15.441,21.017,13.188,10.847,5.523,2.052,-3.225,0.583,-0.054,0.883,-0.412,-1.495,-2.136,0.336,80.000,133494.000,1.000
17.184,23.799,16.474,13.811,10.955,9.920,6.150,8.912,-0.052,0.886,-0.406,-1.648,-2.136,0.183,80.000,133495.000,1.000
18.580,24.586,18.631,15.103,14.722,15.799,13.101,13.978,-0.051,0.885,-0.413,-1.953,-2.014,0.366,80.000,133496.000,1.000
18.755,22.966,18.651,13.966,15.879,18.044,15.798,14.470,-0.052,0.887,-0.409,-1.892,-2.014,0.366,80.000,133497.000,1.000
17.748,19.813,17.096,11.189,15.352,17.141,15.229,12.104,-0.052,0.886,-0.412,-2.319,-2.045,0.366,80.000,133498.000,1.000
16.226,16.624,15.334,8.342,14.857,14.897,13.472,9.550,-0.056,0.888,-0.407,-2.411,-1.984,0.458,80.000,133499.000,1.000
14.968,14.612,14.487,6.807,15.640,12.929,11.863,8.543,-0.053,0.886,-0.407,-2.686,-1.984,0.427,80.000,133500.000,1.000
14.400,14.071,14.932,7.185,17.893,11.733,10.657,9.410,-0.052,0.883,-0.413,-2.808,-1.801,0.488,80.000,133501.000,1.000
14.398,14.438,16.057,9.161,20.975,11.037,9.688,11.513,-0.053,0.882,-0.410,-2.838,-1.770,0.458,80.000,133502.000,1.000
14.601,14.969,17.201,11.965,24.085,10.702,9.205,14.100,-0.051,0.877,-0.416,-3.143,-1.740,0.580,80.000,133503.000,1.000
14.746,15.295,17.968,14.821,26.727,11.015,9.820,16.893,-0.055,0.877,-0.413,-2.960,-1.587,0.549,80.000,133504.000,1.000
14.615,15.320,18.121,16.943,28.481,12.136,11.833,19.693,-0.053,0.875,-0.416,-3.052,-1.678,0.580,80.000,133505.000,1.000
13.853,14.763,17.454,17.422,28.574,13.401,14.511,21.533,-0.052,0.875,-0.418,-3.021,-1.465,0.549,80.000,133506.000,1.000
12.114,13.116,15.521,15.554,26.115,13.482,16.067,20.965,-0.054,0.878,-0.407,-2.686,-1.404,0.671,80.000,133507.000,1.000
9.550,10.290,12.487,11.629,20.955,11.484,15.117,17.476,-0.052,0.877,-0.413,-2.869,-1.495,0.549,80.000,133508.000,1.000
7.007,7.191,9.271,7.114,14.269,8.002,12.028,12.251,-0.056,0.880,-0.409,-2.655,-1.343,0.610,80.000,133509.000,1.000
5.564,5.419,7.072,3.906,8.144,4.980,8.906,7.580,-0.053,0.881,-0.407,-2.869,-1.282,0.549,80.000,133510.000,1.000
5.796,6.251,6.771,3.244,4.379,4.392,7.944,5.387,-0.056,0.881,-0.410,-2.869,-1.221,0.702,80.000,133511.000,1.000
7.395,9.794,8.124,5.018,3.436,6.845,9.348,5.822,-0.054,0.885,-0.408,-2.869,-1.160,0.702,80.000,133512.000,1.000
9.387,14.884,10.165,8.032,4.354,11.125,11.337,7.250,-0.054,0.882,-0.412,-3.082,-1.129,0.702,80.000,133513.000,1.000
10.649,19.653,11.668,10.808,5.601,14.976,11.788,7.712,-0.054,0.885,-0.405,-2.930,-1.007,0.702,80.000,133514.000,1.000
10.504,22.469,11.819,12.451,6.158,16.610,9.996,6.629,-0.054,0.880,-0.412,-3.265,-1.007,0.702,80.000,133515.000,1.000
9.140,22.779,10.752,13.025,6.053,15.835,7.176,5.121,-0.057,0.881,-0.409,-3.143,-0.946,0.854,80.000,133516.000,1.000
7.552,21.348,9.146,13.203,6.068,13.933,5.304,4.774,-0.056,0.880,-0.407,-3.265,-0.854,0.732,80.000,133517.000,1.000
6.943,19.644,8.039,13.684,6.939,12.468,5.737,6.318,-0.057,0.878,-0.411,-3.326,-0.916,0.763,80.000,133518.000,1.000
7.937,18.791,8.107,14.672,8.756,12.189,8.243,9.179,-0.057,0.880,-0.406,-3.143,-0.916,0.702,80.000,133519.000,1.000
10.309,18.995,9.462,15.857,10.985,12.780,11.298,12.057,-0.056,0.875,-0.410,-3.235,-0.793,0.641,80.000,133520.000,1.000
13.272,19.692,11.965,16.767,12.849,13.322,13.286,13.880,-0.058,0.878,-0.406,-3.021,-0.916,0.702,80.000,133521.000,1.000
15.876,20.069,14.976,17.003,13.752,12.955,13.337,14.326,-0.055,0.877,-0.412,-3.021,-0.916,0.610,80.000,133522.000,1.000
17.412,19.568,17.796,16.458,13.516,11.208,11.595,13.701,-0.057,0.878,-0.409,-2.777,-0.946,0.671,80.000,133523.000,1.000
17.591,18.032,19.714,15.236,12.256,8.129,8.672,12.277,-0.054,0.878,-0.414,-2.777,-0.885,0.610,80.000,133524.000,1.000
16.541,15.631,20.194,13.541,10.262,4.470,5.360,10.101,-0.055,0.878,-0.414,-2.777,-0.854,0.702,80.000,133525.000,1.000
14.741,12.791,19.306,11.781,8.064,1.492,2.651,7.484,-0.053,0.879,-0.411,-2.594,-0.732,0.610,80.000,133526.000,1.000
12.739,10.005,17.376,10.408,6.284,0.206,1.214,5.092,-0.054,0.879,-0.413,-2.594,-0.763,0.671,80.000,133527.000,1.000
10.830,7.532,15.013,9.562,5.214,0.676,1.060,3.479,-0.053,0.882,-0.411,-2.411,-0.854,0.641,80.000,133528.000,1.000
9.027,5.265,12.644,8.885,4.619,1.802,1.347,2.662,-0.052,0.882,-0.413,-2.411,-0.641,0.671,80.000,133529.000,1.000
7.322,3.029,10.427,7.902,4.082,2.064,0.975,2.282,-0.052,0.883,-0.411,-2.228,-0.610,0.763,80.000,133530.000,1.000
5.931,1.126,8.710,6.635,3.610,1.003,-0.120,2.247,-0.050,0.883,-0.413,-2.319,-0.549,0.824,80.000,133531.000,1.000
5.221,0.413,7.811,5.715,3.804,-0.192,-0.745,3.039,-0.053,0.885,-0.408,-2.136,-0.366,0.916,80.000,133532.000,1.000
5.380,1.719,8.051,5.926,5.229,0.082,0.310,4.972,-0.050,0.885,-0.408,-2.106,-0.244,1.038,80.000,133533.000,1.000
6.171,5.128,9.338,7.477,7.684,2.208,2.670,7.224,-0.049,0.887,-0.408,-2.106,-0.183,1.129,80.000,133534.000,1.000
7.145,9.937,11.290,10.002,10.467,5.294,4.936,8.671,-0.048,0.885,-0.406,-2.045,-0.153,1.160,80.000,133535.000,1.000
7.884,15.023,13.555,12.970,13.038,8.223,6.303,9.286,-0.049,0.884,-0.407,-2.167,-0.031,1.221,80.000,133536.000,1.000
7.975,19.113,15.373,15.718,15.007,10.117,6.524,9.700,-0.053,0.882,-0.406,-2.045,0.061,1.190,80.000,133537.000,1.000
7.172,21.169,16.087,17.645,16.015,10.437,5.648,10.248,-0.053,0.880,-0.412,-2.014,0.092,1.251,80.000,133538.000,1.000
5.653,20.894,15.489,18.561,16.027,9.369,4.179,10.877,-0.052,0.879,-0.413,-1.831,0.122,1.373,80.000,133539.000,1.000
4.024,18.901,13.950,18.793,15.547,8.001,3.143,11.568,-0.053,0.875,-0.409,-1.678,0.183,1.312,80.000,133540.000,1.000
3.054,16.343,12.372,18.907,15.362,7.788,3.679,12.534,-0.054,0.875,-0.409,-1.648,0.214,1.282,80.000,133541.000,1.000
3.254,14.164,11.405,19.165,15.864,9.349,5.929,13.747,-0.054,0.877,-0.408,-1.373,0.305,1.343,80.000,133542.000,1.000
4.508,12.530,11.296,19.286,16.535,11.651,8.575,14.479,-0.052,0.877,-0.412,-1.221,0.305,1.312,80.000,133543.000,1.000
6.118,11.058,11.709,18.797,16.507,12.925,9.924,14.085,-0.052,0.878,-0.409,-1.129,0.305,1.312,80.000,133544.000,1.000
7.331,9.520,12.118,17.694,15.642,12.371,9.793,13.275,-0.052,0.878,-0.407,-1.129,0.244,1.251,80.000,133545.000,1.000
7.675,7.928,12.148,16.237,14.300,10.306,9.173,13.057,-0.053,0.878,-0.410,-0.977,0.305,1.221,80.000,133546.000,1.000
6.961,6.189,11.183,14.253,12.355,7.246,8.150,12.676,-0.053,0.877,-0.408,-0.854,0.244,1.221,80.000,133547.000,1.000
5.468,4.262,9.141,11.553,9.532,3.866,6.188,10.597,-0.054,0.875,-0.411,-0.885,0.183,1.190,80.000,133548.000,1.000
3.818,2.334,6.548,8.511,6.202,1.071,3.413,6.669,-0.055,0.873,-0.413,-0.793,0.305,1.160,80.000,133549.000,1.000
2.387,0.496,3.957,5.677,3.001,-0.756,0.475,1.968,-0.052,0.873,-0.413,-0.610,0.214,1.129,80.000,133550.000,1.000
1.205,-1.312,1.852,3.328,0.324,-1.906,-1.971,-2.370,-0.052,0.873,-0.409,-0.458,0.214,1.038,80.000,133551.000,1.000
0.497,-2.806,0.582,1.623,-1.383,-2.501,-3.259,-5.324,-0.052,0.875,-0.407,-0.336,0.122,1.007,80.000,133552.000,1.000
0.896,-3.192,0.712,0.870,-1.486,-2.191,-2.671,-5.981,-0.052,0.878,-0.408,-0.336,0.214,0.977,80.000,133553.000,1.000
2.859,-1.775,2.471,1.236,0.240,-0.728,-0.259,-4.299,-0.052,0.877,-0.405,-0.366,0.122,1.007,80.000,133554.000,1.000
5.994,1.366,5.442,2.550,3.271,1.672,3.003,-1.205,-0.052,0.879,-0.406,-0.336,0.061,0.885,80.000,133555.000,1.000
9.095,5.340,8.921,4.527,6.739,4.497,6.179,2.398,-0.053,0.880,-0.408,-0.366,0.000,0.885,80.000,133556.000,1.000
10.799,8.923,11.872,6.841,9.867,7.148,8.782,6.035,-0.053,0.879,-0.408,-0.366,-0.031,0.854,80.000,133557.000,1.000
10.302,11.087,13.408,8.970,11.912,8.887,10.422,9.009,-0.056,0.877,-0.407,-0.366,-0.092,0.763,80.000,133558.000,1.000
7.643,11.302,12.803,10.115,12.121,8.891,10.234,10.015,-0.055,0.878,-0.410,-0.397,-0.214,0.732,80.000,133559.000,1.000
3.604,9.804,9.853,9.711,10.318,7.001,7.729,8.278,-0.052,0.880,-0.409,-0.458,-0.275,0.732,80.000,133560.000,1.000
-0.586,7.638,5.479,8.015,7.387,4.370,4.011,4.612,-0.054,0.881,-0.408,-0.458,-0.275,0.702,80.000,133561.000,1.000
-3.718,5.996,1.123,5.840,4.631,2.455,0.817,0.630,-0.055,0.882,-0.409,-0.519,-0.366,0.641,80.000,133562.000,1.000
-5.072,5.299,-1.845,3.924,2.651,1.302,-1.256,-2.625,-0.053,0.882,-0.405,-0.488,-0.458,0.610,80.000,133563.000,1.000
-4.664,5.039,-2.946,2.559,1.124,-0.261,-3.110,-5.061,-0.054,0.883,-0.409,-0.519,-0.458,0.671,80.000,133564.000,1.000
-3.065,4.511,-2.509,1.799,-0.424,-2.848,-5.600,-6.874,-0.053,0.883,-0.409,-0.549,-0.427,0.641,80.000,133565.000,1.000
-1.100,3.345,-1.109,1.561,-2.115,-5.884,-8.470,-8.163,-0.054,0.882,-0.410,-0.610,-0.488,0.580,80.000,133566.000,1.000
0.352,1.487,0.258,1.418,-3.836,-8.376,-10.936,-9.091,-0.053,0.882,-0.409,-0.641,-0.549,0.610,80.000,133567.000,1.000
0.665,-0.854,0.799,0.843,-5.338,-9.580,-12.124,-9.708,-0.053,0.882,-0.406,-0.763,-0.610,0.671,80.000,133568.000,1.000
-0.248,-3.297,0.206,-0.419,-6.348,-9.349,-11.515,-9.906,-0.052,0.882,-0.404,-0.793,-0.671,0.610,80.000,133569.000,1.000
-1.865,-5.410,-1.178,-2.207,-6.762,-8.184,-9.322,-9.672,-0.052,0.881,-0.408,-0.793,-0.641,0.610,80.000,133570.000,1.000
-3.353,-6.781,-2.427,-4.074,-6.617,-6.683,-6.293,-9.122,-0.053,0.883,-0.407,-0.854,-0.641,0.610,80.000,133571.000,1.000
-4.152,-7.180,-3.036,-5.610,-5.944,-4.989,-3.214,-8.344,-0.053,0.885,-0.407,-0.977,-0.702,0.610,80.000,133572.000,1.000
-4.246,-6.726,-2.989,-6.545,-4.795,-3.054,-0.421,-7.226,-0.054,0.886,-0.409,-1.038,-0.732,0.610,80.000,133573.000,1.000
-4.013,-5.840,-2.707,-6.821,-3.380,-1.227,1.827,-5.661,-0.052,0.889,-0.406,-1.190,-0.824,0.580,80.000,133574.000,1.000
-3.986,-5.092,-2.834,-6.726,-2.179,-0.375,2.891,-3.955,-0.051,0.890,-0.408,-1.373,-0.854,0.671,80.000,133575.000,1.000
-4.738,-5.151,-3.961,-6.910,-1.964,-1.461,1.948,-3.029,-0.050,0.888,-0.406,-1.556,-0.793,0.641,80.000,133576.000,1.000
-6.613,-6.455,-6.584,-7.944,-3.294,-4.587,-1.249,-3.709,-0.051,0.885,-0.406,-1.678,-0.916,0.610,80.000,133577.000,1.000
-9.364,-8.652,-10.208,-9.628,-5.792,-8.354,-5.499,-5.646,-0.051,0.887,-0.407,-1.801,-0.946,0.610,80.000,133578.000,1.000
-12.265,-10.746,-13.703,-11.187,-8.369,-10.814,-8.968,-7.649,-0.051,0.887,-0.407,-1.953,-0.946,0.671,80.000,133579.000,1.000
-14.518,-11.760,-16.077,-11.881,-9.981,-10.976,-10.432,-8.615,-0.051,0.888,-0.402,-2.045,-1.007,0.671,80.000,133580.000,1.000
-15.521,-11.175,-16.624,-11.239,-10.009,-9.125,-9.592,-7.851,-0.052,0.889,-0.407,-2.197,-1.038,0.580,80.000,133581.000,1.000
-15.120,-9.219,-15.455,-9.285,-8.530,-6.544,-7.388,-5.437,-0.053,0.889,-0.406,-2.258,-1.007,0.610,80.000,133582.000,1.000
-13.659,-6.889,-13.252,-6.660,-6.450,-5.065,-5.599,-2.386,-0.051,0.888,-0.405,-2.350,-0.946,0.519,80.000,133583.000,1.000
-11.755,-5.371,-11.088,-4.531,-5.071,-5.914,-5.738,-0.300,-0.050,0.887,-0.406,-2.380,-1.068,0.549,80.000,133584.000,1.000
-9.985,-5.324,-9.960,-4.095,-5.400,-8.957,-8.257,-0.654,-0.054,0.887,-0.405,-2.411,-1.068,0.610,80.000,133585.000,1.000
-8.715,-6.667,-10.175,-5.887,-7.699,-13.186,-12.723,-3.980,-0.053,0.889,-0.406,-2.472,-1.129,0.641,80.000,133586.000,1.000
-8.115,-8.788,-11.550,-9.491,-11.337,-17.305,-18.188,-9.414,-0.052,0.889,-0.404,-2.686,-1.160,0.641,80.000,133587.000,1.000
-8.194,-10.894,-13.265,-13.727,-14.995,-19.847,-22.873,-14.964,-0.053,0.889,-0.404,-2.655,-1.373,0.732,80.000,133588.000,1.000
-8.809,-12.359,-14.459,-17.223,-17.251,-19.635,-24.756,-18.511,-0.054,0.889,-0.406,-2.808,-1.404,0.702,80.000,133589.000,1.000
-9.617,-12.880,-14.623,-18.902,-17.183,-16.531,-22.769,-18.689,-0.054,0.889,-0.405,-2.869,-1.495,0.763,80.000,133590.000,1.000
-10.192,-12.500,-13.573,-18.411,-14.780,-11.693,-17.401,-15.399,-0.054,0.888,-0.404,-3.021,-1.495,0.763,80.000,133591.000,1.000
-10.323,-11.634,-11.840,-16.441,-11.094,-7.204,-10.849,-10.219,-0.054,0.887,-0.403,-3.021,-1.617,0.671,80.000,133592.000,1.000
-10.111,-10.974,-10.107,-14.313,-7.830,-5.206,-6.065,-5.805,-0.055,0.884,-0.405,-3.052,-1.709,0.702,80.000,133593.000,1.000
-9.830,-11.180,-8.936,-13.138,-6.383,-6.712,-5.154,-4.220,-0.054,0.885,-0.404,-3.082,-1.801,0.702,80.000,133594.000,1.000
-9.603,-12.430,-8.485,-13.168,-6.983,-10.802,-7.938,-5.542,-0.054,0.884,-0.405,-3.021,-1.862,0.763,80.000,133595.000,1.000
-9.244,-14.207,-8.298,-13.771,-8.738,-15.217,-12.123,-8.075,-0.054,0.882,-0.406,-2.899,-1.862,0.763,80.000,133596.000,1.000
-8.557,-15.733,-8.130,-14.130,-10.492,-18.035,-15.286,-9.795,-0.054,0.882,-0.408,-2.838,-1.984,0.793,80.000,133597.000,1.000
-7.707,-16.593,-8.061,-13.855,-11.574,-18.643,-16.155,-9.528,-0.052,0.882,-0.406,-2.747,-2.045,0.732,80.000,133598.000,1.000
-7.252,-16.967,-8.539,-13.211,-12.016,-17.509,-14.898,-7.544,-0.053,0.883,-0.406,-2.594,-2.045,0.732,80.000,133599.000,1.000
-7.742,-17.378,-9.995,-12.858,-12.388,-15.754,-12.889,-5.377,-0.053,0.884,-0.408,-2.625,-2.014,0.702,80.000,133600.000,1.000
-9.199,-18.212,-12.223,-13.294,-13.292,-14.785,-11.931,-4.737,-0.053,0.881,-0.408,-2.411,-2.045,0.732,80.000,133601.000,1.000
-10.971,-19.245,-14.595,-14.473,-14.744,-15.336,-13.091,-6.298,-0.054,0.879,-0.407,-2.258,-2.045,0.824,80.000,133602.000,1.000
-12.072,-19.552,-15.981,-15.662,-15.880,-16.439,-15.323,-8.994,-0.052,0.877,-0.408,-2.014,-2.045,0.793,80.000,133603.000,1.000
-11.802,-18.221,-15.487,-15.907,-15.557,-16.070,-16.110,-10.695,-0.051,0.876,-0.410,-2.014,-2.075,0.763,80.000,133604.000,1.000
-10.128,-15.256,-13.114,-14.708,-13.397,-13.176,-13.770,-9.841,-0.050,0.878,-0.408,-1.740,-2.045,0.732,80.000,133605.000,1.000
-7.632,-11.713,-9.626,-12.296,-10.176,-8.655,-8.829,-6.585,-0.050,0.880,-0.405,-1.678,-2.045,0.732,80.000,133606.000,1.000
-5.225,-9.041,-6.462,-9.519,-7.363,-4.564,-3.790,-2.777,-0.049,0.880,-0.404,-1.495,-2.075,0.732,80.000,133607.000,1.000
-3.730,-8.184,-4.669,-7.319,-6.234,-2.691,-1.452,-0.627,-0.049,0.877,-0.404,-1.373,-1.953,0.671,80.000,133608.000,1.000
-3.530,-9.070,-4.508,-6.233,-7.098,-3.481,-3.189,-1.121,-0.050,0.878,-0.404,-1.129,-1.923,0.641,80.000,133609.000,1.000
-4.495,-10.868,-5.576,-6.263,-9.352,-6.133,-8.304,-3.737,-0.050,0.879,-0.406,-0.946,-1.923,0.549,80.000,133610.000,1.000
-6.171,-12.748,-7.072,-7.128,-12.202,-9.511,-14.737,-7.267,-0.050,0.880,-0.408,-0.824,-1.953,0.610,80.000,133611.000,1.000
-7.924,-14.192,-8.374,-8.385,-14.878,-12.334,-20.021,-10.167,-0.050,0.881,-0.406,-0.641,-1.831,0.641,80.000,133612.000,1.000
-8.797,-14.599,-8.554,-9.143,-16.278,-12.861,-21.536,-10.494,-0.050,0.882,-0.405,-0.519,-1.831,0.549,80.000,133613.000,1.000
-7.761,-13.304,-6.886,-8.481,-15.494,-9.937,-18.065,-7.362,-0.050,0.882,-0.403,-0.427,-1.831,0.519,80.000,133614.000,1.000
-4.526,-10.338,-3.790,-6.474,-12.998,-4.659,-11.492,-2.664,-0.050,0.882,-0.400,-0.458,-1.862,0.549,80.000,133615.000,1.000
0.049,-6.703,-0.608,-4.248,-10.423,0.255,-5.482,0.175,-0.051,0.883,-0.401,-0.397,-1.770,0.427,80.000,133616.000,1.000
4.461,-3.692,1.173,-2.920,-8.946,2.952,-2.245,-0.467,-0.052,0.883,-0.403,-0.397,-1.709,0.397,80.000,133617.000,1.000
7.389,-2.184,1.125,-2.714,-8.431,3.600,-0.970,-3.000,-0.052,0.879,-0.404,-0.214,-1.770,0.397,80.000,133618.000,1.000
8.054,-2.577,-0.451,-3.285,-8.200,3.225,0.165,-4.738,-0.052,0.879,-0.404,-0.183,-1.770,0.336,80.000,133619.000,1.000
6.197,-4.962,-3.280,-4.451,-8.130,2.148,1.420,-4.660,-0.052,0.881,-0.404,-0.214,-1.678,0.305,80.000,133620.000,1.000
2.154,-8.989,-7.079,-6.281,-8.708,-0.092,1.465,-3.758,-0.052,0.881,-0.406,-0.122,-1.648,0.336,80.000,133621.000,1.000
-3.005,-13.626,-11.502,-8.708,-10.259,-3.762,-1.010,-3.585,-0.052,0.880,-0.404,-0.092,-1.678,0.336,80.000,133622.000,1.000
-7.737,-17.457,-15.641,-11.267,-12.576,-8.515,-5.989,-5.096,-0.051,0.877,-0.406,0.031,-1.587,0.366,80.000,133623.000,1.000
-10.698,-19.285,-18.416,-13.320,-14.992,-13.404,-12.186,-8.328,-0.052,0.877,-0.405,0.153,-1.556,0.366,80.000,133624.000,1.000
-11.213,-18.375,-18.916,-14.199,-16.412,-16.787,-17.447,-12.180,-0.051,0.877,-0.406,0.244,-1.556,0.336,80.000,133625.000,1.000
-9.468,-14.684,-16.636,-13.454,-15.843,-17.132,-19.709,-15.009,-0.054,0.876,-0.405,0.427,-1.465,0.336,80.000,133626.000,1.000
-6.501,-9.240,-12.396,-11.418,-13.346,-14.534,-18.596,-16.017,-0.053,0.877,-0.408,0.519,-1.434,0.427,80.000,133627.000,1.000
-3.666,-3.809,-7.772,-9.080,-10.043,-10.825,-15.371,-15.534,-0.053,0.878,-0.404,0.580,-1.434,0.397,80.000,133628.000,1.000
-1.879,0.131,-4.243,-7.465,-7.146,-7.966,-11.714,-14.284,-0.052,0.881,-0.405,0.702,-1.434,0.336,80.000,133629.000,1.000
-1.179,2.161,-2.403,-7.067,-5.156,-6.559,-8.588,-12.736,-0.051,0.880,-0.408,0.854,-1.465,0.397,80.000,133630.000,1.000
-0.956,2.823,-1.639,-7.631,-3.823,-5.891,-5.924,-10.812,-0.052,0.882,-0.403,0.702,-1.373,0.397,80.000,133631.000,1.000
-0.633,2.918,-1.090,-8.519,-2.697,-5.044,-3.386,-8.322,-0.052,0.883,-0.406,0.763,-1.312,0.366,80.000,133632.000,1.000
-0.092,2.965,-0.130,-9.273,-1.643,-3.668,-0.970,-5.680,-0.053,0.886,-0.404,0.732,-1.343,0.427,80.000,133633.000,1.000
0.464,3.127,1.154,-9.852,-0.775,-1.880,0.951,-3.677,-0.054,0.886,-0.403,0.824,-1.404,0.488,80.000,133634.000,1.000
0.995,3.470,2.326,-10.207,-0.024,0.190,2.293,-2.339,-0.054,0.887,-0.406,0.702,-1.373,0.397,80.000,133635.000,1.000
1.785,4.021,3.358,-9.981,0.818,2.333,3.457,-0.935,-0.051,0.885,-0.407,0.549,-1.251,0.366,80.000,133636.000,1.000
3.024,4.448,4.113,-9.021,1.494,3.635,4.228,0.564,-0.050,0.886,-0.407,0.458,-1.282,0.488,80.000,133637.000,1.000
4.426,4.020,4.277,-7.772,1.178,2.647,3.519,1.020,-0.052,0.886,-0.406,0.427,-1.282,0.458,80.000,133638.000,1.000
5.305,2.156,3.363,-7.011,-0.687,-1.206,0.549,-0.616,-0.052,0.885,-0.406,0.397,-1.221,0.580,80.000,133639.000,1.000
5.085,-0.951,1.253,-7.163,-3.541,-6.499,-3.766,-3.854,-0.054,0.883,-0.406,0.244,-1.160,0.702,80.000,133640.000,1.000
3.769,-4.339,-1.311,-7.961,-5.920,-10.477,-7.075,-6.834,-0.052,0.882,-0.403,0.275,-1.099,0.671,80.000,133641.000,1.000
1.973,-6.989,-3.496,-8.779,-6.508,-11.166,-7.497,-7.699,-0.052,0.882,-0.406,0.153,-1.038,0.793,80.000,133642.000,1.000
0.484,-8.547,-4.772,-9.092,-5.093,-8.975,-4.863,-5.764,-0.052,0.883,-0.406,0.092,-1.068,0.824,80.000,133643.000,1.000
-0.434,-9.449,-5.430,-8.959,-2.777,-6.121,-0.833,-2.212,-0.052,0.882,-0.407,0.336,-1.068,0.824,80.000,133644.000,1.000
-1.253,-10.288,-6.251,-8.884,-1.103,-4.565,2.409,0.747,-0.052,0.884,-0.408,0.275,-1.068,0.824,80.000,133645.000,1.000
-2.654,-11.053,-7.486,-9.115,-0.741,-4.502,3.865,1.863,-0.052,0.887,-0.410,0.397,-1.038,0.885,80.000,133646.000,1.000
-4.788,-10.836,-8.717,-9.253,-0.884,-4.165,4.307,1.794,-0.052,0.887,-0.410,0.275,-1.038,0.885,80.000,133647.000,1.000
-6.938,-8.320,-8.758,-8.373,0.126,-1.128,5.749,2.381,-0.051,0.889,-0.411,0.275,-1.068,1.068,80.000,133648.000,1.000
-8.144,-3.145,-6.883,-5.918,3.096,4.892,9.081,4.678,-0.049,0.888,-0.411,0.183,-0.977,1.129,80.000,133649.000,1.000
-8.024,3.257,-3.721,-2.426,6.932,10.869,12.512,7.698,-0.050,0.886,-0.413,0.153,-0.977,1.251,80.000,133650.000,1.000
-6.725,8.709,-0.431,0.940,9.764,13.382,13.583,9.574,-0.052,0.885,-0.412,0.061,-0.977,1.129,80.000,133651.000,1.000
-4.464,12.008,2.121,3.392,10.827,12.081,11.987,9.690,-0.052,0.883,-0.414,0.000,-0.885,1.190,80.000,133652.000,1.000
-1.508,13.311,3.937,4.916,10.699,9.348,9.664,9.039,-0.054,0.885,-0.411,0.000,-0.885,1.129,80.000,133653.000,1.000
1.555,13.250,5.140,5.705,10.079,7.433,8.182,8.443,-0.055,0.886,-0.409,0.092,-0.916,1.038,80.000,133654.000,1.000
3.912,12.276,5.584,5.778,9.118,6.926,7.453,7.639,-0.058,0.889,-0.411,0.000,-1.007,0.824,80.000,133655.000,1.000
4.845,10.543,5.204,5.070,7.623,7.010,6.603,6.017,-0.059,0.890,-0.411,-0.122,-1.068,0.763,80.000,133656.000,1.000
3.866,7.868,3.630,3.404,5.190,6.052,4.424,3.138,-0.058,0.893,-0.412,-0.214,-1.190,0.610,80.000,133657.000,1.000
1.059,4.168,0.815,0.828,1.659,2.907,0.236,-0.789,-0.056,0.892,-0.410,-0.366,-1.160,0.488,80.000,133658.000,1.000
-2.534,0.216,-2.459,-1.836,-2.022,-1.419,-4.765,-4.208,-0.056,0.893,-0.408,-0.580,-1.160,0.458,80.000,133659.000,1.000
-5.186,-2.494,-4.811,-3.203,-4.067,-4.181,-7.836,-4.887,-0.056,0.896,-0.408,-0.702,-1.312,0.275,80.000,133660.000,1.000
-5.592,-3.009,-5.186,-2.518,-3.554,-3.654,-7.339,-2.174,-0.056,0.894,-0.408,-0.977,-1.373,0.275,80.000,133661.000,1.000
-3.742,-1.706,-3.913,-0.366,-1.264,-0.696,-4.431,2.162,-0.056,0.891,-0.407,-1.038,-1.434,0.214,80.000,133662.000,1.000
-0.653,0.354,-1.835,2.169,1.513,2.747,-1.079,6.088,-0.057,0.890,-0.406,-1.221,-1.434,0.183,80.000,133663.000,1.000
2.359,2.264,0.239,4.284,4.124,5.585,1.911,9.073,-0.055,0.889,-0.406,-1.251,-1.526,0.092,80.000,133664.000,1.000
4.182,3.401,1.540,5.452,6.353,7.751,4.605,11.447,-0.053,0.888,-0.409,-1.282,-1.526,0.092,80.000,133665.000,1.000
4.259,3.361,1.669,5.479,7.944,9.367,7.057,13.229,-0.053,0.885,-0.405,-1.373,-1.617,0.092,80.000,133666.000,1.000
2.729,2.153,0.550,4.636,8.678,10.360,8.980,13.908,-0.053,0.885,-0.404,-1.404,-1.526,0.092,80.000,133667.000,1.000
0.238,0.343,-1.276,3.566,8.548,10.504,10.078,13.034,-0.053,0.885,-0.405,-1.465,-1.434,0.061,80.000,133668.000,1.000
-2.499,-1.233,-3.227,2.838,7.757,9.458,10.107,10.839,-0.054,0.880,-0.403,-1.434,-1.526,0.153,80.000,133669.000,1.000
-4.978,-1.808,-4.943,2.797,6.800,7.222,9.344,8.516,-0.054,0.881,-0.405,-1.434,-1.373,0.122,80.000,133670.000,1.000
-6.930,-0.826,-5.905,3.629,6.437,4.809,8.978,7.520,-0.055,0.878,-0.406,-1.312,-1.495,0.183,80.000,133671.000,1.000
-8.405,1.737,-5.908,5.040,7.032,3.649,9.770,7.893,-0.053,0.879,-0.403,-1.312,-1.556,0.275,80.000,133672.000,1.000
-9.726,5.076,-5.079,6.196,7.976,4.134,10.833,7.834,-0.055,0.879,-0.401,-1.251,-1.556,0.275,80.000,133673.000,1.000
-11.088,7.995,-3.833,6.456,8.467,5.620,10.697,5.882,-0.056,0.877,-0.401,-1.190,-1.526,0.458,80.000,133674.000,1.000
-12.150,9.810,-2.341,6.237,8.733,7.661,9.628,3.195,-0.058,0.875,-0.402,-1.068,-1.587,0.397,80.000,133675.000,1.000
-12.374,10.417,-0.388,6.491,9.511,9.899,9.180,2.182,-0.057,0.876,-0.403,-1.068,-1.556,0.519,80.000,133676.000,1.000
-11.785,9.633,1.487,7.300,10.553,11.151,9.371,3.268,-0.058,0.875,-0.403,-0.946,-1.617,0.458,80.000,133677.000,1.000
-10.998,7.190,2.401,7.849,10.749,10.227,8.668,4.690,-0.058,0.874,-0.401,-0.916,-1.678,0.397,80.000,133678.000,1.000
-10.576,3.355,1.938,7.494,9.533,7.515,6.249,4.814,-0.058,0.875,-0.401,-0.702,-1.740,0.427,80.000,133679.000,1.000
-10.538,-0.854,0.497,6.472,7.481,4.841,3.112,3.709,-0.059,0.874,-0.401,-0.519,-1.801,0.397,80.000,133680.000,1.000
-10.437,-4.143,-0.955,5.686,5.785,3.966,1.314,2.953,-0.058,0.873,-0.404,-0.458,-1.740,0.427,80.000,133681.000,1.000
-9.781,-5.576,-1.860,5.923,5.479,5.627,2.464,4.312,-0.056,0.874,-0.404,-0.366,-1.648,0.580,80.000,133682.000,1.000
-8.309,-4.950,-2.003,7.302,6.779,9.349,6.722,8.212,-0.055,0.874,-0.404,-0.214,-1.678,0.549,80.000,133683.000,1.000
-6.193,-3.007,-1.730,9.061,8.586,13.050,11.955,12.846,-0.055,0.876,-0.402,0.000,-1.648,0.488,80.000,133684.000,1.000
-4.075,-1.192,-1.879,9.892,8.904,13.566,14.464,15.101,-0.053,0.877,-0.405,0.061,-1.648,0.519,80.000,133685.000,1.000
-2.690,-0.755,-3.036,8.821,6.343,9.122,11.736,12.907,-0.053,0.877,-0.405,0.153,-1.556,0.519,80.000,133686.000,1.000
-2.395,-1.964,-5.369,5.840,1.267,1.150,4.346,6.656,-0.052,0.878,-0.406,0.183,-1.495,0.702,80.000,133687.000,1.000
-2.988,-4.110,-8.169,1.948,-4.527,-6.808,-4.441,-1.215,-0.050,0.878,-0.408,0.336,-1.373,0.702,80.000,133688.000,1.000
-3.987,-6.146,-10.382,-1.542,-9.063,-11.580,-11.005,-7.839,-0.052,0.880,-0.407,0.427,-1.343,0.763,80.000,133689.000,1.000
-4.952,-7.376,-11.314,-3.775,-11.244,-11.935,-13.459,-11.488,-0.051,0.881,-0.407,0.519,-1.373,0.885,80.000,133690.000,1.000
-5.556,-7.701,-10.716,-4.572,-11.036,-8.613,-11.985,-11.984,-0.051,0.882,-0.407,0.549,-1.251,0.977,80.000,133691.000,1.000
-5.548,-7.303,-8.938,-4.084,-8.840,-3.297,-7.741,-9.687,-0.052,0.884,-0.407,0.580,-1.160,1.099,80.000,133692.000,1.000
-4.816,-6.305,-6.334,-2.424,-5.112,2.302,-1.726,-4.824,-0.052,0.885,-0.406,0.610,-0.946,1.099,80.000,133693.000,1.000
-3.765,-5.035,-3.628,-0.173,-0.962,6.430,4.279,0.986,-0.052,0.884,-0.405,0.549,-0.916,1.129,80.000,133694.000,1.000
-3.329,-4.111,-1.996,1.396,1.762,7.597,7.400,4.187,-0.054,0.884,-0.404,0.488,-0.946,1.251,80.000,133695.000,1.000
-4.194,-3.766,-1.943,1.449,1.980,5.805,6.141,2.344,-0.054,0.884,-0.406,0.427,-0.854,1.282,80.000,133696.000,1.000
-6.136,-3.470,-2.968,0.466,0.429,2.681,1.889,-3.155,-0.052,0.885,-0.406,0.488,-0.763,1.373,80.000,133697.000,1.000
-8.184,-2.496,-3.699,-0.256,-1.209,-0.030,-2.515,-8.417,-0.052,0.886,-0.407,0.519,-0.732,1.282,80.000,133698.000,1.000
-9.325,-0.590,-3.085,0.171,-1.759,-1.499,-5.153,-10.531,-0.051,0.887,-0.409,0.549,-0.671,1.373,80.000,133699.000,1.000
-9.101,1.911,-1.076,1.654,-1.064,-1.597,-5.668,-9.286,-0.051,0.886,-0.412,0.427,-0.671,1.282,80.000,133700.000,1.000
-7.825,4.331,1.775,3.422,0.340,-0.478,-4.599,-6.317,-0.052,0.887,-0.410,0.458,-0.549,1.282,80.000,133701.000,1.000
-6.259,6.002,4.519,4.668,1.787,1.470,-2.898,-3.447,-0.053,0.888,-0.411,0.336,-0.519,1.312,80.000,133702.000,1.000
-4.980,6.570,6.541,5.235,2.934,3.507,-1.239,-1.298,-0.052,0.889,-0.410,0.397,-0.610,1.282,80.000,133703.000,1.000
-4.117,6.029,7.513,5.615,3.822,4.785,0.292,0.883,-0.053,0.892,-0.409,0.427,-0.488,1.343,80.000,133704.000,1.000
-3.579,4.569,7.207,6.292,4.496,4.853,1.810,3.837,-0.054,0.891,-0.409,0.366,-0.519,1.343,80.000,133705.000,1.000
-3.428,2.276,5.561,7.032,4.418,3.416,2.556,6.526,-0.054,0.893,-0.406,0.305,-0.397,1.282,80.000,133706.000,1.000
-3.841,-0.816,2.465,6.979,2.730,0.238,0.915,6.610,-0.055,0.893,-0.408,0.061,-0.397,1.251,80.000,133707.000,1.000
-4.562,-4.151,-1.295,5.783,-0.459,-3.814,-3.135,3.258,-0.054,0.889,-0.407,-0.153,-0.458,1.251,80.000,133708.000,1.000
-4.835,-6.664,-4.213,4.054,-3.749,-6.757,-7.302,-1.788,-0.054,0.886,-0.408,-0.336,-0.366,1.282,80.000,133709.000,1.000
-4.048,-7.577,-5.139,2.743,-5.624,-7.212,-9.139,-5.756,-0.051,0.882,-0.406,-0.366,-0.305,1.160,80.000,133710.000,1.000
-2.249,-6.876,-3.845,2.448,-5.456,-5.412,-7.772,-6.605,-0.051,0.880,-0.410,-0.366,-0.153,1.129,80.000,133711.000,1.000
-0.118,-5.225,-1.365,2.948,-3.767,-2.692,-4.225,-4.270,-0.049,0.881,-0.411,-0.305,-0.061,1.129,80.000,133712.000,1.000
1.431,-3.771,0.821,3.208,-2.075,-0.883,-0.853,-0.886,-0.048,0.881,-0.417,-0.183,0.000,1.099,80.000,133713.000,1.000
1.679,-3.782,1.317,1.952,-2.175,-1.770,-0.367,0.548,-0.047,0.880,-0.415,-0.275,-0.031,1.099,80.000,133714.000,1.000
0.681,-5.662,-0.332,-1.139,-4.633,-5.569,-3.667,-1.297,-0.044,0.878,-0.412,-0.183,0.031,1.099,80.000,133715.000,1.000
-0.512,-8.244,-2.849,-4.672,-7.816,-9.892,-8.270,-4.596,-0.045,0.876,-0.408,-0.153,0.153,1.221,80.000,133716.000,1.000
-0.599,-9.497,-4.395,-6.518,-9.087,-11.233,-10.190,-6.159,-0.046,0.875,-0.410,0.000,0.153,1.160,80.000,133717.000,1.000
0.949,-8.020,-3.729,-5.468,-7.047,-7.684,-7.170,-4.601,-0.047,0.876,-0.407,0.183,0.244,1.221,80.000,133718.000,1.000
3.531,-3.960,-1.066,-1.939,-2.430,-0.286,-0.163,-1.022,-0.052,0.880,-0.408,0.427,0.397,1.099,80.000,133719.000,1.000
5.913,1.184,2.213,2.620,2.750,7.655,7.683,2.766,-0.056,0.884,-0.409,0.397,0.427,1.007,80.000,133720.000,1.000
7.008,5.478,4.640,6.519,6.313,12.390,12.824,5.184,-0.059,0.885,-0.408,0.336,0.305,1.099,80.000,133721.000,1.000
6.426,7.588,5.090,8.375,6.834,11.775,12.790,4.892,-0.060,0.887,-0.409,0.153,0.183,0.916,80.000,133722.000,1.000
4.700,7.578,3.769,7.965,4.652,6.867,8.093,1.972,-0.059,0.884,-0.409,-0.061,0.061,0.854,80.000,133723.000,1.000
2.989,6.944,2.157,6.505,2.063,1.856,2.633,-1.272,-0.058,0.880,-0.407,-0.092,0.031,0.671,80.000,133724.000,1.000
2.326,7.452,1.867,5.634,1.671,1.215,0.937,-2.059,-0.056,0.877,-0.413,-0.153,-0.031,0.580,80.000,133725.000,1.000
2.914,9.514,3.424,5.999,4.084,5.806,4.151,0.221,-0.056,0.878,-0.412,-0.031,-0.214,0.519,80.000,133726.000,1.000
4.085,11.804,5.627,6.893,7.499,12.087,9.032,3.660,-0.057,0.876,-0.413,0.061,-0.336,0.519,80.000,133727.000,1.000
4.961,12.523,6.956,7.191,9.475,15.463,11.383,5.793,-0.058,0.878,-0.410,0.214,-0.427,0.488,80.000,133728.000,1.000
5.075,10.857,6.630,6.264,8.779,14.022,9.426,5.288,-0.057,0.882,-0.409,0.305,-0.519,0.366,80.000,133729.000,1.000
4.730,7.522,5.060,4.477,6.024,9.263,4.558,2.764,-0.056,0.882,-0.408,0.397,-0.519,0.336,80.000,133730.000,1.000
4.838,4.119,3.685,3.034,2.931,4.005,-0.217,0.276,-0.055,0.882,-0.410,0.305,-0.580,0.275,80.000,133731.000,1.000
5.929,1.721,3.334,2.779,0.695,-0.056,-3.112,-0.934,-0.054,0.883,-0.411,0.305,-0.671,0.366,80.000,133732.000,1.000
7.374,0.163,3.689,3.352,-0.805,-2.756,-4.332,-1.580,-0.053,0.882,-0.411,0.336,-0.763,0.427,80.000,133733.000,1.000
7.929,-1.178,3.783,3.731,-2.044,-4.088,-4.544,-2.714,-0.052,0.881,-0.411,0.366,-0.854,0.397,80.000,133734.000,1.000
7.014,-2.323,3.108,3.445,-2.743,-3.561,-3.568,-3.860,-0.053,0.879,-0.414,0.427,-0.885,0.305,80.000,133735.000,1.000
5.066,-2.840,2.043,2.815,-2.217,-1.091,-0.783,-3.462,-0.052,0.881,-0.413,0.519,-0.916,0.427,80.000,133736.000,1.000
2.723,-2.749,0.818,2.151,-0.466,2.303,3.592,-0.775,-0.052,0.881,-0.413,0.366,-0.946,0.458,80.000,133737.000,1.000
0.269,-2.687,-0.539,1.396,1.433,4.762,7.938,3.047,-0.054,0.883,-0.410,0.519,-1.007,0.610,80.000,133738.000,1.000
-2.185,-3.298,-2.141,0.334,1.895,4.317,9.417,5.287,-0.052,0.881,-0.410,0.519,-1.099,0.671,80.000,133739.000,1.000
-4.432,-4.601,-3.942,-0.984,0.047,0.203,5.948,3.713,-0.053,0.881,-0.415,0.580,-1.068,0.763,80.000,133740.000,1.000
-6.155,-5.842,-5.204,-1.960,-3.293,-5.869,-1.243,-1.129,-0.054,0.881,-0.413,0.732,-1.068,0.793,80.000,133741.000,1.000
-7.119,-5.954,-5.133,-1.803,-6.014,-10.337,-8.042,-6.115,-0.053,0.881,-0.415,0.641,-1.068,0.793,80.000,133742.000,1.000
-7.367,-4.408,-3.391,-0.172,-6.319,-10.413,-10.404,-7.898,-0.054,0.883,-0.411,0.854,-1.129,0.916,80.000,133743.000,1.000
-7.376,-1.844,-0.769,2.316,-4.152,-6.387,-7.363,-5.359,-0.052,0.880,-0.415,0.671,-1.099,0.916,80.000,133744.000,1.000
-7.931,0.192,1.114,4.244,-1.298,-1.443,-1.586,-0.508,-0.052,0.879,-0.411,0.793,-1.160,1.007,80.000,133745.000,1.000
-9.582,0.308,1.145,4.319,-0.022,1.001,2.956,3.032,-0.054,0.879,-0.408,0.946,-1.160,1.038,80.000,133746.000,1.000
-11.953,-1.524,-0.631,2.441,-1.144,0.229,4.241,3.133,-0.052,0.879,-0.413,0.824,-1.251,1.068,80.000,133747.000,1.000
-13.652,-3.778,-2.689,-0.007,-3.320,-1.555,3.618,0.983,-0.055,0.877,-0.409,1.068,-1.404,1.099,80.000,133748.000,1.000
-13.356,-4.778,-3.449,-1.398,-4.570,-2.079,3.445,-0.624,-0.051,0.875,-0.412,0.946,-1.434,1.099,80.000,133749.000,1.000
-10.976,-4.184,-2.662,-1.317,-4.283,-1.265,4.250,-0.368,-0.054,0.875,-0.415,1.038,-1.373,1.129,80.000,133750.000,1.000
-7.700,-3.071,-1.248,-0.711,-3.525,-0.552,4.785,0.625,-0.052,0.872,-0.410,1.190,-1.343,1.221,80.000,133751.000,1.000
-4.944,-2.715,-0.551,-0.792,-3.561,-0.787,4.017,0.611,-0.052,0.871,-0.412,1.251,-1.465,1.160,80.000,133752.000,1.000
-3.107,-3.278,-0.726,-1.637,-4.369,-1.322,2.629,-0.501,-0.054,0.870,-0.408,1.526,-1.556,1.282,80.000,133753.000,1.000
-1.626,-3.981,-0.988,-2.372,-5.072,-1.430,1.617,-1.592,-0.050,0.869,-0.412,1.373,-1.526,1.221,80.000,133754.000,1.000
0.037,-4.184,-0.800,-2.356,-5.203,-1.533,0.753,-2.084,-0.051,0.873,-0.412,1.678,-1.404,1.251,80.000,133755.000,1.000
2.002,-3.758,-0.037,-1.629,-4.885,-2.315,-0.576,-2.331,-0.050,0.872,-0.409,1.862,-1.526,1.190,80.000,133756.000,1.000
4.042,-3.117,0.758,-0.791,-4.560,-3.980,-2.654,-3.116,-0.050,0.870,-0.414,1.831,-1.434,1.251,80.000,133757.000,1.000
5.658,-3.181,0.801,-0.666,-4.797,-6.463,-5.197,-4.876,-0.051,0.872,-0.414,2.136,-1.495,1.282,80.000,133758.000,1.000
6.450,-4.607,-0.452,-1.752,-5.656,-8.858,-6.883,-6.963,-0.049,0.869,-0.416,2.014,-1.556,1.190,80.000,133759.000,1.000
6.569,-6.867,-2.689,-3.784,-6.353,-9.278,-5.831,-7.976,-0.052,0.872,-0.415,2.411,-1.495,1.160,80.000,133760.000,1.000
6.493,-8.692,-4.882,-6.094,-6.315,-7.082,-2.067,-7.509,-0.051,0.873,-0.411,2.563,-1.495,1.068,80.000,133761.000,1.000
6.403,-9.252,-6.491,-8.203,-6.013,-4.349,1.388,-6.825,-0.052,0.870,-0.416,2.502,-1.678,0.946,80.000,133762.000,1.000
6.237,-8.298,-7.113,-9.535,-5.956,-3.532,1.782,-6.965,-0.054,0.873,-0.411,2.747,-1.801,0.977,80.000,133763.000,1.000
6.081,-5.774,-6.285,-9.282,-5.687,-4.749,-0.661,-7.467,-0.053,0.873,-0.413,2.625,-1.831,0.916,80.000,133764.000,1.000
6.209,-1.837,-3.806,-6.885,-4.243,-5.981,-3.438,-6.984,-0.054,0.877,-0.407,2.686,-1.831,0.916,80.000,133765.000,1.000
6.924,3.112,0.266,-2.333,-0.942,-4.837,-3.593,-4.137,-0.052,0.884,-0.405,2.716,-1.831,0.793,80.000,133766.000,1.000
8.463,8.650,5.360,3.826,4.201,-0.234,0.421,1.677,-0.053,0.897,-0.409,2.625,-1.801,0.671,80.000,133767.000,1.000
10.753,14.247,10.689,10.424,10.072,6.633,7.427,9.178,-0.052,0.908,-0.406,2.411,-1.831,0.519,80.000,133768.000,1.000
13.002,18.817,14.889,15.503,14.454,12.835,13.569,14.901,-0.052,0.914,-0.412,1.770,-1.923,0.458,80.000,133769.000,1.000
13.986,20.950,16.356,17.156,15.337,15.798,15.119,15.620,-0.053,0.908,-0.405,1.099,-2.197,0.580,80.000,133770.000,1.000
13.075,19.988,14.697,15.047,12.673,15.232,11.938,11.518,-0.052,0.895,-0.407,0.244,-2.167,0.702,80.000,133771.000,1.000
10.795,16.697,11.005,10.735,8.451,12.994,7.321,6.064,-0.052,0.880,-0.411,-0.122,-1.984,0.702,80.000,133772.000,1.000
8.487,12.762,7.407,6.519,4.912,10.931,4.587,2.771,-0.053,0.874,-0.410,0.092,-1.953,0.549,80.000,133773.000,1.000
7.295,9.523,5.379,3.787,2.812,9.107,4.035,2.389,-0.052,0.869,-0.415,0.092,-1.862,0.458,80.000,133774.000,1.000
7.534,7.436,4.982,2.598,1.645,6.752,3.961,3.343,-0.054,0.873,-0.416,0.549,-1.923,0.275,80.000,133775.000,1.000
9.065,6.702,5.909,2.598,1.115,4.394,3.625,4.005,-0.053,0.879,-0.416,0.519,-2.014,0.031,80.000,133776.000,1.000
11.543,7.429,7.667,3.493,1.437,3.481,3.442,3.707,-0.052,0.881,-0.418,0.488,-2.075,-0.031,80.000,133777.000,1.000
14.147,8.884,9.458,4.734,2.309,3.934,3.299,2.388,-0.050,0.883,-0.411,0.610,-2.045,-0.153,80.000,133778.000,1.000
15.828,9.497,10.059,5.459,2.650,3.689,2.030,0.182,-0.048,0.885,-0.413,0.366,-1.984,-0.153,80.000,133779.000,1.000
16.127,8.137,8.717,5.084,1.668,1.120,-0.965,-2.358,-0.052,0.884,-0.416,0.336,-1.831,-0.122,80.000,133780.000,1.000
15.351,4.932,5.939,3.567,-0.496,-3.256,-4.694,-4.312,-0.053,0.883,-0.413,0.336,-1.801,0.000,80.000,133781.000,1.000
13.833,0.718,2.432,0.932,-3.337,-7.727,-7.861,-5.291,-0.054,0.882,-0.416,0.153,-1.709,0.031,80.000,133782.000,1.000
11.756,-3.409,-1.007,-2.501,-6.200,-10.464,-9.465,-5.522,-0.058,0.881,-0.414,0.305,-1.831,0.275,80.000,133783.000,1.000
9.999,-5.674,-3.003,-5.226,-7.618,-9.398,-8.181,-4.765,-0.056,0.879,-0.414,0.305,-2.014,0.244,80.000,133784.000,1.000
10.048,-4.260,-2.133,-5.174,-5.996,-3.668,-3.274,-2.361,-0.056,0.877,-0.413,0.214,-2.014,0.244,80.000,133785.000,1.000
12.314,0.634,1.482,-1.934,-1.758,3.857,3.133,1.112,-0.056,0.877,-0.415,0.305,-1.953,0.122,80.000,133786.000,1.000
15.670,6.770,5.836,2.801,2.842,8.465,7.147,3.941,-0.053,0.876,-0.418,0.397,-2.014,0.031,80.000,133787.000,1.000
18.995,12.297,9.566,7.360,6.415,8.774,7.643,5.573,-0.052,0.874,-0.421,0.458,-1.862,0.092,80.000,133788.000,1.000
21.753,16.589,12.510,11.006,9.148,7.511,6.913,6.825,-0.053,0.875,-0.416,0.641,-1.923,0.183,80.000,133789.000,1.000
23.252,19.110,14.388,13.140,11.113,7.354,7.004,7.965,-0.052,0.875,-0.418,0.641,-1.862,0.244,80.000,133790.000,1.000
22.813,19.200,14.733,13.281,11.668,8.294,7.711,8.297,-0.054,0.875,-0.415,0.854,-1.801,0.305,80.000,133791.000,1.000
20.532,16.825,13.249,11.632,10.405,8.838,7.663,7.311,-0.052,0.876,-0.414,0.824,-1.831,0.427,80.000,133792.000,1.000
17.212,12.703,10.364,9.023,7.787,8.128,6.379,5.465,-0.051,0.879,-0.417,0.732,-1.831,0.397,80.000,133793.000,1.000
13.837,8.033,6.991,6.390,5.013,6.658,4.869,4.019,-0.054,0.881,-0.409,0.824,-1.770,0.488,80.000,133794.000,1.000
11.322,4.242,4.252,4.541,3.437,5.595,4.611,4.243,-0.054,0.880,-0.411,0.671,-1.740,0.580,80.000,133795.000,1.000
10.270,2.445,3.223,3.942,3.732,5.729,6.161,6.251,-0.056,0.882,-0.412,0.610,-1.740,0.549,80.000,133796.000,1.000
10.583,2.793,3.937,4.329,5.374,6.938,8.498,8.431,-0.056,0.881,-0.412,0.549,-1.770,0.732,80.000,133797.000,1.000
11.320,4.234,5.413,4.776,6.933,8.122,9.839,8.656,-0.054,0.879,-0.416,0.366,-1.617,0.793,80.000,133798.000,1.000
11.291,5.187,6.210,4.416,7.188,8.012,9.138,6.437,-0.056,0.882,-0.414,0.366,-1.526,0.793,80.000,133799.000,1.000
10.180,4.831,5.577,3.244,6.158,6.495,7.154,3.498,-0.054,0.880,-0.417,0.214,-1.556,0.916,80.000,133800.000,1.000
8.659,3.359,3.906,1.761,4.556,4.426,5.306,1.548,-0.056,0.877,-0.415,0.244,-1.465,1.099,80.000,133801.000,1.000
7.327,1.132,1.507,-0.023,2.585,2.242,3.669,0.276,-0.056,0.877,-0.416,0.183,-1.587,1.160,80.000,133802.000,1.000
6.359,-1.466,-1.197,-2.277,0.205,-0.073,1.753,-1.351,-0.054,0.878,-0.417,0.092,-1.495,1.160,80.000,133803.000,1.000
5.972,-3.599,-3.314,-4.563,-1.963,-1.990,0.043,-3.191,-0.055,0.882,-0.416,0.061,-1.617,1.190,80.000,133804.000,1.000
6.343,-4.362,-3.983,-6.019,-2.923,-2.621,-0.359,-4.067,-0.054,0.883,-0.414,-0.061,-1.678,1.282,80.000,133805.000,1.000
7.115,-3.592,-3.011,-6.123,-2.300,-1.770,0.953,-3.146,-0.055,0.885,-0.414,-0.336,-1.617,1.312,80.000,133806.000,1.000
7.559,-1.852,-1.265,-5.043,-0.580,-0.105,3.113,-0.854,-0.055,0.886,-0.415,-0.366,-1.648,1.373,80.000,133807.000,1.000
7.240,0.228,0.370,-3.235,1.468,1.521,4.929,1.621,-0.054,0.888,-0.412,-0.763,-1.648,1.404,80.000,133808.000,1.000
6.182,2.185,1.370,-1.207,3.191,2.509,5.616,3.261,-0.052,0.887,-0.413,-1.099,-1.617,1.465,80.000,133809.000,1.000
4.624,3.602,1.537,0.520,4.213,2.788,5.075,3.725,-0.051,0.886,-0.412,-1.221,-1.587,1.495,80.000,133810.000,1.000
2.989,4.273,1.295,1.708,4.711,3.028,4.241,3.575,-0.050,0.885,-0.412,-1.587,-1.556,1.495,80.000,133811.000,1.000
1.924,4.470,1.276,2.516,5.376,4.133,4.507,3.891,-0.050,0.882,-0.413,-1.770,-1.526,1.404,80.000,133812.000,1.000
1.992,4.779,2.105,3.189,6.715,6.250,6.567,5.267,-0.050,0.881,-0.410,-1.740,-1.373,1.373,80.000,133813.000,1.000
3.094,5.482,3.654,3.501,8.355,8.407,9.447,6.931,-0.049,0.878,-0.415,-1.892,-1.312,1.373,80.000,133814.000,1.000
4.475,6.272,5.030,2.929,9.315,9.169,11.061,7.382,-0.050,0.878,-0.415,-1.770,-1.160,1.343,80.000,133815.000,1.000
5.413,6.689,5.650,1.493,9.073,7.903,10.160,6.157,-0.048,0.876,-0.418,-1.709,-1.099,1.312,80.000,133816.000,1.000
5.766,6.648,5.467,-0.067,8.100,5.494,7.310,4.274,-0.049,0.875,-0.417,-1.831,-0.946,1.251,80.000,133817.000,1.000
5.855,6.317,4.958,-0.998,7.091,3.383,3.928,2.682,-0.049,0.875,-0.415,-1.709,-0.854,1.251,80.000,133818.000,1.000
5.915,5.622,4.332,-1.264,6.080,2.004,0.713,1.110,-0.046,0.875,-0.416,-1.740,-0.702,1.221,80.000,133819.000,1.000
5.933,4.386,3.385,-1.236,4.833,0.845,-2.117,-0.905,-0.046,0.875,-0.419,-1.587,-0.641,1.190,80.000,133820.000,1.000
5.925,2.853,2.272,-1.004,3.622,-0.342,-3.853,-2.769,-0.048,0.875,-0.417,-1.495,-0.427,1.221,80.000,133821.000,1.000
6.048,1.588,1.350,-0.433,3.079,-1.199,-3.799,-3.321,-0.049,0.877,-0.421,-1.495,-0.488,1.160,80.000,133822.000,1.000
6.357,0.927,1.076,0.447,3.472,-1.415,-2.119,-2.080,-0.051,0.878,-0.420,-1.465,-0.458,1.099,80.000,133823.000,1.000
6.587,0.716,1.456,1.218,4.396,-1.122,-0.051,0.093,-0.051,0.876,-0.418,-1.465,-0.366,0.977,80.000,133824.000,1.000
6.445,0.732,2.142,1.515,5.317,-0.404,1.224,1.807,-0.050,0.878,-0.417,-1.404,-0.336,0.916,80.000,133825.000,1.000
6.003,1.066,3.168,1.582,6.149,1.095,1.876,2.546,-0.054,0.878,-0.420,-1.404,-0.305,0.885,80.000,133826.000,1.000
5.576,1.899,4.544,2.032,7.134,3.562,2.862,3.031,-0.054,0.879,-0.413,-1.251,-0.305,0.793,80.000,133827.000,1.000
5.494,3.260,6.229,3.319,8.459,6.555,4.909,4.492,-0.051,0.881,-0.416,-1.282,-0.336,0.641,80.000,133828.000,1.000
5.907,5.003,7.907,5.267,9.973,9.205,7.738,7.221,-0.052,0.882,-0.415,-1.312,-0.427,0.549,80.000,133829.000,1.000
6.571,6.747,8.981,7.005,11.012,10.335,9.849,9.782,-0.051,0.883,-0.410,-1.404,-0.336,0.397,80.000,133830.000,1.000
6.871,7.931,9.089,7.529,10.761,8.882,9.445,10.096,-0.051,0.884,-0.413,-1.556,-0.275,0.458,80.000,133831.000,1.000
6.235,8.225,8.131,6.476,9.097,5.038,5.910,7.458,-0.050,0.882,-0.412,-1.526,-0.305,0.427,80.000,133832.000,1.000
4.623,7.851,6.686,4.504,6.933,0.613,0.685,3.388,-0.048,0.883,-0.413,-1.678,-0.153,0.275,80.000,133833.000,1.000
2.492,7.229,5.433,2.642,5.352,-2.405,-4.014,0.158,-0.050,0.883,-0.412,-1.709,-0.183,0.366,80.000,133834.000,1.000
0.509,6.512,4.581,1.503,4.714,-3.273,-6.800,-1.016,-0.051,0.884,-0.412,-1.831,-0.092,0.305,80.000,133835.000,1.000
-0.574,5.813,4.322,1.317,4.957,-2.081,-6.892,-0.011,-0.050,0.886,-0.414,-1.953,-0.061,0.214,80.000,133836.000,1.000
-0.212,5.388,4.745,2.071,6.041,0.893,-4.008,2.695,-0.050,0.889,-0.413,-1.984,-0.061,0.305,80.000,133837.000,1.000
1.348,5.114,5.642,3.195,7.304,4.229,0.355,5.558,-0.050,0.890,-0.412,-2.228,-0.122,0.214,80.000,133838.000,1.000
2.851,4.193,6.028,3.357,7.149,5.168,2.585,5.932,-0.051,0.891,-0.410,-2.472,0.031,0.214,80.000,133839.000,1.000
2.953,2.055,4.860,1.466,4.502,2.109,0.128,2.329,-0.051,0.891,-0.410,-2.502,-0.031,0.183,80.000,133840.000,1.000
1.328,-0.865,2.238,-2.210,0.124,-3.523,-5.697,-3.681,-0.050,0.890,-0.414,-2.838,-0.122,0.183,80.000,133841.000,1.000
-1.383,-3.740,-1.203,-6.415,-4.176,-8.789,-11.423,-8.946,-0.052,0.890,-0.412,-3.052,-0.061,0.122,80.000,133842.000,1.000
-4.273,-6.132,-4.616,-9.806,-6.963,-11.599,-14.228,-11.176,-0.052,0.884,-0.414,-3.265,-0.092,0.153,80.000,133843.000,1.000
-6.605,-7.872,-7.151,-11.417,-7.571,-11.227,-12.953,-9.701,-0.054,0.882,-0.417,-3.510,-0.122,0.153,80.000,133844.000,1.000
-7.963,-8.727,-8.185,-10.858,-5.976,-7.808,-8.021,-5.149,-0.056,0.877,-0.415,-3.418,-0.092,0.153,80.000,133845.000,1.000
-8.381,-8.619,-7.505,-8.602,-2.915,-2.337,-1.210,0.827,-0.054,0.876,-0.418,-3.448,-0.244,0.153,80.000,133846.000,1.000
-8.304,-7.962,-5.867,-5.972,0.186,3.085,4.730,6.068,-0.054,0.875,-0.413,-3.265,-0.305,0.122,80.000,133847.000,1.000
-8.260,-7.451,-4.408,-4.364,1.909,6.050,7.515,8.889,-0.056,0.874,-0.416,-3.235,-0.275,0.031,80.000,133848.000,1.000
-8.621,-7.617,-4.144,-4.558,1.566,5.480,6.474,8.541,-0.057,0.872,-0.413,-3.052,-0.488,-0.122,80.000,133849.000,1.000
-9.562,-8.617,-5.549,-6.501,-0.680,2.154,2.368,5.054,-0.057,0.873,-0.413,-3.143,-0.519,-0.214,80.000,133850.000,1.000
-11.136,-10.199,-8.160,-9.468,-4.084,-2.087,-3.262,-0.813,-0.056,0.874,-0.415,-3.174,-0.610,-0.427,80.000,133851.000,1.000
-13.188,-11.614,-11.073,-12.422,-7.429,-5.162,-8.401,-7.295,-0.055,0.874,-0.415,-3.052,-0.671,-0.427,80.000,133852.000,1.000
-15.093,-11.804,-13.018,-14.206,-9.233,-5.449,-10.674,-11.705,-0.056,0.874,-0.416,-2.899,-0.702,-0.488,80.000,133853.000,1.000
-16.071,-10.176,-13.171,-14.066,-8.562,-2.579,-8.472,-11.827,-0.056,0.874,-0.416,-2.899,-0.793,-0.580,80.000,133854.000,1.000
-15.896,-7.238,-11.808,-12.256,-5.889,2.161,-2.401,-7.723,-0.053,0.875,-0.415,-2.808,-0.824,-0.519,80.000,133855.000,1.000
-15.099,-4.417,-9.860,-9.990,-3.130,5.994,4.258,-2.179,-0.051,0.873,-0.416,-2.777,-0.885,-0.488,80.000,133856.000,1.000
-14.585,-3.150,-8.502,-8.746,-2.423,6.112,7.259,1.191,-0.053,0.874,-0.415,-2.777,-0.885,-0.458,80.000,133857.000,1.000
-15.116,-3.970,-8.203,-9.298,-4.496,2.016,4.918,0.762,-0.052,0.873,-0.415,-2.655,-0.946,-0.458,80.000,133858.000,1.000
-17.016,-6.407,-8.820,-11.516,-8.394,-4.108,-0.989,-2.604,-0.054,0.875,-0.413,-2.625,-0.885,-0.336,80.000,133859.000,1.000
-19.921,-9.451,-9.990,-14.592,-12.409,-9.317,-7.220,-6.823,-0.055,0.877,-0.415,-2.655,-0.885,-0.336,80.000,133860.000,1.000
-22.757,-11.967,-11.049,-17.334,-14.946,-11.565,-10.864,-9.694,-0.056,0.878,-0.416,-2.625,-0.916,-0.366,80.000,133861.000,1.000
-24.483,-13.352,-11.798,-19.090,-15.448,-10.615,-10.958,-10.369,-0.058,0.881,-0.416,-2.686,-0.916,-0.275,80.000,133862.000,1.000
-24.852,-13.888,-12.436,-20.163,-14.762,-8.118,-8.885,-9.891,-0.059,0.879,-0.417,-2.686,-0.946,-0.275,80.000,133863.000,1.000
-24.172,-14.103,-13.035,-20.933,-14.018,-6.132,-6.774,-9.550,-0.060,0.878,-0.420,-2.716,-1.068,-0.214,80.000,133864.000,1.000
-22.716,-14.104,-13.195,-21.160,-13.548,-5.684,-5.750,-9.403,-0.060,0.873,-0.419,-2.563,-1.129,-0.153,80.000,133865.000,1.000
-20.790,-13.832,-12.386,-20.570,-13.179,-6.689,-5.720,-8.834,-0.059,0.871,-0.414,-2.441,-1.221,-0.122,80.000,133866.000,1.000
-18.974,-13.458,-10.899,-19.585,-12.876,-8.324,-6.130,-7.765,-0.058,0.868,-0.416,-2.258,-1.129,-0.122,80.000,133867.000,1.000
-17.842,-13.271,-9.383,-18.923,-12.810,-9.547,-6.413,-6.745,-0.060,0.872,-0.414,-1.953,-1.373,-0.122,80.000,133868.000,1.000
-17.668,-13.467,-8.394,-18.945,-13.089,-9.725,-6.338,-6.354,-0.059,0.878,-0.411,-1.678,-1.495,-0.061,80.000,133869.000,1.000
-18.363,-13.949,-8.085,-19.344,-13.479,-8.657,-5.759,-6.581,-0.060,0.882,-0.414,-1.617,-1.556,-0.122,80.000,133870.000,1.000
-19.515,-14.303,-7.958,-19.295,-13.492,-6.458,-4.431,-6.885,-0.059,0.886,-0.410,-1.587,-1.617,0.092,80.000,133871.000,1.000
-20.586,-14.132,-7.615,-18.100,-12.830,-3.873,-2.722,-6.910,-0.058,0.889,-0.406,-1.678,-1.617,0.183,80.000,133872.000,1.000
-21.062,-13.335,-6.770,-15.565,-11.573,-2.202,-1.573,-6.595,-0.057,0.890,-0.406,-1.740,-1.648,0.183,80.000,133873.000,1.000
-20.646,-12.106,-5.382,-12.109,-10.046,-2.426,-1.814,-5.997,-0.056,0.891,-0.407,-1.953,-1.709,0.397,80.000,133874.000,1.000
-19.368,-10.633,-3.656,-8.558,-8.554,-4.256,-3.363,-5.189,-0.056,0.891,-0.404,-2.106,-1.587,0.519,80.000,133875.000,1.000
-17.505,-8.839,-1.623,-5.633,-7.125,-6.137,-4.946,-4.101,-0.057,0.890,-0.406,-2.350,-1.617,0.549,80.000,133876.000,1.000
-15.578,-6.644,0.419,-3.765,-5.731,-6.564,-5.409,-2.794,-0.058,0.887,-0.406,-2.472,-1.678,0.763,80.000,133877.000,1.000
-14.289,-4.359,1.980,-3.129,-4.620,-5.303,-4.775,-1.660,-0.057,0.884,-0.407,-2.563,-1.740,0.885,80.000,133878.000,1.000
-14.118,-2.541,2.533,-3.617,-4.104,-3.160,-3.815,-1.052,-0.058,0.880,-0.408,-2.502,-1.740,0.977,80.000,133879.000,1.000
-14.873,-1.587,1.874,-4.785,-4.197,-1.228,-3.179,-0.891,-0.056,0.879,-0.411,-2.533,-1.740,0.946,80.000,133880.000,1.000
-15.807,-1.664,0.382,-6.090,-4.785,-0.624,-3.399,-1.055,-0.058,0.878,-0.410,-2.350,-1.831,1.068,80.000,133881.000,1.000
-16.109,-2.650,-1.486,-7.160,-5.749,-1.880,-4.922,-1.695,-0.057,0.879,-0.407,-2.319,-1.862,1.099,80.000,133882.000,1.000
-15.078,-3.873,-2.854,-7.515,-6.580,-4.115,-7.059,-2.456,-0.054,0.880,-0.406,-2.350,-1.862,1.038,80.000,133883.000,1.000
-12.363,-4.417,-2.894,-6.757,-6.575,-5.628,-8.230,-2.510,-0.052,0.880,-0.404,-2.228,-1.831,1.190,80.000,133884.000,1.000
-8.320,-3.855,-1.631,-5.177,-5.646,-5.375,-7.646,-1.831,-0.053,0.882,-0.407,-2.319,-1.648,1.221,80.000,133885.000,1.000
-3.860,-2.419,0.299,-3.651,-4.418,-3.439,-5.870,-1.505,-0.051,0.882,-0.408,-2.350,-1.587,1.282,80.000,133886.000,1.000
0.156,-0.654,1.980,-2.884,-3.538,-0.769,-4.164,-2.578,-0.050,0.882,-0.408,-2.319,-1.556,1.221,80.000,133887.000,1.000
3.301,0.777,2.949,-2.917,-3.328,0.927,-3.665,-5.057,-0.050,0.879,-0.405,-2.289,-1.526,1.190,80.000,133888.000,1.000
5.432,1.167,3.120,-3.435,-3.869,0.045,-4.935,-8.041,-0.048,0.881,-0.406,-2.319,-1.373,1.129,80.000,133889.000,1.000
6.534,0.203,2.638,-4.041,-4.816,-3.304,-7.245,-10.065,-0.049,0.879,-0.407,-2.319,-1.282,1.221,80.000,133890.000,1.000
6.773,-1.666,2.088,-4.275,-5.349,-7.131,-8.605,-9.684,-0.052,0.879,-0.408,-2.289,-1.251,1.160,80.000,133891.000,1.000
6.403,-3.604,1.836,-3.938,-4.881,-9.239,-7.619,-6.684,-0.051,0.878,-0.405,-2.319,-1.099,1.190,80.000,133892.000,1.000
5.614,-5.065,1.969,-3.222,-3.643,-8.788,-4.701,-2.420,-0.052,0.876,-0.407,-2.106,-1.038,1.160,80.000,133893.000,1.000
4.367,-6.175,2.146,-2.584,-2.559,-6.796,-1.811,1.064,-0.052,0.875,-0.408,-2.106,-0.977,1.129,80.000,133894.000,1.000
2.277,-7.603,1.599,-2.582,-2.745,-5.627,-1.291,2.036,-0.051,0.879,-0.408,-1.831,-0.977,1.099,80.000,133895.000,1.000
-1.057,-9.819,-0.147,-3.411,-4.676,-7.128,-3.971,0.122,-0.053,0.880,-0.406,-1.801,-0.977,1.038,80.000,133896.000,1.000
-5.338,-12.294,-2.863,-4.497,-7.510,-10.688,-8.203,-3.240,-0.052,0.881,-0.407,-1.556,-1.007,1.007,80.000,133897.000,1.000
-9.368,-13.618,-5.297,-4.798,-9.593,-13.701,-11.232,-5.871,-0.052,0.883,-0.406,-1.495,-0.916,0.885,80.000,133898.000,1.000
-11.728,-12.481,-6.063,-3.628,-9.603,-13.837,-11.533,-6.320,-0.052,0.884,-0.407,-1.465,-0.702,0.793,80.000,133899.000,1.000
-11.579,-8.497,-4.537,-0.957,-7.106,-10.575,-9.274,-4.105,-0.050,0.884,-0.405,-1.465,-0.671,0.824,80.000,133900.000,1.000
-9.102,-2.520,-0.971,2.651,-2.662,-5.295,-5.546,0.328,-0.050,0.886,-0.405,-1.404,-0.702,0.763,80.000,133901.000,1.000
-5.448,3.743,3.347,6.098,2.432,0.031,-1.687,5.433,-0.050,0.885,-0.405,-1.465,-0.580,0.824,80.000,133902.000,1.000
-2.021,8.830,7.184,8.394,6.969,4.524,1.815,9.479,-0.050,0.886,-0.402,-1.404,-0.397,0.824,80.000,133903.000,1.000
0.265,12.149,9.899,9.143,10.262,8.224,5.074,11.500,-0.051,0.883,-0.403,-1.404,-0.336,0.824,80.000,133904.000,1.000
1.252,13.630,11.231,8.430,11.825,10.585,7.479,11.245,-0.053,0.885,-0.404,-1.465,-0.397,0.824,80.000,133905.000,1.000
1.375,13.298,11.255,6.643,11.279,10.386,7.811,8.972,-0.052,0.885,-0.402,-1.434,-0.305,0.793,80.000,133906.000,1.000
1.197,11.268,9.936,4.301,8.637,7.067,5.356,5.273,-0.053,0.885,-0.401,-1.373,-0.336,0.854,80.000,133907.000,1.000
1.139,8.048,7.495,1.991,4.491,1.556,0.686,0.775,-0.052,0.884,-0.404,-1.373,-0.305,0.885,80.000,133908.000,1.000
1.489,4.625,4.479,0.247,-0.002,-4.034,-4.529,-3.823,-0.056,0.885,-0.405,-1.312,-0.336,0.763,80.000,133909.000,1.000
2.430,2.080,1.601,-0.548,-3.403,-7.441,-8.146,-7.278,-0.055,0.885,-0.404,-1.404,-0.244,0.732,80.000,133910.000,1.000
3.904,0.941,-0.311,-0.237,-4.676,-7.629,-8.632,-8.122,-0.054,0.885,-0.403,-1.404,-0.244,0.702,80.000,133911.000,1.000
5.546,0.949,-0.872,1.056,-3.732,-5.424,-6.112,-5.759,-0.054,0.884,-0.407,-1.404,-0.214,0.671,80.000,133912.000,1.000
6.966,1.578,0.093,3.223,-1.153,-2.506,-1.711,-0.697,-0.053,0.884,-0.406,-1.404,-0.336,0.671,80.000,133913.000,1.000
7.942,2.469,2.335,6.140,2.228,-0.151,3.230,5.683,-0.052,0.884,-0.403,-1.221,-0.305,0.763,80.000,133914.000,1.000
8.309,3.270,4.874,9.218,5.224,0.850,6.865,10.973,-0.053,0.885,-0.406,-1.099,-0.244,0.885,80.000,133915.000,1.000
7.916,3.532,6.614,11.442,6.546,0.173,7.273,12.543,-0.055,0.886,-0.404,-1.038,-0.366,0.916,80.000,133916.000,1.000
6.841,3.030,6.818,12.147,5.753,-1.528,4.114,9.554,-0.053,0.887,-0.402,-1.282,-0.397,0.916,80.000,133917.000,1.000
5.547,2.003,5.694,11.659,3.666,-2.724,-0.474,3.847,-0.054,0.885,-0.401,-1.251,-0.458,0.916,80.000,133918.000,1.000
4.586,0.973,3.967,10.901,1.630,-2.072,-3.554,-1.581,-0.053,0.884,-0.405,-1.251,-0.336,0.977,80.000,133919.000,1.000
4.127,0.372,2.249,10.606,0.519,0.498,-3.749,-4.579,-0.053,0.881,-0.407,-1.282,-0.305,0.916,80.000,133920.000,1.000
3.857,0.328,0.995,10.989,0.392,3.585,-1.790,-4.623,-0.053,0.880,-0.405,-1.221,-0.305,0.977,80.000,133921.000,1.000
3.325,0.774,0.240,11.818,0.838,5.391,0.525,-2.581,-0.057,0.880,-0.404,-1.099,-0.305,1.038,80.000,133922.000,1.000
2.426,1.674,0.009,12.697,1.424,5.055,1.726,-0.073,-0.056,0.878,-0.407,-1.038,-0.336,0.977,80.000,133923.000,1.000
1.528,3.023,0.231,13.264,1.899,2.983,1.229,1.324,-0.054,0.876,-0.406,-0.824,-0.519,0.946,80.000,133924.000,1.000
1.268,4.782,0.698,13.508,2.311,0.305,-0.559,1.059,-0.053,0.876,-0.406,-0.610,-0.488,1.007,80.000,133925.000,1.000
2.213,6.931,1.496,13.937,2.981,-1.685,-2.485,-0.118,-0.054,0.881,-0.407,-0.519,-0.397,1.007,80.000,133926.000,1.000
4.539,9.510,2.755,15.209,4.303,-1.847,-3.349,-0.845,-0.053,0.881,-0.406,-0.488,-0.366,0.946,80.000,133927.000,1.000
7.859,12.391,4.651,17.614,6.403,0.295,-2.275,0.025,-0.052,0.882,-0.404,-0.549,-0.458,0.946,80.000,133928.000,1.000
11.194,14.999,6.918,20.663,8.877,4.196,0.913,2.734,-0.053,0.883,-0.401,-0.427,-0.397,1.068,80.000,133929.000,1.000
13.520,16.725,8.820,23.448,11.163,9.025,5.903,6.716,-0.052,0.884,-0.399,-0.427,-0.458,1.038,80.000,133930.000,1.000
14.481,17.484,9.884,25.347,13.032,14.311,12.283,11.218,-0.052,0.882,-0.401,-0.397,-0.458,1.068,80.000,133931.000,1.000
14.290,17.359,9.726,25.955,14.170,19.083,18.640,15.091,-0.054,0.884,-0.401,-0.397,-0.427,1.007,80.000,133932.000,1.000
13.228,16.055,8.160,24.850,13.721,21.280,22.266,16.480,-0.053,0.884,-0.404,-0.549,-0.519,1.007,80.000,133933.000,1.000
11.450,13.124,5.160,21.821,10.882,19.098,20.742,13.808,-0.054,0.881,-0.407,-0.549,-0.610,1.038,80.000,133934.000,1.000
9.106,8.513,1.002,17.332,5.835,12.521,13.900,7.418,-0.055,0.880,-0.406,-0.519,-0.580,1.068,80.000,133935.000,1.000
6.473,2.764,-3.412,12.483,-0.237,3.189,3.938,-0.404,-0.055,0.879,-0.405,-0.519,-0.641,1.038,80.000,133936.000,1.000
3.897,-3.184,-7.186,8.328,-5.874,-6.585,-6.282,-7.163,-0.056,0.878,-0.405,-0.549,-0.702,1.129,80.000,133937.000,1.000
1.696,-8.281,-9.616,5.470,-9.902,-14.537,-14.354,-11.171,-0.052,0.879,-0.406,-0.488,-0.671,1.038,80.000,133938.000,1.000
0.063,-11.667,-10.435,4.046,-11.608,-18.957,-18.718,-11.641,-0.052,0.877,-0.404,-0.488,-0.610,0.946,80.000,133939.000,1.000
-0.900,-12.881,-9.821,3.830,-10.891,-19.191,-18.896,-8.980,-0.052,0.878,-0.406,-0.305,-0.610,0.916,80.000,133940.000,1.000
-1.142,-12.006,-8.039,4.427,-8.335,-15.937,-15.534,-4.747,-0.052,0.878,-0.407,-0.305,-0.702,0.977,80.000,133941.000,1.000
-0.782,-9.678,-5.698,5.458,-4.964,-10.891,-10.276,-0.762,-0.053,0.882,-0.408,-0.122,-0.702,0.916,80.000,133942.000,1.000
-0.216,-6.855,-3.458,6.656,-1.934,-6.053,-5.127,1.677,-0.051,0.881,-0.404,-0.031,-0.793,0.946,80.000,133943.000,1.000
0.008,-4.466,-1.903,7.781,-0.157,-3.067,-1.825,1.920,-0.050,0.881,-0.402,-0.092,-0.763,0.885,80.000,133944.000,1.000
-0.347,-2.848,-1.180,8.794,0.341,-2.372,-0.982,0.357,-0.049,0.882,-0.402,-0.183,-0.549,0.916,80.000,133945.000,1.000
-0.955,-1.546,-0.633,9.986,0.508,-2.864,-1.652,-1.578,-0.052,0.884,-0.402,-0.214,-0.641,0.854,80.000,133946.000,1.000
-1.372,-0.022,0.246,11.468,1.317,-3.034,-2.454,-2.567,-0.052,0.886,-0.405,-0.183,-0.671,0.885,80.000,133947.000,1.000
-1.387,1.830,1.652,13.081,3.195,-2.104,-2.314,-1.940,-0.052,0.886,-0.405,-0.397,-0.580,0.763,80.000,133948.000,1.000
-0.928,3.890,3.619,14.749,6.267,-0.001,-0.488,0.703,-0.051,0.885,-0.405,-0.397,-0.732,0.732,80.000,133949.000,1.000
-0.109,5.814,5.792,16.361,10.142,2.579,2.871,5.091,-0.049,0.884,-0.404,-0.427,-0.671,0.641,80.000,133950.000,1.000
0.620,6.859,7.357,17.529,13.555,4.078,6.267,9.732,-0.049,0.884,-0.409,-0.427,-0.702,0.641,80.000,133951.000,1.000
0.856,6.425,7.295,17.947,15.182,3.312,7.846,12.833,-0.048,0.885,-0.408,-0.458,-0.671,0.671,80.000,133952.000,1.000
0.687,4.702,5.437,17.709,14.691,0.667,6.986,13.645,-0.047,0.885,-0.405,-0.397,-0.610,0.671,80.000,133953.000,1.000
0.363,2.392,2.334,16.793,12.584,-2.477,4.294,12.318,-0.048,0.883,-0.404,-0.488,-0.580,0.702,80.000,133954.000,1.000
-0.123,0.136,-1.322,14.817,9.560,-4.909,0.835,9.242,-0.048,0.882,-0.405,-0.519,-0.519,0.763,80.000,133955.000,1.000
-0.890,-1.664,-4.686,11.534,6.262,-6.259,-2.390,4.969,-0.046,0.878,-0.405,-0.458,-0.519,0.732,80.000,133956.000,1.000
-1.826,-2.878,-7.149,7.235,3.217,-7.044,-4.981,0.281,-0.046,0.875,-0.407,-0.458,-0.549,0.763,80.000,133957.000,1.000
-2.442,-3.508,-8.205,2.876,0.843,-7.923,-6.910,-3.801,-0.048,0.874,-0.407,-0.336,-0.488,0.793,80.000,133958.000,1.000
-2.165,-3.581,-7.722,-0.364,-0.637,-8.913,-8.139,-6.408,-0.049,0.875,-0.411,-0.183,-0.458,0.854,80.000,133959.000,1.000
-0.753,-3.168,-6.103,-1.660,-1.233,-9.363,-8.479,-7.175,-0.053,0.878,-0.412,-0.092,-0.427,0.824,80.000,133960.000,1.000
1.531,-2.462,-3.915,-0.871,-1.121,-8.561,-7.547,-6.165,-0.053,0.881,-0.411,0.122,-0.458,0.793,80.000,133961.000,1.000
3.931,-1.925,-2.128,1.176,-0.827,-6.755,-5.579,-4.064,-0.052,0.884,-0.413,0.122,-0.458,0.763,80.000,133962.000,1.000
5.482,-2.215,-1.702,2.949,-1.322,-5.568,-3.990,-2.344,-0.048,0.883,-0.410,0.122,-0.458,0.732,80.000,133963.000,1.000
5.580,-3.634,-3.014,3.213,-3.269,-6.601,-4.444,-2.370,-0.045,0.884,-0.413,0.092,-0.458,0.702,80.000,133964.000,1.000
4.442,-5.560,-5.411,1.952,-6.095,-9.526,-7.037,-4.049,-0.048,0.883,-0.414,0.153,-0.336,0.763,80.000,133965.000,1.000
2.918,-6.724,-7.330,0.206,-8.214,-12.116,-9.905,-5.775,-0.049,0.884,-0.413,0.275,-0.183,0.732,80.000,133966.000,1.000
1.800,-6.129,-7.608,-0.977,-8.231,-12.032,-10.877,-5.894,-0.051,0.883,-0.414,0.336,-0.153,0.824,80.000,133967.000,1.000
1.470,-3.648,-5.963,-1.134,-5.845,-8.456,-8.945,-3.927,-0.054,0.886,-0.412,0.305,-0.122,0.793,80.000,133968.000,1.000
2.069,0.110,-2.925,-0.283,-1.788,-2.399,-4.648,-0.594,-0.056,0.887,-0.409,0.305,-0.336,0.732,80.000,133969.000,1.000
