EEG 1,EEG 2,EEG 3,EEG 4,EEG 5,EEG 6,EEG 7,EEG 8,Accelerometer X,Accelerometer Y,Accelerometer Z,Gyroscope X,Gyroscope Y,Gyroscope Z,Battery Level,Counter,Validation Indicator
801.699,-4970.146,-2694.178,-9466.861,4444.688,4905.085,-3141.147,4119.337,-0.103,0.937,-0.124,0.000,0.000,0.000,80.000,1.000,1.000
4313.074,-36548.828,-11575.302,-59481.948,35435.975,36413.507,-19482.237,28506.459,-0.112,0.950,-0.135,0.000,0.000,0.000,80.000,2.000,1.000
9707.539,-127999.253,-36313.040,-195953.266,120141.615,121355.007,-61635.266,89901.714,-0.116,0.960,-0.139,0.000,0.000,0.000,80.000,3.000,1.000
12975.190,-281945.070,-76661.994,-418046.803,262638.742,257948.629,-125664.162,182486.926,-0.115,0.964,-0.141,0.000,0.000,0.000,80.000,4.000,1.000
15715.183,-438656.924,-115517.652,-641064.483,431622.568,401674.081,-187314.163,278604.192,-0.116,0.969,-0.143,0.000,0.000,0.000,80.000,5.000,1.000
31980.803,-506120.677,-127014.727,-735685.170,581102.699,495032.593,-216822.311,353836.644,-0.116,0.971,-0.140,-2.106,1.404,-0.183,80.000,6.000,1.000
83220.691,-424186.202,-93331.314,-619242.378,674661.367,508969.148,-193565.315,403454.406,-0.116,0.972,-0.143,-6.836,0.153,1.129,80.000,7.000,1.000
183629.762,-202235.897,-15054.097,-315492.801,699366.803,462210.080,-113490.404,439779.826,-0.116,0.975,-0.142,-6.470,-1.892,1.770,80.000,8.000,1.000
325241.147,86683.541,89679.457,62635.254,670142.730,407418.569,11302.347,478817.869,-0.116,0.978,-0.142,-6.348,-2.716,2.106,80.000,9.000,1.000
476814.218,340721.950,194491.067,379235.910,620841.068,395972.094,161399.604,528101.804,-0.116,0.979,-0.141,-6.439,-3.143,2.136,80.000,10.000,1.000
598938.515,478443.545,278757.261,546738.978,583452.823,446221.327,317402.711,580152.897,-0.115,0.979,-0.141,-6.561,-3.357,2.136,80.000,11.000,1.000
661886.782,479449.047,337102.273,565905.309,570117.170,534549.574,460420.136,611815.244,-0.115,0.982,-0.142,-6.622,-3.540,2.075,80.000,12.000,1.000
655535.111,386823.535,376086.826,508440.839,572830.357,614581.683,573356.949,596817.451,-0.114,0.983,-0.142,-6.897,-3.540,2.014,80.000,13.000,1.000
590405.753,268235.846,403580.245,455299.486,578327.976,650781.576,644520.935,527440.925,-0.113,0.982,-0.142,-7.202,-3.601,1.892,80.000,14.000,1.000
490733.022,170699.985,422030.570,441834.627,580959.098,637966.775,669436.790,422327.359,-0.108,0.984,-0.139,-7.507,-3.632,1.801,80.000,15.000,1.000
382024.741,106184.039,429762.172,453413.456,582143.728,591829.841,651563.523,311183.076,-0.105,0.981,-0.142,-7.721,-3.601,1.740,80.000,16.000,1.000
281766.543,68471.126,426802.696,463733.680,582435.755,527056.439,602162.999,215253.872,-0.103,0.979,-0.139,-7.996,-3.571,1.740,80.000,17.000,1.000
199610.151,51960.602,418110.511,467090.956,578888.921,448668.269,537071.712,142541.975,-0.104,0.976,-0.141,-8.087,-3.448,1.709,80.000,18.000,1.000
141588.279,52656.171,410422.157,473199.546,570096.067,361284.342,470045.332,94675.904,-0.102,0.977,-0.137,-8.270,-3.387,1.617,80.000,19.000,1.000
109873.252,60720.191,406756.610,483539.352,559978.077,279020.286,407724.527,71201.371,-0.103,0.978,-0.139,-8.362,-3.204,1.709,80.000,20.000,1.000
99323.771,62810.545,405189.995,486004.293,554057.446,220145.607,352015.506,66993.720,-0.101,0.976,-0.139,-8.484,-2.930,1.648,80.000,21.000,1.000
98455.140,53739.072,402791.180,472838.209,553125.551,191673.230,306090.400,70936.511,-0.100,0.968,-0.140,-8.484,-2.686,1.770,80.000,22.000,1.000
96552.485,40996.312,399371.331,453719.072,552793.004,182925.390,274486.486,71705.258,-0.100,0.963,-0.139,-8.331,-2.472,1.831,80.000,23.000,1.000
89958.173,34897.534,396776.788,444940.777,549218.944,176413.921,256904.404,65287.910,-0.101,0.961,-0.138,-8.118,-2.319,1.862,80.000,24.000,1.000
81209.962,36659.105,395627.654,449779.695,543333.792,163428.766,245508.568,55508.049,-0.102,0.960,-0.139,-7.874,-2.136,1.862,80.000,25.000,1.000
73257.261,38889.935,394266.044,456130.022,538604.113,147322.805,231163.391,47420.094,-0.101,0.961,-0.136,-7.629,-2.106,1.862,80.000,26.000,1.000
66006.336,36117.007,391063.213,453011.527,536141.952,133834.965,211589.709,41799.205,-0.101,0.962,-0.133,-7.355,-2.106,1.984,80.000,27.000,1.000
58145.281,30878.544,386640.126,443285.603,533723.987,122621.639,191589.112,36321.313,-0.102,0.966,-0.129,-7.233,-1.953,1.984,80.000,28.000,1.000
50203.277,28649.793,383026.299,437386.593,529298.018,109575.222,175785.499,30055.462,-0.106,0.967,-0.130,-7.080,-1.801,2.106,80.000,29.000,1.000
44219.202,29983.154,381080.512,438774.938,523728.815,94174.631,163400.182,24720.937,-0.105,0.967,-0.131,-7.019,-1.740,2.136,80.000,30.000,1.000
40866.117,30407.410,379611.526,440661.046,519131.325,80850.702,150783.343,21771.496,-0.106,0.968,-0.129,-6.805,-1.587,2.228,80.000,31.000,1.000
38339.181,26986.924,377107.131,436353.560,515124.447,73086.353,136981.815,20062.606,-0.105,0.968,-0.131,-6.714,-1.526,2.228,80.000,32.000,1.000
34514.531,22024.154,373600.471,427953.999,508118.453,68858.801,124643.580,17293.838,-0.104,0.968,-0.132,-6.653,-1.434,2.228,80.000,33.000,1.000
29370.762,19522.395,370362.331,422561.174,494759.640,63327.245,115823.854,12891.567,-0.104,0.965,-0.131,-6.622,-1.404,2.228,80.000,34.000,1.000
24605.921,19990.743,368128.743,422666.269,475081.845,54673.329,108990.672,8407.372,-0.106,0.962,-0.130,-6.439,-1.251,2.167,80.000,35.000,1.000
21299.319,20407.049,366271.871,423729.130,451812.096,45540.168,101104.423,5294.001,-0.109,0.957,-0.132,-6.226,-1.221,2.136,80.000,36.000,1.000
18777.239,18514.813,363784.128,420829.778,427651.918,39018.794,91492.484,3262.943,-0.110,0.952,-0.132,-5.981,-1.282,2.228,80.000,37.000,1.000
15829.250,15360.297,360579.036,414662.341,404014.083,34917.453,82305.924,1089.863,-0.110,0.949,-0.133,-5.676,-1.221,2.075,80.000,38.000,1.000
12316.751,13319.615,357466.963,409658.777,381674.395,30674.431,75416.666,-1688.968,-0.112,0.947,-0.131,-5.157,-1.373,2.167,80.000,39.000,1.000
9111.412,12971.421,355046.907,408001.603,361391.266,24884.144,70157.530,-4470.327,-0.110,0.943,-0.130,-4.883,-1.495,2.075,80.000,40.000,1.000
6783.679,12841.015,353024.274,407524.034,343495.421,18716.088,64571.376,-6650.860,-0.107,0.936,-0.132,-4.364,-1.495,2.045,80.000,41.000,1.000
4925.917,11622.238,350695.848,405158.413,327416.532,13999.300,58006.848,-8363.499,-0.104,0.933,-0.130,-3.845,-1.373,2.045,80.000,42.000,1.000
2813.768,9618.120,347832.326,400653.044,312116.667,10924.307,51610.541,-10092.977,-0.102,0.930,-0.127,-3.357,-1.556,2.533,80.000,43.000,1.000
312.841,7956.171,344864.729,396217.497,296942.901,8094.248,46524.352,-12017.183,-0.100,0.922,-0.132,-2.686,-1.678,2.655,80.000,44.000,1.000
-2109.570,7145.742,342285.813,393519.701,281899.979,4349.142,42465.200,-13962.813,-0.098,0.916,-0.127,-1.526,-1.648,2.747,80.000,45.000,1.000
-4060.045,6766.361,340083.643,392031.907,267281.887,-42.893,38334.103,-15753.640,-0.093,0.914,-0.118,-0.031,-1.251,2.777,80.000,46.000,1.000
-5626.421,6171.936,337831.956,390095.212,253334.873,-3949.036,33666.464,-17336.725,-0.094,0.911,-0.113,0.977,-1.038,2.960,80.000,47.000,1.000
-7150.544,5102.087,335224.010,386828.288,240218.032,-6707.421,28997.647,-18692.986,-0.089,0.907,-0.113,1.923,-1.007,3.174,80.000,48.000,1.000
-8821.150,3759.294,332398.299,382816.589,227958.013,-8746.064,24989.061,-19880.870,-0.084,0.896,-0.110,2.930,-0.732,3.662,80.000,49.000,1.000
-10558.610,2601.735,329736.449,379325.442,216322.724,-11031.616,21653.567,-21122.077,-0.083,0.884,-0.106,4.456,-0.458,3.815,80.000,50.000,1.000
-12169.689,1994.656,327415.820,377030.773,204956.383,-14038.146,18512.564,-22592.738,-0.079,0.875,-0.108,6.348,-0.214,4.211,80.000,51.000,1.000
-13527.758,1808.761,325222.434,375355.159,193793.315,-17264.531,15210.943,-24105.445,-0.080,0.873,-0.110,8.606,0.061,4.608,80.000,52.000,1.000
-14668.361,1414.765,322811.644,373012.572,183174.565,-19788.548,11802.429,-25247.506,-0.085,0.875,-0.110,11.078,0.427,4.883,80.000,53.000,1.000
-15776.325,357.177,320111.762,369400.538,173362.467,-21325.653,8575.648,-25945.408,-0.092,0.885,-0.107,13.611,0.488,5.005,80.000,54.000,1.000
-17026.034,-974.445,317408.726,365419.005,164070.102,-22623.677,5761.134,-26663.340,-0.097,0.899,-0.102,15.930,0.671,5.157,80.000,55.000,1.000
-18371.103,-1695.458,315005.213,362546.819,154752.643,-24626.695,3347.612,-27823.362,-0.103,0.913,-0.098,17.914,0.824,5.402,80.000,56.000,1.000
-19551.248,-1577.220,312848.680,361001.346,145350.681,-27301.877,1068.005,-29183.672,-0.110,0.927,-0.094,19.745,0.702,5.157,80.000,57.000,1.000
-20399.769,-1483.214,310586.220,359289.739,136421.310,-29611.743,-1384.853,-30110.239,-0.116,0.939,-0.089,21.271,0.366,4.913,80.000,58.000,1.000
-21098.485,-2309.667,308001.370,356012.041,128373.325,-30806.219,-4017.694,-30458.119,-0.117,0.947,-0.086,22.552,0.183,4.700,80.000,59.000,1.000
-21990.318,-3730.257,305296.289,351762.353,120834.490,-31445.985,-6462.679,-30831.936,-0.120,0.951,-0.083,23.712,-0.214,4.547,80.000,60.000,1.000
-23126.990,-4530.596,302844.864,348502.397,113091.479,-32748.917,-8390.779,-31785.968,-0.119,0.957,-0.082,24.567,-0.519,4.608,80.000,61.000,1.000
-24161.150,-4231.798,300711.105,346996.887,105055.259,-35002.860,-9977.487,-33036.269,-0.125,0.961,-0.079,25.482,-1.038,4.639,80.000,62.000,1.000
-24790.798,-3812.000,298555.841,345688.887,97402.003,-37134.628,-11756.098,-33817.473,-0.126,0.965,-0.081,26.154,-1.587,4.578,80.000,63.000,1.000
-25188.882,-4433.279,296072.692,342691.622,90642.802,-38097.034,-13935.682,-33939.330,-0.129,0.968,-0.081,27.008,-2.167,4.547,80.000,64.000,1.000
-25804.169,-5838.806,293393.895,338349.247,84392.802,-38282.574,-16071.491,-34075.734,-0.131,0.967,-0.085,27.679,-2.747,4.395,80.000,65.000,1.000
-26759.805,-6653.280,290923.253,334856.926,77876.130,-39039.335,-17616.525,-34850.427,-0.132,0.964,-0.083,28.351,-3.235,4.181,80.000,66.000,1.000
-27667.567,-6249.489,288803.509,333325.876,70989.053,-40879.136,-18679.472,-35970.356,-0.131,0.961,-0.084,28.900,-3.723,3.906,80.000,67.000,1.000
-28143.524,-5632.895,286723.525,332240.244,64443.937,-42778.809,-19932.735,-36620.291,-0.130,0.959,-0.088,29.785,-4.395,3.723,80.000,68.000,1.000
-28339.381,-6088.394,284329.908,329471.342,58780.066,-43550.094,-21723.392,-36586.422,-0.129,0.958,-0.092,30.792,-5.096,3.601,80.000,69.000,1.000
-28750.189,-7419.852,281698.258,325166.374,53607.550,-43448.238,-23578.733,-36553.323,-0.134,0.963,-0.091,31.982,-5.585,3.387,80.000,70.000,1.000
-29542.562,-8209.654,279231.727,321566.319,48133.433,-43834.428,-24824.694,-37160.689,-0.141,0.971,-0.093,33.020,-6.226,3.174,80.000,71.000,1.000
-30322.611,-7756.515,277121.129,319968.695,42240.111,-45339.663,-25511.146,-38126.837,-0.149,0.978,-0.096,33.936,-6.927,2.838,80.000,72.000,1.000
-30672.255,-7030.969,275091.963,318969.463,36626.249,-47021.008,-26368.556,-38646.930,-0.154,0.984,-0.100,34.454,-7.843,2.563,80.000,73.000,1.000
-30723.409,-7340.296,272776.523,316382.539,31828.147,-47651.098,-27824.038,-38503.531,-0.156,0.989,-0.102,34.698,-8.942,2.258,80.000,74.000,1.000
-30980.883,-8548.519,270206.196,312206.335,27482.184,-47379.157,-29416.028,-38354.698,-0.159,0.993,-0.108,34.790,-9.918,2.075,80.000,75.000,1.000
-31636.194,-9289.120,267757.849,308592.218,22833.047,-47512.788,-30423.889,-38821.271,-0.158,0.992,-0.112,34.973,-10.956,1.801,80.000,76.000,1.000
-32312.623,-8846.571,265613.807,306879.019,17763.763,-48742.657,-30858.158,-39647.581,-0.161,0.996,-0.120,35.278,-11.841,1.495,80.000,77.000,1.000
-32585.610,-8110.152,263441.647,305732.491,12928.320,-50233.470,-31450.186,-40077.181,-0.157,0.996,-0.129,35.645,-13.031,1.129,80.000,78.000,1.000
-32558.844,-8325.442,260727.052,302887.693,8833.949,-50786.310,-32653.616,-39894.808,-0.156,1.001,-0.130,35.828,-14.038,1.068,80.000,79.000,1.000
-32711.035,-9398.410,257337.179,298090.406,5156.787,-50454.113,-34029.143,-39696.166,-0.152,1.000,-0.134,35.950,-15.045,0.854,80.000,80.000,1.000
-33238.134,-10065.820,253591.527,293269.316,1209.842,-50427.124,-34852.610,-40049.451,-0.151,1.002,-0.143,35.889,-16.083,0.824,80.000,81.000,1.000
-33797.462,-9640.260,249805.091,289836.950,-3118.911,-51400.508,-35103.820,-40730.274,-0.148,1.003,-0.144,35.767,-16.937,0.763,80.000,82.000,1.000
-33989.111,-8913.593,245964.445,286893.884,-7247.603,-52667.329,-35482.261,-41061.482,-0.147,1.003,-0.146,35.736,-17.395,0.763,80.000,83.000,1.000
-33898.962,-9031.592,241937.911,282701.662,-10722.953,-53123.319,-36446.499,-40847.656,-0.145,1.007,-0.146,35.553,-18.127,0.732,80.000,84.000,1.000
-33966.551,-9941.455,237847.516,277244.964,-13828.196,-52759.437,-37604.181,-40614.467,-0.143,1.010,-0.148,35.278,-18.799,0.946,80.000,85.000,1.000
-34381.502,-10521.192,234036.187,272327.924,-17168.500,-52625.563,-38270.888,-40865.912,-0.141,1.012,-0.149,34.943,-19.623,1.007,80.000,86.000,1.000
-34841.211,-10137.208,230664.069,269151.781,-20847.349,-53384.871,-38406.563,-41411.591,-0.140,1.018,-0.150,34.546,-20.447,1.160,80.000,87.000,1.000
-34980.169,-9466.792,227497.586,266742.278,-24362.931,-54454.791,-38649.375,-41663.438,-0.136,1.021,-0.152,33.875,-21.332,1.251,80.000,88.000,1.000
-34862.980,-9521.017,224192.980,263317.596,-27320.209,-54847.458,-39432.088,-41446.465,-0.134,1.023,-0.150,33.051,-22.095,1.556,80.000,89.000,1.000
-34876.244,-10276.098,220706.555,258650.833,-29954.843,-54500.028,-40408.131,-41205.634,-0.130,1.023,-0.156,32.043,-22.675,1.892,80.000,90.000,1.000
-35195.296,-10767.117,217303.696,254246.138,-32781.478,-54301.437,-40949.449,-41371.189,-0.126,1.018,-0.158,31.128,-23.376,2.075,80.000,91.000,1.000
-35562.886,-10431.573,214182.801,251227.394,-35895.304,-54858.640,-41001.082,-41787.081,-0.122,1.012,-0.163,30.334,-23.834,2.441,80.000,92.000,1.000
-35657.833,-9831.448,211225.961,248879.051,-38881.514,-55714.686,-41127.466,-41960.647,-0.118,1.003,-0.167,29.663,-24.261,2.777,80.000,93.000,1.000
-35526.661,-9831.693,208185.531,245724.977,-41409.031,-56024.383,-41727.826,-41742.714,-0.115,0.994,-0.171,29.053,-24.689,3.021,80.000,94.000,1.000
-35499.066,-10432.729,205024.637,241539.594,-43668.128,-55697.296,-42515.147,-41501.584,-0.112,0.980,-0.181,28.595,-25.116,3.174,80.000,95.000,1.000
-35732.208,-10832.663,201951.474,237560.046,-46082.364,-55465.314,-42940.818,-41596.803,-0.109,0.969,-0.187,28.442,-25.299,3.357,80.000,96.000,1.000
-36014.735,-10548.296,199125.037,234745.127,-48735.045,-55861.675,-42943.431,-41905.898,-0.108,0.956,-0.192,28.625,-25.574,3.723,80.000,97.000,1.000
-36073.764,-10030.215,196444.141,232526.041,-51294.050,-56536.887,-43002.834,-42027.517,-0.107,0.951,-0.194,28.870,-25.604,3.906,80.000,98.000,1.000
-35940.903,-9995.183,193692.442,229664.663,-53491.363,-56786.008,-43469.126,-41834.546,-0.106,0.949,-0.192,29.083,-25.818,4.089,80.000,99.000,1.000
-35887.580,-10459.800,190824.552,225927.875,-55474.620,-56500.229,-44106.609,-41615.687,-0.104,0.950,-0.196,29.175,-25.879,4.333,80.000,100.000,1.000
-36048.623,-10777.168,188009.028,222309.145,-57578.698,-56260.732,-44446.620,-41656.641,-0.103,0.953,-0.198,29.358,-25.970,4.517,80.000,101.000,1.000
-36255.880,-10544.194,185391.102,219623.677,-59871.972,-56522.457,-44425.601,-41865.028,-0.103,0.955,-0.203,29.327,-26.062,4.639,80.000,102.000,1.000
-36284.734,-10109.183,182905.733,217456.811,-62096.097,-57033.071,-44441.271,-41929.017,-0.104,0.955,-0.206,29.236,-26.123,4.761,80.000,103.000,1.000
-36155.058,-10048.132,180378.447,214812.864,-64040.853,-57226.519,-44795.021,-41749.792,-0.101,0.954,-0.210,29.083,-26.031,4.761,80.000,104.000,1.000
-36085.226,-10391.304,177758.199,211464.103,-65817.578,-56989.502,-45303.719,-41551.154,-0.098,0.953,-0.218,29.022,-25.909,4.883,80.000,105.000,1.000
-36188.721,-10636.793,175169.616,208173.188,-67682.099,-56766.714,-45579.871,-41553.780,-0.096,0.954,-0.217,28.809,-25.818,4.974,80.000,106.000,1.000
-36334.886,-10457.335,172733.951,205604.685,-69686.588,-56930.688,-45557.511,-41687.087,-0.094,0.958,-0.215,28.717,-25.787,5.005,80.000,107.000,1.000
-36342.261,-10107.971,170411.677,203470.531,-71633.658,-57306.441,-45550.767,-41712.246,-0.092,0.962,-0.216,28.503,-25.635,5.066,80.000,108.000,1.000
-36220.046,-10033.041,168067.506,200998.025,-73358.926,-57451.988,-45807.804,-41550.165,-0.092,0.969,-0.218,28.168,-25.452,5.188,80.000,109.000,1.000
-36137.203,-10268.969,165652.115,197977.898,-74937.738,-57255.394,-46191.637,-41364.320,-0.093,0.970,-0.223,27.649,-25.269,5.188,80.000,110.000,1.000
-36186.935,-10442.326,163255.322,194973.080,-76557.817,-57044.903,-46396.381,-41320.644,-0.095,0.967,-0.228,26.855,-25.085,5.188,80.000,111.000,1.000
-36274.500,-10299.495,160975.789,192508.204,-78264.587,-57121.707,-46365.223,-41375.307,-0.092,0.961,-0.234,26.093,-24.902,5.371,80.000,112.000,1.000
-36260.952,-10020.273,158793.025,190398.582,-79925.376,-57378.688,-46342.352,-41360.800,-0.090,0.957,-0.241,25.543,-24.719,5.463,80.000,113.000,1.000
-36147.940,-9934.998,156604.669,188067.163,-81429.490,-57484.638,-46526.288,-41219.354,-0.088,0.954,-0.244,25.146,-24.506,5.402,80.000,114.000,1.000
-36059.654,-10082.553,154363.767,185327.156,-82832.131,-57332.506,-46816.949,-41062.270,-0.086,0.951,-0.245,24.841,-24.200,5.341,80.000,115.000,1.000
-36069.243,-10198.576,152130.670,182571.218,-84264.038,-57148.376,-46977.229,-41003.700,-0.085,0.949,-0.243,24.628,-23.865,5.188,80.000,116.000,1.000
-36112.159,-10093.683,149983.477,180198.545,-85757.164,-57165.168,-46956.108,-41015.316,-0.083,0.947,-0.250,24.200,-23.529,4.974,80.000,117.000,1.000
-36086.686,-9884.477,147916.657,178107.243,-87221.612,-57329.341,-46935.251,-40983.839,-0.084,0.943,-0.255,23.804,-23.102,4.791,80.000,118.000,1.000
-35988.457,-9801.930,145856.873,175888.539,-88579.423,-57405.375,-47068.254,-40866.282,-0.086,0.942,-0.258,23.499,-22.705,4.425,80.000,119.000,1.000
-35902.245,-9881.613,143761.796,173381.810,-89860.377,-57292.732,-47284.876,-40730.225,-0.088,0.939,-0.257,23.254,-22.339,4.059,80.000,120.000,1.000
-35881.002,-9947.072,141668.038,170839.687,-91145.936,-57130.001,-47406.240,-40648.233,-0.090,0.939,-0.260,22.858,-21.942,3.723,80.000,121.000,1.000
-35882.430,-9863.211,139635.121,168552.205,-92459.395,-57088.278,-47386.219,-40606.304,-0.093,0.938,-0.260,22.583,-21.637,3.387,80.000,122.000,1.000
-35835.826,-9698.016,137668.417,166480.942,-93749.475,-57156.344,-47353.412,-40538.710,-0.094,0.938,-0.263,22.034,-21.271,2.960,80.000,123.000,1.000
-35735.406,-9605.089,135718.702,164356.605,-94968.754,-57183.536,-47425.487,-40420.440,-0.099,0.938,-0.265,21.545,-20.996,2.686,80.000,124.000,1.000
-35638.450,-9621.208,133748.458,162044.846,-96129.763,-57086.267,-47562.955,-40289.985,-0.102,0.935,-0.268,21.118,-20.844,2.289,80.000,125.000,1.000
-35585.664,-9644.387,131775.039,159686.115,-97275.365,-56939.360,-47642.572,-40189.441,-0.108,0.928,-0.274,20.752,-20.813,1.678,80.000,126.000,1.000
-35555.384,-9584.631,129841.698,157478.359,-98420.966,-56861.214,-47625.629,-40114.590,-0.112,0.924,-0.278,20.294,-20.660,1.129,80.000,127.000,1.000
-35501.672,-9468.829,127961.591,155429.964,-99545.413,-56866.180,-47593.973,-40032.500,-0.115,0.919,-0.281,20.111,-20.599,0.549,80.000,128.000,1.000
-35413.939,-9383.326,126105.551,153384.346,-100626.987,-56865.390,-47628.959,-39927.086,-0.120,0.912,-0.285,19.958,-20.477,-0.244,80.000,129.000,1.000
-35321.864,-9359.857,124241.849,151233.425,-101667.854,-56787.949,-47710.534,-39811.009,-0.123,0.912,-0.287,19.958,-20.569,-1.038,80.000,130.000,1.000
-35251.279,-9352.399,122373.434,149029.508,-102683.333,-56659.285,-47758.889,-39701.659,-0.124,0.911,-0.289,20.081,-20.569,-1.678,80.000,131.000,1.000
-35194.376,-9307.663,120529.119,146883.687,-103682.707,-56555.464,-47742.369,-39601.962,-0.127,0.912,-0.296,19.989,-20.660,-2.502,80.000,132.000,1.000
-35126.308,-9223.886,118725.642,144819.048,-104665.667,-56509.014,-47706.805,-39504.317,-0.128,0.912,-0.296,19.867,-20.660,-3.235,80.000,133.000,1.000
-35037.529,-9137.928,116949.027,142768.788,-105627.354,-56479.414,-47705.248,-39400.560,-0.131,0.913,-0.299,19.714,-20.844,-3.967,80.000,134.000,1.000
-34941.021,-9078.319,115174.184,140682.825,-106560.095,-56408.031,-47733.129,-39284.959,-0.130,0.911,-0.302,19.623,-20.935,-4.822,80.000,135.000,1.000
-34853.897,-9042.683,113394.980,138569.357,-107457.374,-56284.962,-47746.179,-39157.695,-0.131,0.909,-0.309,19.440,-21.027,-5.676,80.000,136.000,1.000
-34780.213,-9008.688,111628.980,136418.175,-108323.449,-56155.771,-47721.576,-39029.842,-0.132,0.906,-0.314,19.440,-21.149,-6.378,80.000,137.000,1.000
-34710.580,-8955.523,109894.333,134163.216,-109173.162,-56067.572,-47679.477,-38915.895,-0.129,0.901,-0.321,19.409,-21.179,-7.080,80.000,138.000,1.000
-34633.058,-8881.115,108188.128,131801.702,-110013.861,-56016.820,-47650.120,-38815.581,-0.129,0.898,-0.324,19.348,-21.088,-7.599,80.000,139.000,1.000
-34543.552,-8806.118,106490.918,129476.432,-110831.285,-55954.665,-47638.312,-38709.963,-0.126,0.892,-0.330,19.562,-21.027,-8.301,80.000,140.000,1.000
-34448.506,-8754.710,104790.340,127322.327,-111604.099,-55842.346,-47624.222,-38583.707,-0.128,0.889,-0.334,19.928,-20.844,-8.698,80.000,141.000,1.000
-34358.344,-8724.482,103095.278,125259.062,-112333.486,-55695.612,-47589.034,-38447.341,-0.123,0.888,-0.335,20.355,-20.630,-9.155,80.000,142.000,1.000
-34276.451,-8683.119,101424.100,123051.121,-113046.258,-55567.092,-47533.123,-38325.860,-0.119,0.895,-0.338,20.691,-20.447,-9.308,80.000,143.000,1.000
-34194.632,-8606.394,99781.431,120617.935,-113761.340,-55483.941,-47472.675,-38224.061,-0.118,0.898,-0.335,21.027,-20.172,-9.491,80.000,144.000,1.000
-34102.242,-8514.022,98151.966,118171.962,-114462.786,-55413.744,-47423.174,-38116.267,-0.114,0.908,-0.332,21.271,-19.928,-9.766,80.000,145.000,1.000
-34000.347,-8450.497,96519.201,115946.904,-115119.399,-55303.838,-47385.154,-37979.314,-0.112,0.920,-0.325,21.332,-19.348,-9.857,80.000,146.000,1.000
-33902.387,-8427.109,94886.050,113882.439,-115727.593,-55148.772,-47343.498,-37825.796,-0.111,0.934,-0.327,21.118,-18.982,-9.796,80.000,147.000,1.000
-33817.019,-8401.287,93271.444,111706.675,-116317.174,-54998.553,-47281.627,-37688.879,-0.113,0.946,-0.322,20.660,-18.524,-9.674,80.000,148.000,1.000
-33734.130,-8328.337,91686.303,109293.597,-116909.117,-54892.997,-47199.250,-37576.629,-0.112,0.953,-0.319,19.684,-18.097,-9.399,80.000,149.000,1.000
-33635.483,-8221.945,90118.881,106804.059,-117483.956,-54807.242,-47114.560,-37459.595,-0.114,0.957,-0.319,18.768,-17.639,-9.125,80.000,150.000,1.000
-33519.245,-8139.731,88549.149,104447.347,-118006.855,-54683.181,-47044.197,-37311.387,-0.113,0.958,-0.321,17.578,-17.181,-9.094,80.000,151.000,1.000
-33405.171,-8107.869,86974.539,102228.677,-118476.036,-54508.053,-46982.505,-37147.274,-0.116,0.955,-0.320,16.266,-16.785,-8.850,80.000,152.000,1.000
-33310.821,-8085.654,85413.287,100005.563,-118927.254,-54335.317,-46908.275,-37006.020,-0.119,0.949,-0.323,15.320,-16.296,-8.698,80.000,153.000,1.000
-33228.976,-8020.902,83880.282,97702.576,-119387.320,-54217.070,-46813.960,-36898.107,-0.120,0.942,-0.326,14.374,-15.869,-8.392,80.000,154.000,1.000
-33136.602,-7921.701,82367.196,95371.634,-119839.544,-54135.289,-46718.212,-36790.821,-0.124,0.937,-0.327,13.550,-15.350,-8.209,80.000,155.000,1.000
-33024.315,-7844.917,80853.500,93079.613,-120248.354,-54023.724,-46641.122,-36651.082,-0.125,0.933,-0.326,12.787,-14.862,-8.026,80.000,156.000,1.000
-32907.511,-7816.345,79333.621,90835.141,-120610.402,-53853.812,-46574.292,-36488.407,-0.129,0.932,-0.324,12.085,-14.465,-7.721,80.000,157.000,1.000
-32804.455,-7793.049,77823.898,88631.976,-120962.427,-53671.056,-46488.656,-36339.941,-0.130,0.933,-0.324,11.444,-14.069,-7.568,80.000,158.000,1.000
-32711.480,-7721.374,76340.332,86480.585,-121334.595,-53533.115,-46372.967,-36219.405,-0.130,0.937,-0.322,10.651,-13.763,-7.385,80.000,159.000,1.000
-32609.523,-7611.979,74877.021,84363.180,-121713.021,-53433.364,-46251.891,-36100.891,-0.131,0.938,-0.321,9.857,-13.428,-7.111,80.000,160.000,1.000
-32492.484,-7528.065,73413.800,82220.874,-122062.404,-53312.849,-46156.801,-35958.170,-0.134,0.939,-0.320,9.003,-13.092,-6.958,80.000,161.000,1.000
-32377.021,-7501.060,71942.672,80035.331,-122376.254,-53142.124,-46085.601,-35802.695,-0.137,0.939,-0.318,8.087,-12.848,-6.805,80.000,162.000,1.000
-32279.592,-7488.239,70477.864,77881.260,-122684.828,-52960.427,-46005.020,-35667.046,-0.136,0.936,-0.317,7.080,-12.451,-6.653,80.000,163.000,1.000
-32192.770,-7430.322,69036.379,75835.315,-123011.627,-52820.817,-45893.872,-35558.068,-0.138,0.933,-0.318,6.134,-12.024,-6.317,80.000,164.000,1.000
-32094.083,-7330.206,67615.393,73853.979,-123339.962,-52717.583,-45769.650,-35445.406,-0.138,0.927,-0.317,5.371,-11.749,-6.317,80.000,165.000,1.000
-31975.622,-7246.251,66196.584,71815.539,-123635.157,-52594.294,-45662.865,-35301.401,-0.138,0.923,-0.318,4.730,-11.505,-6.287,80.000,166.000,1.000
-31854.345,-7211.837,64770.834,69691.430,-123891.006,-52420.487,-45575.235,-35138.023,-0.141,0.920,-0.315,4.089,-11.169,-6.134,80.000,167.000,1.000
-31749.427,-7191.918,63349.814,67601.731,-124137.014,-52232.028,-45478.694,-34990.793,-0.139,0.919,-0.312,3.754,-10.864,-6.073,80.000,168.000,1.000
-31657.187,-7133.400,61949.577,65655.138,-124398.123,-52081.472,-45355.453,-34872.137,-0.141,0.920,-0.312,3.510,-10.590,-6.012,80.000,169.000,1.000
-31556.850,-7037.538,60569.152,63789.445,-124662.780,-51967.477,-45223.198,-34757.111,-0.144,0.923,-0.308,3.021,-10.254,-5.981,80.000,170.000,1.000
-31438.948,-6956.085,59192.522,61847.631,-124902.066,-51838.669,-45111.058,-34619.012,-0.145,0.923,-0.307,2.747,-10.132,-6.012,80.000,171.000,1.000
-31317.735,-6919.769,57810.029,59795.641,-125111.898,-51664.330,-45020.128,-34464.734,-0.146,0.926,-0.308,2.350,-9.796,-5.829,80.000,172.000,1.000
-31211.056,-6897.865,56430.318,57776.381,-125318.788,-51474.139,-44921.902,-34322.198,-0.149,0.926,-0.308,1.892,-9.491,-5.920,80.000,173.000,1.000
-31115.762,-6841.658,55067.918,55914.592,-125541.923,-51315.026,-44795.869,-34199.909,-0.150,0.926,-0.306,1.251,-9.247,-6.012,80.000,174.000,1.000
-31012.424,-6749.998,53724.055,54140.787,-125765.372,-51187.187,-44655.410,-34075.544,-0.153,0.923,-0.306,0.824,-8.942,-6.073,80.000,175.000,1.000
-30892.122,-6668.338,52386.050,52284.594,-125958.450,-51046.094,-44528.114,-33927.688,-0.155,0.919,-0.304,0.275,-8.698,-6.134,80.000,176.000,1.000
-30767.991,-6625.640,51044.852,50312.264,-126114.990,-50864.187,-44418.404,-33765.275,-0.156,0.918,-0.303,-0.214,-8.636,-5.981,80.000,177.000,1.000
-30656.692,-6596.664,49706.562,48376.623,-126258.600,-50666.616,-44302.825,-33614.670,-0.162,0.916,-0.303,-0.366,-8.514,-6.042,80.000,178.000,1.000
-30556.427,-6539.032,48383.265,46606.166,-126410.058,-50495.434,-44163.247,-33484.282,-0.163,0.916,-0.303,-0.763,-8.240,-6.226,80.000,179.000,1.000
-30451.056,-6451.176,47076.518,44926.227,-126562.428,-50353.849,-44011.774,-33355.506,-0.163,0.917,-0.304,-1.007,-8.057,-6.226,80.000,180.000,1.000
-30332.909,-6372.279,45775.597,43162.345,-126695.247,-50204.953,-43873.831,-33210.138,-0.165,0.917,-0.299,-1.373,-7.965,-6.378,80.000,181.000,1.000
-30212.536,-6327.950,44471.948,41283.594,-126805.332,-50023.277,-43754.250,-33055.178,-0.164,0.918,-0.302,-1.709,-7.874,-6.531,80.000,182.000,1.000
-30103.519,-6297.710,43169.913,39448.676,-126911.354,-49828.129,-43632.897,-32912.219,-0.168,0.919,-0.302,-2.045,-7.690,-6.622,80.000,183.000,1.000
-30004.288,-6245.805,41879.937,37789.359,-127027.575,-49655.850,-43493.772,-32787.916,-0.166,0.916,-0.303,-2.319,-7.629,-6.714,80.000,184.000,1.000
-29900.920,-6169.123,40604.503,36231.035,-127143.495,-49510.366,-43345.193,-32665.154,-0.167,0.916,-0.305,-2.441,-7.446,-6.592,80.000,185.000,1.000
-29785.833,-6097.330,39335.821,34597.353,-127236.324,-49358.060,-43204.158,-32524.897,-0.168,0.912,-0.302,-2.533,-7.294,-6.683,80.000,186.000,1.000
-29666.921,-6049.709,38067.246,32850.292,-127298.784,-49171.852,-43069.721,-32368.954,-0.166,0.910,-0.305,-2.777,-7.263,-6.561,80.000,187.000,1.000
-29555.812,-6009.772,36802.241,31136.189,-127345.192,-48963.977,-42922.737,-32214.488,-0.169,0.909,-0.303,-2.716,-7.019,-6.439,80.000,188.000,1.000
-29451.966,-5949.511,35549.239,29582.520,-127389.633,-48765.376,-42750.769,-32069.857,-0.171,0.908,-0.301,-2.563,-6.836,-6.287,80.000,189.000,1.000
-29343.922,-5867.102,34310.156,28130.153,-127427.191,-48583.082,-42563.556,-31925.070,-0.171,0.910,-0.295,-2.686,-6.622,-6.256,80.000,190.000,1.000
-29225.011,-5787.610,33078.042,26624.831,-127442.563,-48393.847,-42379.567,-31767.975,-0.175,0.916,-0.290,-2.686,-6.531,-6.042,80.000,191.000,1.000
-29101.850,-5728.908,31846.293,25028.646,-127432.289,-48179.381,-42203.409,-31602.090,-0.177,0.925,-0.287,-2.808,-6.348,-5.981,80.000,192.000,1.000
-28985.108,-5680.182,30616.645,23458.108,-127410.067,-47952.631,-42023.785,-31441.796,-0.182,0.932,-0.287,-3.082,-6.256,-6.073,80.000,193.000,1.000
-28876.038,-5619.829,29395.845,22007.807,-127389.908,-47740.903,-41832.615,-31293.496,-0.186,0.937,-0.290,-3.357,-6.165,-6.012,80.000,194.000,1.000
-28766.602,-5545.543,28186.356,20612.732,-127371.133,-47551.442,-41638.218,-31149.208,-0.188,0.937,-0.289,-3.906,-6.165,-6.012,80.000,195.000,1.000
-28651.605,-5476.100,26983.527,19135.910,-127344.097,-47365.808,-41455.604,-30999.780,-0.189,0.932,-0.287,-4.486,-6.317,-5.920,80.000,196.000,1.000
-28535.431,-5425.198,25782.277,17551.551,-127306.248,-47167.498,-41288.363,-30848.212,-0.191,0.928,-0.287,-4.822,-6.348,-5.890,80.000,197.000,1.000
-28424.962,-5383.877,24583.801,15972.673,-127265.518,-46963.290,-41125.675,-30704.836,-0.192,0.924,-0.283,-4.791,-6.256,-6.134,80.000,198.000,1.000
-28319.435,-5333.237,23393.604,14497.661,-127227.292,-46771.619,-40956.146,-30571.766,-0.195,0.925,-0.280,-4.761,-6.073,-6.195,80.000,199.000,1.000
-28211.051,-5267.860,22214.263,13093.868,-127183.287,-46597.355,-40778.529,-30437.899,-0.197,0.924,-0.280,-5.127,-6.195,-6.134,80.000,200.000,1.000
-28094.879,-5199.272,21042.656,11667.330,-127117.741,-46426.922,-40596.834,-30290.938,-0.197,0.921,-0.285,-5.402,-6.287,-6.104,80.000,201.000,1.000
-27974.611,-5138.182,19874.526,10205.247,-127023.457,-46246.142,-40410.140,-30130.691,-0.196,0.918,-0.289,-5.646,-6.439,-5.951,80.000,202.000,1.000
-27857.204,-5080.975,18709.848,8791.638,-126907.231,-46054.262,-40212.017,-29966.999,-0.196,0.914,-0.287,-5.829,-6.470,-5.829,80.000,203.000,1.000
-27744.258,-5017.017,17552.223,7485.386,-126779.186,-45857.669,-39999.473,-29806.839,-0.194,0.908,-0.289,-5.615,-6.409,-5.890,80.000,204.000,1.000
-27631.379,-4944.580,16403.707,6235.597,-126641.869,-45655.333,-39778.928,-29648.307,-0.192,0.906,-0.289,-5.249,-6.378,-5.798,80.000,205.000,1.000
-27515.344,-4873.876,15261.987,4943.799,-126493.370,-45438.302,-39561.821,-29487.986,-0.193,0.906,-0.291,-4.974,-6.317,-5.737,80.000,206.000,1.000
-27398.933,-4815.011,14123.203,3578.639,-126338.355,-45205.526,-39356.398,-29330.097,-0.196,0.909,-0.294,-4.669,-6.195,-5.646,80.000,207.000,1.000
-27287.293,-4767.389,12986.560,2190.793,-126189.824,-44973.167,-39164.764,-29184.095,-0.198,0.913,-0.296,-4.272,-5.981,-5.554,80.000,208.000,1.000
-27181.197,-4722.627,11854.928,824.444,-126057.964,-44761.720,-38985.632,-29053.750,-0.199,0.916,-0.295,-3.906,-5.920,-5.402,80.000,209.000,1.000
-27076.262,-4675.194,10731.094,-543.322,-125940.369,-44575.738,-38817.184,-28932.371,-0.199,0.918,-0.296,-3.601,-5.981,-5.310,80.000,210.000,1.000
-26968.529,-4627.137,9614.776,-1960.219,-125826.027,-44401.485,-38657.378,-28810.490,-0.200,0.923,-0.294,-3.418,-5.920,-5.188,80.000,211.000,1.000
-26858.637,-4583.041,8503.820,-3426.193,-125708.174,-44224.858,-38504.238,-28686.044,-0.199,0.927,-0.294,-3.265,-5.798,-4.974,80.000,212.000,1.000
-26749.808,-4543.391,7397.279,-4894.039,-125590.303,-44046.414,-38357.084,-28564.281,-0.201,0.928,-0.289,-3.265,-5.676,-4.761,80.000,213.000,1.000
-26643.234,-4504.467,6296.250,-6334.241,-125479.299,-43876.273,-38216.688,-28448.922,-0.202,0.932,-0.289,-3.357,-5.646,-4.639,80.000,214.000,1.000
-26537.153,-4463.664,5201.841,-7769.460,-125376.422,-43718.835,-38083.859,-28337.053,-0.204,0.935,-0.288,-3.326,-5.524,-4.303,80.000,215.000,1.000
-26430.139,-4422.923,4113.385,-9237.741,-125278.017,-43568.364,-37958.837,-28223.758,-0.205,0.936,-0.287,-3.448,-5.432,-3.998,80.000,216.000,1.000
-26323.526,-4386.464,3029.148,-10742.960,-125183.380,-43419.200,-37842.827,-28109.641,-0.205,0.937,-0.287,-3.632,-5.371,-3.906,80.000,217.000,1.000
-26219.864,-4356.196,1948.346,-12258.131,-125097.632,-43274.444,-37738.481,-28000.907,-0.207,0.933,-0.286,-3.693,-5.371,-3.784,80.000,218.000,1.000
-26119.597,-4329.937,872.073,-13766.166,-125025.370,-43141.223,-37646.988,-27901.665,-0.207,0.931,-0.287,-3.845,-5.280,-3.540,80.000,219.000,1.000
-26020.223,-4303.815,-197.870,-15275.791,-124964.305,-43020.348,-37565.440,-27808.501,-0.204,0.930,-0.287,-3.845,-5.280,-3.448,80.000,220.000,1.000
-25918.983,-4276.119,-1261.040,-16797.951,-124907.900,-42904.748,-37488.888,-27714.234,-0.203,0.926,-0.284,-3.906,-5.157,-3.326,80.000,221.000,1.000
-25815.524,-4248.520,-2318.820,-18324.962,-124852.817,-42787.725,-37414.835,-27615.499,-0.204,0.925,-0.285,-3.967,-5.188,-3.052,80.000,222.000,1.000
-25711.451,-4223.446,-3372.595,-19841.497,-124800.866,-42669.494,-37344.193,-27514.659,-0.204,0.923,-0.283,-4.059,-5.096,-2.930,80.000,223.000,1.000
-25608.015,-4200.888,-4421.917,-21347.100,-124754.261,-42554.707,-37278.074,-27415.271,-0.205,0.920,-0.282,-3.937,-5.005,-2.686,80.000,224.000,1.000
-25505.121,-4178.296,-5465.006,-22855.874,-124711.464,-42445.478,-37214.956,-27317.856,-0.205,0.919,-0.280,-3.906,-4.883,-2.411,80.000,225.000,1.000
-25402.215,-4153.405,-6500.894,-24374.266,-124668.212,-42338.586,-37151.471,-27220.175,-0.207,0.917,-0.277,-3.876,-4.730,-2.289,80.000,226.000,1.000
-25299.140,-4126.388,-7530.497,-25888.634,-124621.051,-42228.856,-37085.157,-27120.011,-0.206,0.915,-0.280,-3.876,-4.547,-2.136,80.000,227.000,1.000
-25196.051,-4098.912,-8555.289,-27379.256,-124568.723,-42113.467,-37015.247,-27016.667,-0.206,0.914,-0.277,-3.876,-4.517,-1.740,80.000,228.000,1.000
-25092.954,-4071.567,-9575.450,-28842.078,-124511.402,-41993.196,-36941.605,-26910.694,-0.208,0.913,-0.280,-3.784,-4.456,-1.465,80.000,229.000,1.000
-24989.610,-4043.015,-10589.835,-30290.783,-124450.090,-41870.869,-36864.425,-26803.278,-0.208,0.912,-0.279,-3.662,-4.456,-1.251,80.000,230.000,1.000
-24885.960,-4012.060,-11597.563,-31738.551,-124386.082,-41748.928,-36785.023,-26695.699,-0.207,0.909,-0.277,-3.662,-4.333,-0.732,80.000,231.000,1.000
-24782.098,-3979.652,-12599.102,-33183.198,-124319.689,-41627.585,-36705.642,-26588.590,-0.209,0.908,-0.278,-3.510,-4.272,-0.488,80.000,232.000,1.000
-24677.784,-3947.856,-13595.658,-34612.545,-124249.494,-41504.759,-36627.376,-26481.462,-0.206,0.909,-0.279,-3.448,-4.150,-0.214,80.000,233.000,1.000
-24572.956,-3917.669,-14587.783,-36021.628,-124174.242,-41378.895,-36549.325,-26374.030,-0.205,0.909,-0.279,-3.357,-4.211,0.183,80.000,234.000,1.000
-24468.578,-3888.524,-15574.899,-37419.360,-124095.471,-41251.854,-36470.600,-26267.794,-0.201,0.910,-0.278,-3.296,-4.150,0.549,80.000,235.000,1.000
-24365.742,-3859.206,-16556.187,-38816.693,-124016.499,-41127.045,-36391.613,-26164.421,-0.199,0.914,-0.277,-3.326,-4.089,0.916,80.000,236.000,1.000
-24264.352,-3829.207,-17531.763,-40212.537,-123938.398,-41004.648,-36312.700,-26062.663,-0.200,0.919,-0.277,-3.387,-3.967,1.373,80.000,237.000,1.000
-24163.783,-3799.496,-18502.639,-41595.363,-123858.253,-40880.776,-36232.616,-25958.739,-0.198,0.923,-0.273,-3.601,-3.815,1.709,80.000,238.000,1.000
-24064.248,-3771.676,-19469.506,-42957.927,-123772.824,-40752.730,-36149.979,-25850.785,-0.197,0.927,-0.273,-3.845,-3.723,2.106,80.000,239.000,1.000
-23966.619,-3746.303,-20431.992,-44306.003,-123683.327,-40623.609,-36065.944,-25741.762,-0.197,0.929,-0.274,-4.089,-3.662,2.625,80.000,240.000,1.000
-23870.725,-3722.261,-21389.184,-45650.016,-123593.939,-40499.145,-35983.456,-25636.012,-0.196,0.931,-0.274,-4.425,-3.418,3.113,80.000,241.000,1.000
-23774.459,-3697.927,-22340.612,-46990.729,-123505.128,-40380.095,-35903.308,-25533.471,-0.195,0.934,-0.274,-4.852,-3.235,3.448,80.000,242.000,1.000
-23675.407,-3672.587,-23286.491,-48317.490,-123411.133,-40259.947,-35821.926,-25429.248,-0.194,0.935,-0.278,-5.249,-3.052,3.784,80.000,243.000,1.000
-23573.156,-3646.222,-24227.047,-49621.174,-123305.983,-40131.419,-35734.180,-25319.203,-0.194,0.935,-0.279,-5.737,-2.960,4.150,80.000,244.000,1.000
-23469.468,-3618.314,-25161.975,-50904.954,-123190.590,-39994.206,-35638.428,-25204.236,-0.194,0.934,-0.279,-6.317,-2.930,4.547,80.000,245.000,1.000
-23366.290,-3587.780,-26090.934,-52179.530,-123071.393,-39854.219,-35537.612,-25088.021,-0.194,0.934,-0.282,-6.592,-2.808,5.035,80.000,246.000,1.000
-23264.150,-3554.602,-27014.423,-53449.696,-122952.332,-39715.828,-35435.544,-24972.132,-0.196,0.932,-0.285,-7.019,-2.747,5.341,80.000,247.000,1.000
-23163.108,-3521.587,-27933.710,-54709.697,-122831.067,-39578.484,-35334.309,-24856.227,-0.197,0.927,-0.284,-7.233,-2.563,5.676,80.000,248.000,1.000
-23064.280,-3493.211,-28849.690,-55952.573,-122704.253,-39441.517,-35235.567,-24742.478,-0.194,0.915,-0.285,-7.660,-2.533,6.073,80.000,249.000,1.000
-22968.722,-3471.216,-29761.845,-57179.869,-122573.389,-39307.837,-35141.225,-24635.721,-0.192,0.904,-0.287,-7.690,-2.563,6.592,80.000,250.000,1.000
-22875.131,-3452.218,-30668.573,-58399.233,-122442.755,-39180.423,-35051.306,-24537.794,-0.190,0.895,-0.282,-7.629,-2.594,6.927,80.000,251.000,1.000
-22779.901,-3430.643,-31568.729,-59614.192,-122312.999,-39056.795,-34962.400,-24443.775,-0.187,0.890,-0.282,-7.416,-2.411,7.233,80.000,252.000,1.000
-22679.957,-3403.383,-32462.655,-60819.561,-122179.587,-38929.362,-34869.183,-24345.416,-0.187,0.893,-0.282,-6.989,-2.258,7.385,80.000,253.000,1.000
-22575.698,-3371.707,-33351.642,-62008.912,-122039.007,-38793.233,-34768.991,-24239.130,-0.187,0.895,-0.282,-6.500,-2.075,7.629,80.000,254.000,1.000
-22470.767,-3339.375,-34236.664,-63184.558,-121894.844,-38652.720,-34665.322,-24129.629,-0.188,0.894,-0.281,-6.104,-1.953,7.812,80.000,255.000,1.000
-22368.471,-3309.167,-35117.703,-64356.708,-121754.604,-38517.008,-34565.030,-24024.053,-0.185,0.893,-0.282,-5.890,-1.831,7.996,80.000,256.000,1.000
-22268.833,-3281.331,-35994.145,-65532.590,-121620.665,-38389.232,-34471.257,-23923.508,-0.187,0.890,-0.276,-5.493,-1.862,8.087,80.000,257.000,1.000
-22169.571,-3254.784,-36865.593,-66708.819,-121487.212,-38262.687,-34380.173,-23822.319,-0.183,0.888,-0.270,-4.883,-1.770,7.874,80.000,258.000,1.000
-22069.274,-3228.789,-37732.051,-67876.082,-121347.123,-38129.350,-34285.650,-23715.329,-0.182,0.892,-0.277,-4.395,-1.678,7.812,80.000,259.000,1.000
-21968.853,-3203.299,-38593.514,-69030.163,-121199.957,-37990.137,-34186.324,-23603.838,-0.187,0.896,-0.275,-3.723,-1.495,7.782,80.000,260.000,1.000
-21869.992,-3178.468,-39449.892,-70176.317,-121051.395,-37854.050,-34086.933,-23493.792,-0.186,0.897,-0.275,-3.296,-1.495,7.751,80.000,261.000,1.000
-21773.088,-3154.588,-40301.337,-71322.342,-120905.520,-37727.690,-33993.066,-23389.488,-0.186,0.896,-0.276,-2.777,-1.434,7.751,80.000,262.000,1.000
-21677.294,-3132.218,-41148.331,-72469.438,-120760.168,-37608.247,-33905.442,-23290.033,-0.183,0.897,-0.270,-2.411,-1.373,7.904,80.000,263.000,1.000
-21581.764,-3111.460,-41991.385,-73612.454,-120611.206,-37487.816,-33820.053,-23191.799,-0.183,0.905,-0.269,-1.892,-1.312,7.782,80.000,264.000,1.000
-21486.292,-3091.171,-42830.595,-74747.885,-120459.067,-37362.455,-33733.084,-23092.932,-0.186,0.914,-0.264,-1.312,-1.343,7.599,80.000,265.000,1.000
-21391.040,-3069.616,-43665.470,-75877.556,-120307.952,-37234.481,-33643.830,-22993.943,-0.184,0.924,-0.268,-1.190,-1.129,7.202,80.000,266.000,1.000
-21295.697,-3045.792,-44495.298,-77002.155,-120158.807,-37106.225,-33552.385,-22894.138,-0.185,0.926,-0.265,-1.129,-1.221,7.324,80.000,267.000,1.000
-21199.297,-3019.774,-45319.659,-78113.228,-120005.560,-36974.511,-33456.157,-22789.670,-0.185,0.923,-0.269,-1.282,-1.526,7.141,80.000,268.000,1.000
-21101.280,-2992.072,-46138.479,-79195.556,-119839.799,-36833.519,-33350.700,-22676.995,-0.186,0.917,-0.270,-0.946,-1.678,6.744,80.000,269.000,1.000
-21002.183,-2962.799,-46951.680,-80238.461,-119657.989,-36681.689,-33233.883,-22557.063,-0.185,0.918,-0.266,-0.305,-1.770,6.531,80.000,270.000,1.000
-20902.814,-2931.585,-47759.100,-81243.787,-119462.747,-36523.469,-33107.923,-22434.254,-0.184,0.925,-0.266,0.061,-1.892,6.226,80.000,271.000,1.000
-20803.330,-2898.510,-48561.007,-82222.625,-119258.302,-36364.329,-32977.203,-22311.956,-0.187,0.932,-0.261,0.488,-1.984,6.042,80.000,272.000,1.000
-20703.626,-2864.713,-49358.393,-83185.230,-119046.538,-36205.511,-32844.521,-22190.427,-0.185,0.936,-0.260,0.458,-2.167,5.737,80.000,273.000,1.000
-20604.063,-2831.734,-50152.292,-84135.449,-118827.588,-36044.830,-32710.224,-22068.816,-0.185,0.942,-0.261,0.153,-2.350,5.524,80.000,274.000,1.000
-20505.265,-2800.419,-50942.875,-85074.036,-118602.809,-35881.888,-32574.768,-21947.975,-0.183,0.944,-0.256,-0.122,-2.533,5.188,80.000,275.000,1.000
-20407.341,-2770.516,-51729.493,-86003.838,-118375.200,-35719.871,-32440.017,-21829.737,-0.178,0.941,-0.257,-0.580,-2.563,4.944,80.000,276.000,1.000
-20309.610,-2741.137,-52511.482,-86928.812,-118146.313,-35561.390,-32307.012,-21713.798,-0.180,0.938,-0.254,-0.671,-2.655,4.700,80.000,277.000,1.000
-20211.289,-2711.583,-53288.683,-87848.854,-117914.025,-35404.801,-32174.031,-21597.273,-0.175,0.934,-0.254,-0.977,-2.747,4.486,80.000,278.000,1.000
-20112.470,-2681.941,-54061.287,-88759.214,-117674.907,-35246.551,-32038.630,-21478.383,-0.177,0.931,-0.257,-1.038,-2.869,4.333,80.000,279.000,1.000
-20014.294,-2652.991,-54829.465,-89656.191,-117428.443,-35085.857,-31900.910,-21359.207,-0.173,0.928,-0.256,-1.099,-2.991,4.059,80.000,280.000,1.000
-19917.806,-2625.187,-55593.202,-90541.595,-117177.403,-34924.862,-31763.082,-21243.279,-0.172,0.927,-0.258,-1.251,-3.021,3.845,80.000,281.000,1.000
-19822.616,-2597.738,-56352.446,-91420.331,-116924.113,-34764.676,-31626.250,-21131.186,-0.174,0.925,-0.254,-0.946,-3.021,3.601,80.000,282.000,1.000
-19727.314,-2569.318,-57107.314,-92294.622,-116667.821,-34603.443,-31489.013,-21019.990,-0.170,0.926,-0.255,-1.007,-2.991,3.296,80.000,283.000,1.000
-19631.118,-2539.520,-57857.907,-93162.215,-116406.184,-34438.852,-31349.403,-20906.850,-0.170,0.926,-0.256,-0.854,-2.899,3.143,80.000,284.000,1.000
-19534.344,-2508.879,-58603.945,-94019.768,-116138.238,-34271.190,-31207.150,-20791.776,-0.167,0.928,-0.256,-0.763,-2.930,2.655,80.000,285.000,1.000
-19437.465,-2478.008,-59344.904,-94866.880,-115865.240,-34103.306,-31063.859,-20676.570,-0.168,0.928,-0.260,-0.763,-2.869,2.533,80.000,286.000,1.000
-19340.495,-2447.508,-60080.613,-95706.227,-115588.999,-33938.004,-30921.757,-20562.599,-0.169,0.929,-0.257,-0.610,-2.930,2.533,80.000,287.000,1.000
-19243.413,-2418.072,-60811.520,-96539.975,-115310.013,-33775.503,-30782.015,-20450.133,-0.166,0.927,-0.261,-0.610,-2.777,2.258,80.000,288.000,1.000
-19146.531,-2389.932,-61538.343,-97367.578,-115028.008,-33613.763,-30644.033,-20338.951,-0.170,0.927,-0.260,-0.397,-2.747,2.075,80.000,289.000,1.000
-19050.378,-2362.526,-62261.579,-98187.625,-114743.832,-33451.318,-30506.459,-20228.829,-0.169,0.927,-0.261,-0.336,-2.655,1.740,80.000,290.000,1.000
-18955.448,-2335.089,-62981.225,-99000.509,-114459.065,-33288.706,-30368.247,-20119.264,-0.170,0.928,-0.261,-0.214,-2.655,1.556,80.000,291.000,1.000
-18861.719,-2307.264,-63696.755,-99807.945,-114173.360,-33126.698,-30228.425,-20009.028,-0.170,0.928,-0.259,-0.122,-2.655,1.312,80.000,292.000,1.000
-18768.493,-2279.243,-64407.483,-100610.545,-113883.876,-32964.641,-30086.054,-19896.763,-0.167,0.928,-0.261,-0.214,-2.472,1.068,80.000,293.000,1.000
-18675.210,-2251.844,-65113.242,-101407.605,-113588.719,-32801.968,-29941.844,-19782.859,-0.171,0.924,-0.260,0.061,-2.441,1.068,80.000,294.000,1.000
-18582.213,-2226.115,-65814.597,-102198.848,-113289.615,-32640.082,-29798.812,-19670.076,-0.168,0.921,-0.265,0.092,-2.472,0.702,80.000,295.000,1.000
-18489.999,-2202.129,-66512.168,-102984.763,-112989.563,-32480.964,-29659.618,-19561.052,-0.171,0.918,-0.264,0.427,-2.350,0.732,80.000,296.000,1.000
-18398.177,-2178.607,-67205.930,-103765.234,-112689.063,-32324.675,-29523.905,-19455.767,-0.168,0.913,-0.263,0.763,-2.258,0.549,80.000,297.000,1.000
-18306.164,-2154.384,-67895.493,-104539.103,-112386.438,-32169.599,-29389.197,-19352.267,-0.170,0.913,-0.265,1.099,-2.106,0.458,80.000,298.000,1.000
-18213.936,-2129.343,-68580.681,-105305.128,-112080.685,-32014.301,-29253.397,-19248.683,-0.171,0.914,-0.263,1.556,-2.045,0.427,80.000,299.000,1.000
-18121.201,-2103.295,-69261.451,-106062.202,-111771.914,-31857.817,-29115.364,-19143.422,-0.169,0.919,-0.262,1.709,-1.984,0.183,80.000,300.000,1.000
-18027.053,-2075.470,-69937.672,-106809.595,-111460.052,-31699.178,-28974.506,-19035.125,-0.176,0.924,-0.258,2.136,-1.831,0.061,80.000,301.000,1.000
-17931.373,-2046.065,-70609.430,-107548.171,-111145.012,-31538.240,-28831.469,-18924.080,-0.172,0.927,-0.258,2.167,-1.953,-0.031,80.000,302.000,1.000
-17835.952,-2017.392,-71277.256,-108280.594,-110827.691,-31376.745,-28688.603,-18812.723,-0.174,0.932,-0.257,1.953,-1.831,0.061,80.000,303.000,1.000
-17743.120,-1992.184,-71941.700,-109009.579,-110509.561,-31217.397,-28548.501,-18703.519,-0.174,0.934,-0.254,1.831,-1.923,-0.153,80.000,304.000,1.000
-17653.040,-1970.459,-72602.641,-109735.520,-110190.696,-31061.167,-28411.424,-18596.257,-0.171,0.932,-0.256,1.587,-1.892,-0.122,80.000,305.000,1.000
-17563.476,-1949.199,-73259.183,-110456.207,-109868.731,-30906.198,-28274.744,-18488.231,-0.177,0.928,-0.253,1.587,-1.862,-0.122,80.000,306.000,1.000
-17472.063,-1925.174,-73910.368,-111168.808,-109540.425,-30749.674,-28135.399,-18377.255,-0.174,0.925,-0.260,1.404,-1.984,-0.122,80.000,307.000,1.000
-17377.981,-1897.275,-74556.013,-111871.603,-109204.226,-30590.237,-27992.446,-18263.848,-0.177,0.923,-0.258,1.373,-1.831,0.031,80.000,308.000,1.000
-17282.187,-1866.958,-75196.966,-112564.852,-108861.912,-30429.245,-27847.837,-18150.932,-0.177,0.919,-0.258,1.404,-1.892,-0.244,80.000,309.000,1.000
-17186.848,-1837.131,-75834.559,-113250.478,-108517.803,-30269.909,-27704.867,-18041.661,-0.176,0.920,-0.259,1.312,-1.923,-0.183,80.000,310.000,1.000
-17094.140,-1810.178,-76469.601,-113930.288,-108175.584,-30114.321,-27565.248,-17937.029,-0.180,0.920,-0.257,1.526,-1.831,-0.214,80.000,311.000,1.000
-17005.027,-1786.755,-77101.881,-114604.340,-107835.727,-29961.586,-27427.874,-17835.395,-0.176,0.922,-0.260,1.404,-1.862,-0.305,80.000,312.000,1.000
-16918.794,-1766.022,-77730.504,-115271.094,-107495.686,-29808.899,-27290.191,-17733.894,-0.179,0.926,-0.259,1.495,-1.892,-0.031,80.000,313.000,1.000
-16833.334,-1746.378,-78354.525,-115929.090,-107152.100,-29653.813,-27150.258,-17630.280,-0.177,0.930,-0.262,1.282,-1.923,-0.214,80.000,314.000,1.000
-16746.274,-1726.182,-78973.442,-116578.321,-106803.120,-29495.662,-27007.882,-17524.033,-0.175,0.932,-0.259,1.068,-1.892,0.061,80.000,315.000,1.000
-16656.659,-1704.513,-79587.429,-117220.351,-106449.362,-29335.659,-26864.330,-17416.288,-0.178,0.930,-0.259,0.977,-1.953,0.122,80.000,316.000,1.000
-16565.281,-1681.069,-80197.012,-117856.835,-106092.606,-29175.445,-26720.652,-17308.415,-0.176,0.928,-0.264,0.793,-2.045,0.183,80.000,317.000,1.000
-16473.269,-1655.516,-80802.493,-118487.963,-105733.661,-29015.287,-26576.257,-17200.551,-0.180,0.927,-0.262,0.916,-1.953,0.458,80.000,318.000,1.000
-16381.451,-1628.161,-81403.972,-119113.793,-105372.639,-28854.858,-26430.519,-17092.651,-0.179,0.925,-0.266,0.702,-2.075,0.397,80.000,319.000,1.000
-16290.694,-1600.774,-82001.644,-119735.836,-105010.217,-28695.160,-26284.982,-16986.134,-0.181,0.924,-0.262,0.610,-2.106,0.580,80.000,320.000,1.000
-16201.422,-1575.232,-82595.637,-120355.187,-104646.816,-28537.886,-26142.003,-16882.646,-0.180,0.924,-0.258,0.641,-2.045,0.488,80.000,321.000,1.000
-16113.206,-1552.034,-83185.877,-120970.566,-104282.031,-28383.745,-26002.357,-16782.198,-0.178,0.924,-0.260,0.519,-2.106,0.580,80.000,322.000,1.000
-16025.866,-1531.103,-83772.375,-121580.113,-103916.022,-28232.704,-25865.395,-16683.765,-0.180,0.924,-0.255,0.671,-2.045,0.732,80.000,323.000,1.000
-15940.059,-1512.689,-84355.319,-122184.199,-103550.143,-28084.726,-25730.274,-16586.573,-0.180,0.925,-0.259,0.549,-2.075,0.671,80.000,324.000,1.000
-15855.761,-1496.134,-84934.792,-122784.437,-103185.425,-27938.783,-25595.718,-16489.542,-0.185,0.928,-0.260,0.610,-2.075,0.793,80.000,325.000,1.000
-15771.221,-1479.055,-85510.610,-123380.719,-102821.269,-27792.239,-25459.657,-16390.612,-0.182,0.927,-0.260,0.580,-2.136,0.610,80.000,326.000,1.000
-15684.412,-1459.160,-86082.421,-123971.037,-102455.985,-27642.836,-25320.796,-16288.224,-0.183,0.928,-0.260,0.519,-2.136,0.702,80.000,327.000,1.000
-15594.679,-1435.800,-86649.804,-124553.471,-102087.716,-27490.314,-25179.629,-16182.648,-0.185,0.926,-0.259,0.671,-2.289,0.610,80.000,328.000,1.000
-15502.774,-1409.647,-87212.395,-125127.592,-101714.955,-27335.714,-25037.414,-16075.314,-0.183,0.924,-0.261,0.549,-2.289,0.610,80.000,329.000,1.000
-15410.705,-1382.644,-87770.237,-125694.782,-101337.504,-27180.817,-24895.631,-15968.209,-0.185,0.925,-0.255,0.641,-2.380,0.671,80.000,330.000,1.000
-15321.454,-1357.991,-88324.039,-126257.759,-100957.400,-27028.098,-24756.293,-15863.926,-0.181,0.924,-0.260,0.549,-2.441,0.610,80.000,331.000,1.000
-15237.069,-1338.088,-88874.822,-126818.916,-100578.015,-26879.352,-24621.014,-15764.530,-0.183,0.925,-0.257,0.610,-2.380,0.671,80.000,332.000,1.000
-15156.377,-1321.908,-89423.015,-127378.273,-100201.181,-26733.627,-24489.026,-15669.277,-0.185,0.927,-0.258,0.580,-2.502,0.580,80.000,333.000,1.000
-15075.343,-1305.410,-89968.025,-127933.577,-99825.585,-26587.439,-24357.180,-15574.464,-0.185,0.929,-0.260,0.427,-2.716,0.732,80.000,334.000,1.000
-14990.816,-1285.563,-90508.938,-128482.657,-99448.795,-26438.060,-24222.887,-15476.861,-0.186,0.927,-0.255,0.519,-2.625,0.763,80.000,335.000,1.000
-14903.491,-1263.333,-91045.471,-129025.155,-99070.176,-26286.340,-24086.482,-15376.732,-0.184,0.929,-0.259,0.427,-2.686,0.610,80.000,336.000,1.000
-14815.915,-1241.480,-91577.926,-129561.635,-98690.812,-26135.338,-23950.016,-15276.357,-0.189,0.932,-0.257,0.366,-2.808,0.732,80.000,337.000,1.000
-14728.792,-1220.659,-92106.460,-130092.017,-98311.295,-25986.739,-23814.471,-15176.572,-0.186,0.932,-0.255,0.183,-2.899,0.641,80.000,338.000,1.000
-14641.238,-1199.777,-92630.961,-130616.385,-97931.308,-25840.258,-23679.629,-15076.686,-0.187,0.935,-0.252,-0.061,-2.991,0.885,80.000,339.000,1.000
-14553.450,-1178.931,-93151.555,-131136.118,-97550.969,-25695.757,-23545.858,-14976.924,-0.185,0.935,-0.250,-0.244,-2.960,1.007,80.000,340.000,1.000
-14466.675,-1159.361,-93668.624,-131652.495,-97170.809,-25553.544,-23413.901,-14878.531,-0.182,0.936,-0.251,-0.397,-2.991,1.007,80.000,341.000,1.000
-14381.005,-1140.983,-94182.367,-132165.047,-96790.897,-25412.964,-23283.439,-14781.796,-0.183,0.935,-0.253,-0.610,-3.082,1.007,80.000,342.000,1.000
-14295.237,-1122.124,-94692.746,-132672.531,-96411.207,-25272.514,-23153.317,-14685.657,-0.180,0.937,-0.252,-0.916,-3.052,0.977,80.000,343.000,1.000
-14208.619,-1101.529,-95199.729,-133174.729,-96032.127,-25131.076,-23022.808,-14589.085,-0.181,0.942,-0.248,-1.038,-3.082,1.190,80.000,344.000,1.000
-14121.367,-1079.211,-95703.177,-133671.956,-95653.435,-24987.930,-22891.605,-14491.615,-0.182,0.941,-0.249,-1.312,-3.052,1.038,80.000,345.000,1.000
-14034.176,-1056.014,-96202.671,-134164.130,-95273.637,-24842.524,-22759.322,-14393.060,-0.182,0.943,-0.247,-1.587,-2.991,1.160,80.000,346.000,1.000
-13948.224,-1033.546,-96697.834,-134651.796,-94891.632,-24695.628,-22626.324,-14294.130,-0.180,0.942,-0.249,-2.014,-2.899,1.221,80.000,347.000,1.000
-13864.609,-1013.442,-97188.659,-135136.567,-94508.086,-24549.483,-22493.973,-14196.379,-0.180,0.941,-0.248,-2.411,-2.777,1.312,80.000,348.000,1.000
-13782.894,-995.737,-97675.432,-135619.512,-94124.620,-24405.759,-22363.167,-14100.639,-0.181,0.938,-0.250,-2.686,-2.777,1.251,80.000,349.000,1.000
-13701.239,-978.814,-98158.675,-136099.895,-93742.703,-24264.324,-22233.571,-14006.352,-0.181,0.934,-0.257,-2.991,-2.777,1.312,80.000,350.000,1.000
-13618.276,-961.094,-98639.048,-136575.910,-93363.229,-24124.174,-22104.493,-13912.636,-0.182,0.930,-0.255,-2.991,-2.777,1.373,80.000,351.000,1.000
-13534.294,-942.338,-99116.943,-137046.310,-92986.435,-23984.829,-21976.044,-13819.551,-0.180,0.926,-0.254,-2.991,-2.808,1.312,80.000,352.000,1.000
-13450.836,-923.565,-99592.102,-137511.097,-92611.852,-23846.504,-21848.961,-13727.970,-0.181,0.927,-0.251,-2.808,-2.655,1.282,80.000,353.000,1.000
-13368.828,-905.455,-100063.545,-137970.409,-92237.792,-23708.689,-21722.935,-13637.770,-0.177,0.928,-0.249,-2.808,-2.594,1.282,80.000,354.000,1.000
-13287.554,-887.321,-100530.174,-138423.574,-91861.797,-23569.613,-21596.164,-13547.191,-0.176,0.934,-0.246,-2.777,-2.502,1.221,80.000,355.000,1.000
-13206.086,-868.413,-100991.709,-138870.348,-91482.849,-23428.112,-21467.402,-13454.916,-0.175,0.937,-0.246,-2.991,-2.350,1.068,80.000,356.000,1.000
-13124.267,-848.884,-101448.714,-139311.664,-91101.969,-23284.732,-21337.162,-13361.512,-0.176,0.940,-0.246,-3.387,-2.075,1.038,80.000,357.000,1.000
-13042.268,-829.350,-101901.929,-139748.880,-90720.793,-23140.976,-21206.916,-13268.723,-0.177,0.942,-0.246,-3.693,-1.984,0.977,80.000,358.000,1.000
-12960.425,-810.732,-102351.980,-140183.661,-90340.942,-22998.799,-21078.438,-13178.389,-0.178,0.939,-0.247,-4.089,-1.801,0.854,80.000,359.000,1.000
-12878.793,-793.586,-102799.140,-140617.148,-89963.340,-22859.565,-20952.771,-13090.975,-0.181,0.934,-0.248,-4.395,-1.617,0.763,80.000,360.000,1.000
-12796.600,-777.091,-103243.092,-141048.300,-89587.051,-22722.655,-20828.956,-13004.623,-0.179,0.927,-0.248,-4.608,-1.526,0.671,80.000,361.000,1.000
-12713.179,-759.897,-103683.395,-141474.310,-89210.109,-22586.378,-20705.077,-12916.835,-0.179,0.925,-0.253,-4.578,-1.526,0.671,80.000,362.000,1.000
-12629.505,-742.054,-104120.215,-141893.050,-88831.893,-22450.261,-20580.688,-12827.132,-0.181,0.916,-0.256,-4.517,-1.434,0.488,80.000,363.000,1.000
-12547.687,-724.957,-104554.147,-142304.436,-88453.602,-22315.326,-20457.216,-12737.269,-0.181,0.912,-0.260,-4.333,-1.373,0.458,80.000,364.000,1.000
-12468.640,-709.334,-104985.319,-142709.185,-88076.233,-22182.195,-20335.890,-12648.832,-0.183,0.910,-0.258,-3.815,-1.221,0.488,80.000,365.000,1.000
-12391.351,-694.569,-105413.231,-143107.557,-87699.588,-22050.161,-20216.361,-12561.776,-0.184,0.908,-0.264,-3.265,-1.221,0.458,80.000,366.000,1.000
-12314.574,-680.080,-105837.525,-143499.753,-87323.470,-21918.280,-20097.605,-12475.452,-0.184,0.910,-0.265,-2.747,-1.221,0.427,80.000,367.000,1.000
-12238.042,-666.034,-106258.326,-143886.442,-86948.107,-21786.214,-19978.883,-12389.512,-0.186,0.908,-0.263,-2.228,-1.221,0.458,80.000,368.000,1.000
-12161.624,-652.391,-106675.697,-144268.767,-86573.112,-21653.707,-19859.510,-12303.420,-0.181,0.912,-0.258,-1.984,-1.282,0.458,80.000,369.000,1.000
-12084.466,-638.246,-107089.288,-144648.133,-86197.289,-21520.157,-19738.737,-12216.209,-0.185,0.919,-0.256,-1.587,-1.068,0.824,80.000,370.000,1.000
-12005.531,-622.576,-107498.762,-145025.646,-85819.697,-21385.206,-19616.331,-12127.170,-0.184,0.930,-0.249,-1.343,-0.977,0.580,80.000,371.000,1.000
-11924.395,-605.057,-107904.206,-145401.001,-85439.998,-21249.096,-19492.764,-12036.308,-0.186,0.941,-0.251,-1.312,-1.068,0.610,80.000,372.000,1.000
-11841.790,-586.335,-108306.074,-145772.380,-85058.118,-21112.338,-19368.792,-11944.309,-0.192,0.950,-0.253,-1.495,-1.007,0.671,80.000,373.000,1.000
-11759.640,-568.050,-108704.931,-146138.737,-84674.715,-20975.848,-19245.516,-11852.544,-0.191,0.952,-0.255,-1.892,-1.221,0.488,80.000,374.000,1.000
-11679.898,-551.964,-109101.119,-146501.460,-84291.382,-20840.894,-19124.236,-11762.489,-0.195,0.952,-0.259,-2.411,-1.312,0.488,80.000,375.000,1.000
-11602.847,-538.321,-109494.479,-146862.443,-83909.025,-20707.841,-19005.185,-11674.546,-0.197,0.944,-0.255,-2.716,-1.373,0.336,80.000,376.000,1.000
-11526.618,-525.275,-109884.429,-147220.822,-83526.323,-20575.566,-18886.945,-11587.830,-0.196,0.935,-0.261,-3.113,-1.556,0.366,80.000,377.000,1.000
-11449.185,-510.892,-110270.581,-147573.530,-83141.103,-20443.282,-18768.198,-11501.472,-0.198,0.925,-0.261,-3.082,-1.648,0.427,80.000,378.000,1.000
-11370.855,-495.704,-110653.296,-147919.652,-82753.544,-20312.647,-18650.086,-11416.194,-0.196,0.915,-0.262,-2.960,-1.892,0.244,80.000,379.000,1.000
-11293.938,-482.173,-111033.383,-148261.811,-82366.655,-20186.497,-18535.629,-11334.001,-0.199,0.910,-0.263,-2.655,-1.984,0.153,80.000,380.000,1.000
-11219.948,-471.564,-111411.247,-148602.391,-81983.084,-20065.194,-18426.102,-11255.669,-0.198,0.902,-0.265,-2.045,-2.106,0.092,80.000,381.000,1.000
-11147.611,-462.017,-111786.406,-148939.784,-81602.353,-19945.211,-18318.661,-11178.738,-0.194,0.892,-0.263,-1.617,-2.289,0.000,80.000,382.000,1.000
-11073.514,-449.605,-112157.755,-149268.917,-81221.338,-19821.242,-18207.752,-11098.307,-0.192,0.885,-0.266,-1.221,-2.411,-0.031,80.000,383.000,1.000
-10994.767,-431.325,-112524.282,-149585.667,-80837.200,-19689.814,-18089.202,-11010.672,-0.193,0.882,-0.267,-0.488,-2.441,-0.122,80.000,384.000,1.000
-10911.557,-407.722,-112885.744,-149890.629,-80449.894,-19551.792,-17963.542,-10916.823,-0.193,0.891,-0.264,0.519,-2.411,-0.244,80.000,385.000,1.000
-10827.148,-382.744,-113242.837,-150188.461,-80061.860,-19411.560,-17835.398,-10821.808,-0.194,0.905,-0.262,1.251,-2.441,-0.397,80.000,386.000,1.000
-10745.415,-361.093,-113596.813,-150484.543,-79675.974,-19273.880,-17710.156,-10730.882,-0.194,0.918,-0.263,1.740,-2.411,-0.458,80.000,387.000,1.000
-10668.609,-345.563,-113948.851,-150782.595,-79294.152,-19141.310,-17591.148,-10646.692,-0.193,0.929,-0.259,1.862,-2.594,-0.366,80.000,388.000,1.000
-10596.571,-335.716,-114299.437,-151083.833,-78916.775,-19013.255,-17478.401,-10568.622,-0.194,0.942,-0.255,1.953,-2.716,-0.336,80.000,389.000,1.000
-10527.192,-328.421,-114648.051,-151386.542,-78542.200,-18886.811,-17368.950,-10493.192,-0.197,0.950,-0.251,1.801,-2.838,-0.153,80.000,390.000,1.000
-10457.707,-320.015,-114993.547,-151687.003,-78167.095,-18759.030,-17258.795,-10415.676,-0.200,0.954,-0.246,1.404,-2.899,-0.092,80.000,391.000,1.000
-10386.219,-308.560,-115335.007,-151982.105,-77788.346,-18629.090,-17145.632,-10333.038,-0.202,0.953,-0.251,0.824,-3.021,-0.122,80.000,392.000,1.000
-10312.879,-294.904,-115672.296,-152271.266,-77405.170,-18498.928,-17030.335,-10246.250,-0.201,0.941,-0.254,0.122,-3.296,-0.305,80.000,393.000,1.000
-10239.410,-281.607,-116005.879,-152555.593,-77019.186,-18371.769,-16915.830,-10159.330,-0.198,0.923,-0.260,-0.214,-3.326,-0.458,80.000,394.000,1.000
-10167.216,-270.471,-116336.260,-152835.404,-76632.665,-18249.550,-16804.366,-10075.771,-0.197,0.904,-0.265,-0.244,-3.448,-0.397,80.000,395.000,1.000
-10096.390,-261.246,-116663.695,-153109.554,-76247.353,-18131.637,-16695.925,-9996.234,-0.189,0.890,-0.268,0.092,-3.387,-0.336,80.000,396.000,1.000
-10026.158,-252.246,-116988.220,-153376.629,-75864.274,-18015.511,-16588.705,-9919.076,-0.188,0.887,-0.268,0.916,-3.326,-0.336,80.000,397.000,1.000
-9955.446,-241.490,-117309.683,-153635.566,-75483.206,-17897.967,-16480.261,-9841.771,-0.191,0.893,-0.266,2.014,-3.387,-0.244,80.000,398.000,1.000
-9882.927,-227.483,-117627.730,-153885.597,-75102.382,-17776.180,-16368.496,-9761.991,-0.192,0.904,-0.265,2.747,-3.448,-0.153,80.000,399.000,1.000
-9807.407,-209.816,-117941.994,-154126.642,-74719.840,-17648.789,-16252.642,-9678.539,-0.191,0.918,-0.259,3.143,-3.448,0.092,80.000,400.000,1.000
-9728.978,-189.749,-118252.481,-154360.366,-74335.689,-17516.759,-16133.973,-9592.118,-0.189,0.927,-0.257,3.052,-3.571,0.305,80.000,401.000,1.000
-9649.528,-169.918,-118559.682,-154590.363,-73952.720,-17383.129,-16015.389,-9505.108,-0.191,0.929,-0.255,2.869,-3.540,0.549,80.000,402.000,1.000
-9571.843,-153.108,-118864.300,-154820.504,-73574.483,-17251.562,-15899.855,-9420.285,-0.189,0.927,-0.256,2.808,-3.448,0.763,80.000,403.000,1.000
-9497.896,-140.880,-119166.836,-155052.616,-73202.543,-17124.634,-15788.796,-9339.293,-0.188,0.925,-0.263,2.563,-3.387,0.885,80.000,404.000,1.000
-9427.452,-132.547,-119467.189,-155285.165,-72834.897,-17002.330,-15681.058,-9261.477,-0.188,0.920,-0.262,2.472,-3.326,0.916,80.000,405.000,1.000
-9358.428,-125.532,-119764.686,-155514.780,-72467.198,-16882.086,-15573.594,-9184.354,-0.188,0.913,-0.268,2.350,-3.296,1.129,80.000,406.000,1.000
-9288.611,-117.194,-120058.650,-155739.252,-72096.016,-16760.975,-15463.999,-9105.785,-0.189,0.911,-0.264,2.594,-3.235,1.343,80.000,407.000,1.000
-9217.073,-106.358,-120348.843,-155958.496,-71720.745,-16637.612,-15351.958,-9025.289,-0.188,0.912,-0.261,2.777,-3.174,1.526,80.000,408.000,1.000
-9144.821,-93.804,-120635.531,-156173.863,-71343.271,-16512.477,-15238.792,-8944.038,-0.185,0.913,-0.267,2.991,-3.143,1.648,80.000,409.000,1.000
-9074.117,-81.524,-120919.269,-156386.931,-70966.309,-16387.224,-15126.429,-8864.205,-0.188,0.915,-0.264,3.204,-3.021,1.892,80.000,410.000,1.000
-9006.228,-70.868,-121200.378,-156598.081,-70591.210,-16263.308,-15016.147,-8787.225,-0.180,0.920,-0.263,3.143,-3.021,1.831,80.000,411.000,1.000
-8940.347,-61.628,-121478.727,-156806.675,-70217.663,-16141.200,-14908.197,-8712.729,-0.178,0.924,-0.262,2.930,-2.747,2.106,80.000,412.000,1.000
-8875.011,-52.932,-121754.132,-157012.526,-69845.339,-16020.711,-14802.308,-8639.342,-0.180,0.929,-0.253,3.082,-2.594,2.228,80.000,413.000,1.000
-8809.128,-43.951,-122026.565,-157215.843,-69474.291,-15901.117,-14697.653,-8565.599,-0.174,0.933,-0.257,2.716,-2.441,2.350,80.000,414.000,1.000
-8741.721,-33.904,-122295.992,-157415.949,-69104.216,-15781.210,-14592.816,-8490.380,-0.177,0.938,-0.256,2.472,-2.197,2.594,80.000,415.000,1.000
-8672.131,-22.443,-122562.263,-157611.615,-68734.625,-15660.173,-14486.565,-8413.324,-0.180,0.940,-0.251,2.197,-2.106,2.655,80.000,416.000,1.000
-8600.365,-9.748,-122825.090,-157802.226,-68365.149,-15537.821,-14378.088,-8334.429,-0.179,0.943,-0.258,1.617,-2.014,2.808,80.000,417.000,1.000
-8527.075,3.976,-123084.194,-157987.894,-67995.378,-15413.808,-14266.585,-8253.361,-0.182,0.939,-0.261,1.129,-1.862,2.930,80.000,418.000,1.000
-8453.658,18.242,-123339.669,-158169.346,-67625.267,-15288.255,-14152.333,-8170.425,-0.183,0.935,-0.257,0.916,-1.831,2.838,80.000,419.000,1.000
-8382.070,31.602,-123592.056,-158347.759,-67255.517,-15163.265,-14038.078,-8087.950,-0.178,0.932,-0.259,0.458,-1.801,2.808,80.000,420.000,1.000
-8313.806,42.268,-123842.000,-158524.101,-66887.093,-15042.051,-13927.632,-8009.213,-0.182,0.933,-0.259,0.305,-1.678,2.808,80.000,421.000,1.000
-8248.881,49.566,-124089.970,-158698.622,-66520.786,-14926.407,-13823.035,-7936.008,-0.181,0.934,-0.257,0.244,-1.617,2.747,80.000,422.000,1.000
-8185.810,54.398,-124336.208,-158870.822,-66157.089,-14815.749,-13723.629,-7867.771,-0.182,0.935,-0.262,-0.092,-1.617,2.716,80.000,423.000,1.000
-8122.416,58.566,-124580.578,-159039.562,-65795.770,-14707.794,-13626.972,-7802.210,-0.185,0.933,-0.260,-0.305,-1.495,2.563,80.000,424.000,1.000
-8056.706,64.221,-124822.400,-159202.899,-65435.227,-14599.079,-13529.476,-7735.819,-0.183,0.932,-0.262,-0.519,-1.465,2.319,80.000,425.000,1.000
-7987.531,73.465,-125060.692,-159358.682,-65072.885,-14485.704,-13427.192,-7664.735,-0.186,0.932,-0.259,-0.610,-1.312,2.075,80.000,426.000,1.000
-7915.500,86.944,-125294.810,-159506.374,-64707.090,-14365.757,-13318.303,-7587.130,-0.184,0.931,-0.258,-0.671,-1.404,1.892,80.000,427.000,1.000
-7843.284,102.487,-125524.891,-159647.990,-64338.531,-14241.530,-13205.238,-7505.062,-0.184,0.931,-0.260,-0.763,-1.312,1.709,80.000,428.000,1.000
-7773.726,116.546,-125751.632,-159786.788,-63969.533,-14118.050,-13093.064,-7422.899,-0.184,0.932,-0.258,-0.885,-1.190,1.343,80.000,429.000,1.000
-7707.467,127.339,-125975.749,-159924.930,-63602.131,-13998.822,-12985.309,-7343.682,-0.183,0.929,-0.258,-0.977,-1.221,1.373,80.000,430.000,1.000
-7642.987,135.865,-126197.640,-160062.475,-63236.987,-13883.634,-12881.813,-7267.509,-0.185,0.930,-0.257,-1.068,-1.190,1.373,80.000,431.000,1.000
-7578.341,144.217,-126417.326,-160197.975,-62873.662,-13770.260,-12780.213,-7192.980,-0.183,0.930,-0.257,-1.007,-1.251,1.373,80.000,432.000,1.000
-7512.566,153.655,-126634.524,-160329.459,-62511.224,-13656.861,-12678.242,-7118.986,-0.184,0.932,-0.260,-1.099,-1.099,1.251,80.000,433.000,1.000
-7446.010,164.077,-126848.887,-160455.646,-62148.819,-13542.679,-12574.763,-7045.219,-0.187,0.935,-0.257,-1.038,-1.007,1.251,80.000,434.000,1.000
-7379.720,174.686,-127060.258,-160576.783,-61786.157,-13427.606,-12469.764,-6971.833,-0.184,0.936,-0.258,-1.160,-1.038,1.129,80.000,435.000,1.000
-7314.684,184.611,-127268.787,-160694.458,-61423.638,-13312.045,-12364.097,-6899.177,-0.184,0.935,-0.260,-1.282,-0.946,0.916,80.000,436.000,1.000
-7251.235,193.321,-127474.738,-160810.123,-61061.774,-13196.889,-12258.977,-6827.605,-0.182,0.935,-0.259,-1.343,-0.824,0.916,80.000,437.000,1.000
-7188.508,201.271,-127678.039,-160923.160,-60699.986,-13082.643,-12154.763,-6756.683,-0.181,0.935,-0.263,-1.373,-0.793,0.885,80.000,438.000,1.000
-7124.669,209.894,-127878.231,-161031.290,-60336.723,-12968.891,-12050.618,-6685.072,-0.183,0.935,-0.261,-1.404,-0.641,1.007,80.000,439.000,1.000
-7058.346,220.378,-128075.029,-161133.258,-59971.330,-12855.222,-11945.923,-6611.883,-0.180,0.936,-0.255,-1.343,-0.458,1.068,80.000,440.000,1.000
-6989.788,232.670,-128268.570,-161230.088,-59604.757,-12741.811,-11841.032,-6537.438,-0.181,0.936,-0.255,-1.404,-0.336,1.099,80.000,441.000,1.000
-6920.494,245.657,-128459.089,-161323.538,-59238.297,-12628.858,-11736.526,-6462.577,-0.183,0.936,-0.256,-1.373,-0.305,1.251,80.000,442.000,1.000
-6852.002,258.077,-128646.753,-161414.332,-58872.602,-12516.174,-11632.504,-6387.912,-0.181,0.938,-0.254,-1.587,-0.244,1.343,80.000,443.000,1.000
-6784.900,269.497,-128831.722,-161502.388,-58507.759,-12403.242,-11528.590,-6313.676,-0.183,0.936,-0.255,-1.709,-0.061,1.678,80.000,444.000,1.000
-6718.963,280.369,-129014.154,-161587.755,-58143.651,-12289.514,-11424.315,-6239.897,-0.185,0.936,-0.253,-1.740,0.031,1.801,80.000,445.000,1.000
-6654.295,290.827,-129194.260,-161670.980,-57780.541,-12175.296,-11319.876,-6166.874,-0.182,0.938,-0.253,-1.953,0.031,2.075,80.000,446.000,1.000
-6591.503,300.258,-129372.235,-161752.491,-57419.093,-12061.893,-11216.178,-6095.109,-0.183,0.938,-0.253,-2.136,0.031,2.197,80.000,447.000,1.000
-6530.426,308.552,-129547.915,-161831.432,-57059.116,-11950.041,-11113.471,-6024.287,-0.183,0.936,-0.250,-2.289,0.092,2.350,80.000,448.000,1.000
-6469.804,316.435,-129720.838,-161906.429,-56699.469,-11839.541,-11011.412,-5953.685,-0.184,0.934,-0.251,-2.533,0.000,2.441,80.000,449.000,1.000
-6408.846,324.014,-129890.934,-161978.231,-56340.313,-11730.958,-10911.032,-5884.182,-0.186,0.931,-0.249,-2.686,0.031,2.563,80.000,450.000,1.000
-6348.179,330.405,-130058.731,-162049.922,-55983.977,-11625.625,-10814.459,-5817.969,-0.188,0.928,-0.250,-2.716,-0.092,2.716,80.000,451.000,1.000
-6288.407,335.505,-130224.559,-162123.202,-55632.222,-11523.163,-10721.902,-5755.381,-0.189,0.924,-0.251,-2.930,-0.183,2.960,80.000,452.000,1.000
-6228.785,340.798,-130388.012,-162195.810,-55283.780,-11420.862,-10630.688,-5693.736,-0.191,0.919,-0.251,-2.869,-0.183,3.174,80.000,453.000,1.000
-6168.298,347.443,-130548.510,-162264.022,-54935.822,-11316.626,-10538.278,-5630.407,-0.191,0.917,-0.252,-2.716,-0.275,3.204,80.000,454.000,1.000
-6107.022,354.894,-130705.881,-162326.080,-54586.554,-11210.917,-10444.601,-5565.444,-0.190,0.912,-0.258,-2.655,-0.336,3.326,80.000,455.000,1.000
-6045.381,362.310,-130860.130,-162382.222,-54235.451,-11105.058,-10350.636,-5500.182,-0.194,0.912,-0.254,-2.350,-0.397,3.418,80.000,456.000,1.000
-5983.160,369.983,-131011.142,-162432.995,-53882.480,-10999.261,-10256.424,-5434.977,-0.193,0.912,-0.253,-2.075,-0.641,3.448,80.000,457.000,1.000
-5920.287,378.519,-131158.948,-162479.048,-53528.397,-10892.951,-10161.274,-5369.194,-0.192,0.911,-0.257,-1.892,-0.763,3.662,80.000,458.000,1.000
-5857.626,387.636,-131304.015,-162522.173,-53175.209,-10785.980,-10064.984,-5302.360,-0.194,0.912,-0.259,-1.465,-0.885,3.784,80.000,459.000,1.000
-5796.385,396.328,-131447.036,-162564.916,-52825.257,-10678.980,-9968.276,-5234.673,-0.193,0.913,-0.257,-1.129,-1.038,3.662,80.000,460.000,1.000
-5737.252,403.637,-131588.524,-162608.877,-52479.748,-10573.019,-9872.414,-5166.973,-0.190,0.912,-0.259,-0.946,-1.190,3.876,80.000,461.000,1.000
-5679.949,409.285,-131728.529,-162653.646,-52138.089,-10469.051,-9778.522,-5100.452,-0.191,0.913,-0.259,-0.610,-1.282,3.815,80.000,462.000,1.000
-5623.439,413.899,-131866.587,-162697.105,-51798.154,-10367.116,-9686.651,-5035.886,-0.193,0.911,-0.259,-0.275,-1.404,3.754,80.000,463.000,1.000
-5566.590,418.581,-132001.963,-162736.840,-51457.467,-10266.067,-9595.502,-4972.918,-0.194,0.912,-0.260,0.061,-1.617,3.693,80.000,464.000,1.000
-5508.595,424.294,-132134.109,-162771.448,-51114.705,-10164.415,-9503.390,-4910.141,-0.194,0.914,-0.259,0.336,-1.801,3.845,80.000,465.000,1.000
-5449.334,431.286,-132262.994,-162801.136,-50770.365,-10061.582,-9409.685,-4846.271,-0.190,0.917,-0.255,0.671,-2.045,3.906,80.000,466.000,1.000
-5389.685,438.844,-132388.928,-162827.287,-50425.992,-9958.235,-9315.344,-4781.456,-0.189,0.923,-0.257,0.854,-2.045,3.815,80.000,467.000,1.000
-5330.744,446.091,-132512.124,-162850.933,-50082.665,-9855.182,-9221.705,-4716.829,-0.189,0.929,-0.255,1.038,-2.136,3.784,80.000,468.000,1.000
-5272.207,453.289,-132632.540,-162871.785,-49740.254,-9752.112,-9128.869,-4652.582,-0.191,0.935,-0.252,1.007,-2.197,3.723,80.000,469.000,1.000
-5212.330,461.736,-132750.086,-162888.782,-49397.910,-9647.807,-9035.697,-4587.399,-0.188,0.936,-0.256,0.793,-2.350,3.723,80.000,470.000,1.000
-5150.110,471.899,-132864.907,-162901.700,-49055.292,-9541.938,-8941.615,-4520.445,-0.188,0.937,-0.258,0.580,-2.441,3.693,80.000,471.000,1.000
-5086.603,482.431,-132977.503,-162911.835,-48713.364,-9436.202,-8847.884,-4453.049,-0.187,0.936,-0.257,0.366,-2.533,3.632,80.000,472.000,1.000
-5023.846,491.526,-133088.463,-162920.787,-48373.679,-9333.049,-8756.402,-4387.456,-0.187,0.933,-0.256,0.336,-2.625,3.815,80.000,473.000,1.000
-4963.512,498.263,-133198.103,-162929.387,-48037.245,-9233.911,-8667.990,-4324.808,-0.188,0.932,-0.258,0.244,-2.808,3.815,80.000,474.000,1.000
-4906.237,502.919,-133306.260,-162937.211,-47703.871,-9138.388,-8581.776,-4264.405,-0.189,0.928,-0.258,0.183,-2.838,4.150,80.000,475.000,1.000
-4850.918,507.144,-133412.222,-162942.020,-47371.626,-9043.936,-8495.261,-4203.920,-0.192,0.928,-0.256,0.153,-2.869,4.364,80.000,476.000,1.000
-4795.184,513.080,-133515.086,-162940.806,-47037.695,-8947.183,-8405.931,-4141.083,-0.194,0.929,-0.260,0.275,-2.991,4.730,80.000,477.000,1.000
-4737.522,521.305,-133614.455,-162932.350,-46700.595,-8846.545,-8313.459,-4075.787,-0.196,0.931,-0.260,0.244,-3.235,4.883,80.000,478.000,1.000
-4678.603,530.192,-133710.648,-162918.254,-46361.157,-8743.051,-8219.649,-4009.949,-0.197,0.935,-0.258,0.336,-3.510,5.127,80.000,479.000,1.000
-4620.526,537.339,-133804.321,-162901.594,-46021.787,-8639.146,-8126.733,-3945.564,-0.199,0.941,-0.254,0.183,-3.662,5.493,80.000,480.000,1.000
-4565.009,541.353,-133896.049,-162885.049,-45685.084,-8537.322,-8036.163,-3883.214,-0.200,0.944,-0.257,0.000,-3.937,5.768,80.000,481.000,1.000
-4511.800,543.003,-133985.934,-162869.194,-45351.834,-8438.636,-7947.968,-3821.950,-0.203,0.947,-0.261,-0.244,-4.181,6.012,80.000,482.000,1.000
-4458.837,544.837,-134073.473,-162851.916,-45020.051,-8341.772,-7860.678,-3760.519,-0.205,0.944,-0.260,-0.458,-4.456,6.165,80.000,483.000,1.000
-4403.920,549.286,-134158.040,-162830.189,-44686.861,-8244.281,-7772.527,-3698.532,-0.206,0.937,-0.262,-0.671,-4.883,6.470,80.000,484.000,1.000
-4346.112,557.142,-134239.494,-162802.292,-44351.168,-8144.784,-7682.823,-3636.248,-0.206,0.931,-0.265,-0.885,-5.219,6.805,80.000,485.000,1.000
-4286.262,567.396,-134318.283,-162768.449,-44014.211,-8043.770,-7592.047,-3574.022,-0.206,0.926,-0.268,-0.946,-5.646,7.141,80.000,486.000,1.000
-4226.385,578.125,-134394.898,-162729.929,-43677.763,-7942.645,-7500.940,-3512.138,-0.208,0.921,-0.266,-0.824,-5.981,7.507,80.000,487.000,1.000
-4168.184,587.773,-134469.389,-162687.871,-43342.363,-7842.462,-7409.813,-3450.482,-0.207,0.921,-0.264,-0.580,-6.317,7.965,80.000,488.000,1.000
-4112.031,595.853,-134541.671,-162643.135,-43007.835,-7743.793,-7319.014,-3388.623,-0.207,0.920,-0.265,-0.397,-6.653,8.636,80.000,489.000,1.000
-4056.953,602.852,-134611.935,-162596.195,-42674.501,-7647.059,-7229.349,-3326.297,-0.206,0.924,-0.268,-0.305,-7.019,9.216,80.000,490.000,1.000
-4001.531,609.436,-134680.462,-162547.006,-42343.105,-7552.527,-7141.628,-3263.721,-0.207,0.924,-0.267,-0.183,-7.385,9.644,80.000,491.000,1.000
-3944.952,615.840,-134747.245,-162495.344,-42014.104,-7459.996,-7056.026,-3201.438,-0.207,0.926,-0.263,-0.092,-7.629,10.345,80.000,492.000,1.000
-3887.116,622.424,-134811.974,-162440.724,-41686.975,-7368.087,-6971.452,-3139.285,-0.210,0.927,-0.262,-0.122,-7.996,11.078,80.000,493.000,1.000
-3828.438,629.862,-134874.306,-162382.567,-41360.340,-7274.747,-6886.055,-3076.217,-0.213,0.932,-0.262,-0.244,-8.423,11.780,80.000,494.000,1.000
-3770.121,638.022,-134934.081,-162320.784,-41032.855,-7179.125,-6798.879,-3011.900,-0.214,0.938,-0.258,-0.336,-8.789,12.665,80.000,495.000,1.000
-3713.581,645.883,-134991.278,-162255.574,-40703.559,-7081.893,-6710.150,-2947.388,-0.217,0.947,-0.256,-0.488,-9.369,13.458,80.000,496.000,1.000
-3658.997,652.892,-135045.979,-162187.082,-40372.048,-6983.937,-6620.308,-2883.925,-0.218,0.958,-0.251,-0.946,-9.949,14.313,80.000,497.000,1.000
-3605.425,659.154,-135098.520,-162115.905,-40039.179,-6886.112,-6529.952,-2822.072,-0.219,0.972,-0.243,-1.678,-10.559,15.106,80.000,498.000,1.000
-3552.158,664.545,-135149.348,-162043.155,-39706.828,-6789.715,-6440.253,-2762.047,-0.222,0.982,-0.243,-2.655,-11.200,15.961,80.000,499.000,1.000
-3499.133,668.719,-135198.477,-161969.136,-39375.947,-6695.732,-6352.193,-2704.037,-0.221,0.985,-0.247,-3.906,-11.810,16.846,80.000,500.000,1.000
-3446.350,671.792,-135245.330,-161892.797,-39045.413,-6603.787,-6265.506,-2647.839,-0.223,0.982,-0.252,-5.096,-12.512,17.639,80.000,501.000,1.000
-3393.200,674.738,-135289.216,-161812.807,-38713.298,-6512.416,-6178.859,-2592.430,-0.224,0.974,-0.255,-6.256,-13.306,18.585,80.000,502.000,1.000
-3338.619,679.087,-135329.778,-161728.413,-38378.624,-6420.097,-6090.760,-2535.994,-0.226,0.966,-0.260,-7.172,-13.885,19.531,80.000,503.000,1.000
-3282.369,685.686,-135367.080,-161639.638,-38041.963,-6326.291,-6000.583,-2477.035,-0.222,0.956,-0.263,-7.843,-14.557,20.477,80.000,504.000,1.000
-3225.795,693.711,-135401.571,-161547.279,-37705.183,-6231.991,-5909.270,-2415.718,-0.222,0.949,-0.271,-8.148,-15.289,21.393,80.000,505.000,1.000
-3170.764,701.385,-135434.054,-161452.737,-37370.787,-6139.045,-5818.804,-2353.696,-0.221,0.943,-0.274,-8.545,-15.991,22.156,80.000,506.000,1.000
-3117.984,707.633,-135465.412,-161357.291,-37040.811,-6048.658,-5730.784,-2292.757,-0.220,0.933,-0.279,-8.820,-16.693,23.041,80.000,507.000,1.000
-3066.507,712.909,-135496.055,-161260.861,-36715.635,-5960.451,-5645.304,-2233.689,-0.219,0.923,-0.281,-8.789,-17.273,23.956,80.000,508.000,1.000
-3014.349,718.743,-135525.616,-161161.816,-36393.878,-5872.855,-5561.018,-2175.983,-0.219,0.913,-0.280,-8.667,-17.792,24.719,80.000,509.000,1.000
-2959.721,726.520,-135553.248,-161058.441,-36073.682,-5784.240,-5476.271,-2118.464,-0.220,0.906,-0.281,-8.392,-18.402,25.482,80.000,510.000,1.000
-2902.471,736.205,-135578.277,-160950.740,-35754.213,-5693.951,-5390.378,-2060.469,-0.221,0.904,-0.280,-8.057,-19.012,26.398,80.000,511.000,1.000
-2844.347,746.308,-135600.659,-160840.652,-35435.884,-5602.443,-5303.906,-2002.474,-0.220,0.904,-0.281,-7.599,-19.592,27.222,80.000,512.000,1.000
-2787.554,755.220,-135620.797,-160730.431,-35119.113,-5510.246,-5217.539,-1945.315,-0.220,0.911,-0.275,-7.111,-20.264,27.985,80.000,513.000,1.000
-2733.214,762.128,-135639.009,-160621.133,-34803.427,-5417.415,-5131.256,-1889.254,-0.218,0.921,-0.273,-6.744,-20.966,28.809,80.000,514.000,1.000
-2680.921,767.067,-135655.192,-160512.051,-34487.603,-5324.026,-5044.695,-1833.802,-0.217,0.931,-0.269,-6.714,-21.637,29.816,80.000,515.000,1.000
-2629.380,770.804,-135668.984,-160401.431,-34170.299,-5230.457,-4957.798,-1778.217,-0.217,0.940,-0.263,-6.897,-22.369,30.640,80.000,516.000,1.000
-2577.890,774.085,-135680.356,-160288.543,-33851.177,-5137.557,-4871.537,-1722.723,-0.214,0.946,-0.260,-7.294,-22.980,31.403,80.000,517.000,1.000
-2527.093,776.854,-135689.786,-160174.484,-33531.213,-5046.412,-4787.525,-1668.617,-0.211,0.948,-0.254,-7.965,-23.590,32.257,80.000,518.000,1.000
-2477.489,779.017,-135697.585,-160060.373,-33211.371,-4957.200,-4706.179,-1616.324,-0.207,0.947,-0.251,-8.850,-24.170,33.051,80.000,519.000,1.000
-2428.240,781.257,-135703.474,-159945.813,-32891.926,-4868.777,-4626.066,-1564.400,-0.204,0.942,-0.248,-9.460,-24.689,33.844,80.000,520.000,1.000
-2378.246,784.481,-135707.051,-159829.598,-32573.057,-4779.660,-4545.153,-1510.986,-0.203,0.938,-0.253,-9.918,-25.238,34.454,80.000,521.000,1.000
-2327.207,789.317,-135708.201,-159710.478,-32254.740,-4688.656,-4461.828,-1455.288,-0.200,0.937,-0.257,-10.254,-25.757,35.095,80.000,522.000,1.000
-2275.814,795.603,-135707.128,-159587.439,-31936.767,-4595.428,-4375.707,-1397.986,-0.196,0.941,-0.262,-10.529,-26.215,35.553,80.000,523.000,1.000
-2225.591,801.819,-135704.197,-159460.523,-31619.812,-4501.244,-4288.409,-1340.799,-0.189,0.946,-0.265,-10.834,-26.733,36.133,80.000,524.000,1.000
-2177.579,806.337,-135699.538,-159330.442,-31305.228,-4407.973,-4202.360,-1284.859,-0.183,0.949,-0.263,-11.139,-27.161,36.591,80.000,525.000,1.000
-2131.147,809.138,-135692.912,-159197.432,-30993.520,-4316.320,-4118.681,-1229.712,-0.176,0.950,-0.262,-11.536,-27.435,37.262,80.000,526.000,1.000
-2084.563,811.636,-135684.093,-159061.438,-30683.818,-4225.648,-4036.758,-1174.299,-0.171,0.951,-0.261,-12.085,-27.740,37.933,80.000,527.000,1.000
-2036.459,815.233,-135673.243,-158922.899,-30374.889,-4135.048,-3955.174,-1118.119,-0.166,0.949,-0.259,-12.573,-27.924,38.574,80.000,528.000,1.000
-1986.797,820.056,-135660.872,-158783.143,-30066.690,-4044.557,-3873.052,-1061.540,-0.160,0.948,-0.260,-13.123,-27.954,39.307,80.000,529.000,1.000
-1936.617,825.096,-135647.413,-158643.498,-29760.341,-3955.227,-3790.581,-1005.160,-0.158,0.945,-0.264,-13.428,-27.985,40.039,80.000,530.000,1.000
-1886.976,829.608,-135632.669,-158503.589,-29455.886,-3867.663,-3708.117,-949.043,-0.152,0.945,-0.263,-13.672,-28.137,40.833,80.000,531.000,1.000
-1838.345,833.903,-135615.725,-158360.946,-29150.649,-3780.905,-3625.430,-893.418,-0.146,0.943,-0.268,-13.916,-28.198,41.504,80.000,532.000,1.000
-1790.636,838.871,-135595.509,-158212.644,-28840.694,-3693.092,-3541.922,-839.331,-0.142,0.945,-0.268,-14.008,-28.015,42.053,80.000,533.000,1.000
-1743.454,844.875,-135571.652,-158057.924,-28524.652,-3603.597,-3457.695,-787.790,-0.139,0.949,-0.263,-14.160,-27.924,42.450,80.000,534.000,1.000
-1696.843,850.857,-135544.962,-157899.409,-28206.103,-3514.538,-3374.548,-739.067,-0.134,0.951,-0.262,-14.435,-27.679,42.938,80.000,535.000,1.000
-1651.334,855.250,-135516.819,-157740.827,-27890.809,-3428.878,-3294.446,-692.220,-0.129,0.958,-0.257,-14.862,-27.435,43.274,80.000,536.000,1.000
-1606.215,858.586,-135487.942,-157582.793,-27580.941,-3346.422,-3216.185,-644.190,-0.122,0.963,-0.252,-15.350,-27.100,43.579,80.000,537.000,1.000
-1559.252,863.677,-135457.893,-157421.960,-27273.229,-3263.284,-3135.282,-590.726,-0.117,0.968,-0.248,-15.930,-26.703,43.793,80.000,538.000,1.000
-1509.404,872.158,-135425.720,-157255.349,-26963.184,-3176.241,-3048.388,-529.842,-0.111,0.975,-0.247,-16.510,-26.398,44.037,80.000,539.000,1.000
-1458.543,882.218,-135390.861,-157084.228,-26649.959,-3086.392,-2956.926,-464.079,-0.104,0.978,-0.244,-17.242,-26.001,44.220,80.000,540.000,1.000
-1410.144,889.949,-135353.575,-156913.206,-26336.866,-2998.351,-2866.294,-399.537,-0.103,0.980,-0.243,-18.219,-25.360,44.556,80.000,541.000,1.000
-1366.579,892.410,-135314.648,-156745.962,-26027.760,-2916.519,-2781.866,-342.348,-0.101,0.981,-0.245,-19.226,-24.841,44.739,80.000,542.000,1.000
-1326.757,890.215,-135274.597,-156581.769,-25723.190,-2841.354,-2704.770,-294.149,-0.097,0.975,-0.243,-20.325,-24.261,44.922,80.000,543.000,1.000
-1286.497,887.142,-135233.304,-156416.852,-25420.766,-2769.061,-2631.586,-250.988,-0.094,0.967,-0.242,-21.332,-23.529,45.044,80.000,544.000,1.000
-1241.960,886.981,-135190.356,-156248.338,-25118.556,-2694.766,-2557.825,-206.829,-0.090,0.963,-0.238,-22.125,-22.858,45.197,80.000,545.000,1.000
-1192.226,891.518,-135145.408,-156075.161,-24816.131,-2614.895,-2480.281,-157.116,-0.087,0.961,-0.230,-22.736,-22.247,45.349,80.000,546.000,1.000
-1138.961,900.643,-135098.278,-155896.392,-24513.185,-2527.762,-2397.519,-100.445,-0.080,0.962,-0.224,-23.468,-21.637,45.532,80.000,547.000,1.000
-1085.295,912.311,-135049.063,-155711.350,-24209.401,-2434.405,-2310.612,-39.139,-0.074,0.969,-0.220,-24.292,-20.752,45.593,80.000,548.000,1.000
-1034.721,922.739,-134998.042,-155521.539,-23905.513,-2338.958,-2223.281,21.718,-0.074,0.974,-0.219,-25.146,-19.989,45.715,80.000,549.000,1.000
-989.266,928.382,-134945.380,-155330.868,-23603.330,-2246.836,-2140.149,76.970,-0.070,0.978,-0.222,-26.093,-19.073,45.746,80.000,550.000,1.000
-948.069,928.599,-134890.980,-155142.752,-23304.186,-2161.358,-2063.748,124.632,-0.068,0.976,-0.222,-27.191,-18.341,45.715,80.000,551.000,1.000
-907.981,926.330,-134834.576,-154956.755,-23007.201,-2081.382,-1992.465,167.318,-0.062,0.971,-0.225,-28.320,-17.426,45.715,80.000,552.000,1.000
-866.026,925.539,-134776.008,-154769.104,-22709.732,-2002.682,-1921.901,210.030,-0.058,0.961,-0.229,-29.205,-16.632,45.624,80.000,553.000,1.000
-821.319,927.965,-134715.480,-154577.245,-22410.088,-1922.194,-1848.887,256.063,-0.052,0.951,-0.236,-29.846,-15.869,45.471,80.000,554.000,1.000
-774.719,932.708,-134653.339,-154382.253,-22108.815,-1840.244,-1773.584,305.251,-0.049,0.941,-0.239,-30.151,-14.832,45.105,80.000,555.000,1.000
-727.465,938.124,-134589.720,-154186.382,-21807.158,-1758.899,-1697.896,355.583,-0.043,0.936,-0.241,-30.060,-13.947,44.922,80.000,556.000,1.000
-680.502,943.235,-134524.598,-153989.938,-21505.405,-1679.465,-1623.133,405.517,-0.038,0.933,-0.244,-30.273,-13.306,44.891,80.000,557.000,1.000
-634.370,947.991,-134457.911,-153790.869,-21202.498,-1601.435,-1548.849,455.270,-0.027,0.925,-0.245,-30.090,-12.268,44.495,80.000,558.000,1.000
-589.154,952.841,-134389.492,-153587.219,-20896.690,-1523.350,-1473.441,506.108,-0.019,0.927,-0.235,-29.480,-10.956,43.976,80.000,559.000,1.000
-544.527,958.061,-134319.139,-153379.661,-20587.014,-1444.547,-1395.994,558.216,-0.011,0.935,-0.228,-29.175,-9.460,43.365,80.000,560.000,1.000
-499.805,963.591,-134246.819,-153170.974,-20274.241,-1365.567,-1316.966,610.317,0.003,0.943,-0.224,-29.297,-8.301,42.816,80.000,561.000,1.000
-454.357,969.230,-134172.731,-152963.117,-19960.330,-1287.112,-1237.347,661.176,0.017,0.948,-0.220,-29.816,-6.714,42.206,80.000,562.000,1.000
-408.538,974.398,-134097.213,-152755.822,-19647.202,-1209.480,-1158.203,710.017,0.030,0.950,-0.213,-30.121,-4.944,41.534,80.000,563.000,1.000
-363.812,977.933,-134020.510,-152548.359,-19336.076,-1132.873,-1080.646,756.117,0.042,0.952,-0.206,-30.762,-3.082,40.619,80.000,564.000,1.000
-321.246,979.030,-133942.469,-152340.963,-19027.086,-1057.253,-1004.801,799.861,0.050,0.958,-0.200,-31.403,-1.038,39.825,80.000,565.000,1.000
-280.109,978.464,-133862.543,-152133.566,-18718.821,-981.740,-928.681,843.902,0.062,0.962,-0.200,-32.074,1.129,38.971,80.000,566.000,1.000
-238.418,978.285,-133780.266,-151924.186,-18408.750,-904.980,-849.231,891.734,0.069,0.962,-0.202,-32.715,3.448,37.964,80.000,567.000,1.000
-194.910,979.975,-133695.763,-151709.993,-18094.931,-826.557,-764.834,944.907,0.074,0.964,-0.199,-33.173,5.798,36.835,80.000,568.000,1.000
-150.359,982.963,-133609.670,-151490.619,-17777.378,-747.942,-676.703,1001.776,0.074,0.966,-0.197,-33.752,8.240,35.553,80.000,569.000,1.000
-106.981,985.146,-133522.520,-151269.549,-17457.498,-671.531,-587.809,1058.825,0.075,0.968,-0.196,-34.180,10.559,34.393,80.000,570.000,1.000
-66.456,984.967,-133434.268,-151051.350,-17136.255,-598.386,-500.525,1113.215,0.078,0.969,-0.191,-34.790,12.787,33.203,80.000,571.000,1.000
-28.496,982.820,-133344.450,-150837.429,-16813.205,-527.184,-415.575,1163.972,0.080,0.969,-0.186,-35.278,14.954,32.074,80.000,572.000,1.000
8.520,980.339,-133252.686,-150625.182,-16487.253,-455.361,-332.651,1211.366,0.081,0.970,-0.178,-35.797,17.120,30.914,80.000,573.000,1.000
46.096,978.884,-133158.840,-150411.604,-16158.053,-380.785,-250.950,1256.271,0.082,0.969,-0.173,-36.560,19.135,29.541,80.000,574.000,1.000
85.141,979.061,-133062.865,-150196.634,-15826.791,-302.541,-169.329,1300.136,0.083,0.971,-0.169,-37.140,21.332,28.168,80.000,575.000,1.000
125.926,980.754,-132964.933,-149982.406,-15496.213,-221.346,-87.276,1344.303,0.079,0.978,-0.164,-37.811,23.590,26.855,80.000,576.000,1.000
168.027,983.253,-132865.542,-149769.598,-15169.232,-139.218,-5.684,1388.992,0.073,0.986,-0.163,-38.361,25.391,25.421,80.000,577.000,1.000
210.655,985.850,-132765.040,-149555.484,-14846.378,-57.717,74.328,1433.476,0.071,0.988,-0.158,-39.062,27.130,23.956,80.000,578.000,1.000
253.144,988.236,-132663.224,-149336.924,-14525.447,23.211,152.681,1476.782,0.063,0.991,-0.151,-39.551,28.900,22.461,80.000,579.000,1.000
295.068,990.121,-132559.635,-149114.544,-14204.155,104.385,229.917,1518.058,0.057,0.994,-0.146,-40.100,30.243,20.966,80.000,580.000,1.000
336.248,991.049,-132454.095,-148892.182,-13882.251,186.117,306.323,1557.171,0.050,0.990,-0.140,-40.863,31.433,19.684,80.000,581.000,1.000
376.979,991.018,-132346.858,-148671.950,-13561.134,267.992,381.745,1595.213,0.043,0.986,-0.136,-41.626,32.318,18.311,80.000,582.000,1.000
417.945,990.822,-132238.342,-148451.731,-13242.603,349.312,455.788,1633.952,0.040,0.980,-0.134,-42.267,33.295,16.968,80.000,583.000,1.000
459.715,991.568,-132128.780,-148228.547,-12928.118,429.507,528.128,1674.551,0.033,0.974,-0.137,-42.542,33.875,15.747,80.000,584.000,1.000
502.344,993.968,-132018.060,-148002.532,-12618.189,508.389,598.907,1716.973,0.030,0.969,-0.135,-42.358,34.302,14.618,80.000,585.000,1.000
545.146,997.815,-131905.891,-147776.241,-12312.151,585.963,668.575,1760.311,0.028,0.970,-0.130,-42.450,34.668,13.641,80.000,586.000,1.000
586.878,1001.982,-131792.152,-147550.711,-12009.141,661.977,736.999,1803.313,0.028,0.974,-0.126,-42.206,34.882,12.512,80.000,587.000,1.000
626.392,1004.974,-131677.106,-147324.030,-11709.519,736.004,803.115,1844.862,0.025,0.982,-0.121,-42.084,35.095,11.597,80.000,588.000,1.000
663.510,1005.677,-131561.104,-147094.768,-11415.348,807.958,865.723,1884.278,0.028,0.996,-0.113,-42.084,35.400,10.651,80.000,589.000,1.000
699.511,1004.075,-131444.017,-146864.685,-11129.063,878.659,924.841,1921.540,0.024,1.003,-0.108,-42.145,35.553,9.827,80.000,590.000,1.000
736.733,1001.535,-131325.436,-146636.068,-10851.151,949.917,982.357,1957.660,0.020,1.007,-0.101,-42.542,35.645,9.003,80.000,591.000,1.000
777.339,1000.022,-131206.965,-146407.533,-10579.450,1023.461,1040.819,1994.566,0.016,1.006,-0.092,-42.999,35.400,8.179,80.000,592.000,1.000
821.763,1000.671,-131093.563,-146174.691,-10310.802,1099.612,1101.825,2034.299,0.014,1.003,-0.089,-43.579,35.004,7.599,80.000,593.000,1.000
868.442,1003.538,-130987.414,-145935.006,-10042.532,1177.692,1166.361,2078.546,0.013,0.995,-0.088,-44.006,34.576,7.172,80.000,594.000,1.000
915.166,1008.462,-130881.044,-145690.460,-9772.586,1257.288,1235.512,2128.126,0.009,0.986,-0.086,-44.189,34.210,6.622,80.000,595.000,1.000
960.162,1014.787,-130764.574,-145445.510,-9500.486,1337.316,1308.179,2180.897,0.006,0.977,-0.085,-44.281,33.600,6.378,80.000,596.000,1.000
1002.473,1020.632,-130645.322,-145202.874,-9228.852,1414.347,1378.665,2230.702,0.004,0.963,-0.082,-44.006,32.989,6.104,80.000,597.000,1.000
1042.304,1024.010,-130552.446,-144961.329,-8962.084,1484.452,1439.906,2271.254,0.002,0.949,-0.076,-43.732,32.288,6.012,80.000,598.000,1.000
1080.848,1024.703,-130501.007,-144717.943,-8702.592,1547.113,1489.667,2301.434,0.002,0.934,-0.072,-43.152,31.464,5.859,80.000,599.000,1.000
1119.231,1024.195,-130457.290,-144471.823,-8448.946,1605.780,1532.063,2325.849,0.003,0.924,-0.060,-41.901,30.823,5.707,80.000,600.000,1.000
1157.688,1023.858,-130370.148,-144224.658,-8197.647,1664.200,1573.310,2350.991,0.004,0.920,-0.052,-40.619,29.938,5.768,80.000,601.000,1.000
1195.877,1023.901,-130240.921,-143977.429,-7945.766,1723.194,1617.099,2381.277,0.006,0.919,-0.050,-39.032,28.992,5.737,80.000,602.000,1.000
1233.531,1023.962,-130138.618,-143728.394,-7691.860,1781.121,1663.613,2417.493,0.009,0.924,-0.046,-37.292,27.985,5.768,80.000,603.000,1.000
1270.679,1024.161,-130115.016,-143475.441,-7435.379,1836.621,1711.446,2457.444,0.009,0.929,-0.043,-35.614,27.100,5.859,80.000,604.000,1.000
1307.768,1025.500,-130121.902,-143218.778,-7175.930,1890.779,1759.817,2498.162,0.005,0.936,-0.038,-33.966,26.337,5.981,80.000,605.000,1.000
1345.309,1028.821,-130063.064,-142960.670,-6913.971,1946.439,1808.942,2538.089,0.004,0.945,-0.033,-32.532,25.208,6.012,80.000,606.000,1.000
1383.202,1033.423,-129923.108,-142703.197,-6652.326,2005.230,1858.423,2577.334,0.004,0.954,-0.035,-31.281,24.231,6.195,80.000,607.000,1.000
1421.000,1037.626,-129800.836,-142446.601,-6395.685,2066.131,1906.320,2616.384,0.002,0.961,-0.032,-30.212,23.285,6.317,80.000,608.000,1.000
1458.608,1040.500,-129782.569,-142189.688,-6147.623,2126.855,1950.161,2654.862,0.002,0.966,-0.022,-29.175,22.095,6.409,80.000,609.000,1.000
1495.757,1041.925,-129815.862,-141931.487,-5908.475,2185.427,1988.273,2691.157,0.004,0.970,-0.016,-28.229,21.179,6.409,80.000,610.000,1.000
1531.154,1041.301,-129774.234,-141672.768,-5676.856,2240.229,2020.105,2723.188,0.007,0.973,-0.010,-27.283,20.020,6.378,80.000,611.000,1.000
1563.453,1037.740,-129630.154,-141415.396,-5452.475,2289.962,2046.222,2750.138,0.008,0.974,-0.006,-26.367,19.196,6.439,80.000,612.000,1.000
1593.463,1032.246,-129501.833,-141159.495,-5235.791,2335.214,2069.203,2774.428,0.008,0.975,0.003,-25.543,18.097,6.561,80.000,613.000,1.000
1624.495,1028.747,-129497.067,-140902.038,-5025.542,2379.888,2094.067,2801.433,0.008,0.980,0.007,-24.811,17.120,6.592,80.000,614.000,1.000
1659.588,1031.445,-129557.863,-140639.122,-4818.900,2429.393,2125.883,2835.726,0.008,0.983,0.006,-24.139,16.052,6.622,80.000,615.000,1.000
1698.594,1040.910,-129534.568,-140369.793,-4614.624,2486.453,2166.018,2877.211,0.009,0.987,0.008,-23.376,15.137,6.592,80.000,616.000,1.000
1738.157,1052.993,-129389.106,-140097.288,-4415.254,2548.369,2210.483,2920.802,0.010,0.993,0.012,-22.797,14.038,6.561,80.000,617.000,1.000
1774.111,1061.421,-129252.128,-139826.763,-4225.847,2608.220,2251.873,2959.584,0.011,0.994,0.015,-22.461,13.184,6.470,80.000,618.000,1.000
1804.231,1061.975,-129250.078,-139561.199,-4049.870,2659.652,2284.001,2989.173,0.012,0.994,0.020,-22.003,12.329,6.500,80.000,619.000,1.000
1829.567,1055.178,-129329.707,-139298.320,-3885.543,2701.765,2306.300,3010.517,0.015,0.995,0.020,-21.637,11.505,6.287,80.000,620.000,1.000
1853.601,1045.546,-129330.768,-139032.456,-3726.502,2739.762,2324.278,3029.251,0.015,0.992,0.024,-21.393,10.620,6.104,80.000,621.000,1.000
1879.985,1038.111,-129202.688,-138760.086,-3566.485,2780.499,2345.080,3051.793,0.018,0.990,0.024,-21.088,9.888,5.829,80.000,622.000,1.000
1910.468,1035.179,-129069.968,-138482.611,-3403.052,2827.174,2372.392,3081.201,0.021,0.989,0.024,-20.844,9.155,5.585,80.000,623.000,1.000
1944.790,1036.347,-129060.693,-138202.809,-3236.658,2878.627,2405.712,3116.221,0.024,0.988,0.027,-20.447,8.484,5.310,80.000,624.000,1.000
1981.908,1040.638,-129131.175,-137920.031,-3067.606,2932.710,2443.067,3153.294,0.027,0.988,0.031,-20.233,7.812,5.066,80.000,625.000,1.000
2020.449,1047.146,-129131.663,-137631.688,-2895.474,2988.315,2482.792,3189.055,0.024,0.988,0.029,-19.928,7.080,4.913,80.000,626.000,1.000
2058.623,1054.171,-129010.841,-137338.336,-2720.642,3044.555,2523.536,3222.075,0.025,0.987,0.033,-19.501,6.622,4.517,80.000,627.000,1.000
2094.783,1059.377,-128878.096,-137044.550,-2544.762,3100.086,2564.221,3253.205,0.024,0.985,0.034,-19.135,6.012,4.181,80.000,628.000,1.000
2128.396,1061.443,-128851.083,-136754.007,-2369.567,3154.066,2604.378,3284.167,0.022,0.985,0.035,-18.707,5.371,3.906,80.000,629.000,1.000
2160.330,1061.185,-128900.817,-136464.676,-2195.505,3207.237,2644.458,3315.995,0.021,0.986,0.035,-18.250,4.822,3.601,80.000,630.000,1.000
2192.059,1060.626,-128903.014,-136171.307,-2021.704,3261.292,2685.682,3348.823,0.020,0.990,0.036,-17.944,4.272,3.143,80.000,631.000,1.000
2224.653,1061.381,-128807.706,-135872.196,-1847.125,3317.369,2729.407,3382.522,0.018,0.991,0.036,-17.548,3.632,2.777,80.000,632.000,1.000
2258.272,1063.945,-128693.453,-135571.182,-1671.664,3375.486,2776.408,3417.091,0.018,0.995,0.036,-17.273,3.052,2.380,80.000,633.000,1.000
2292.380,1067.932,-128652.281,-135272.496,-1496.260,3434.939,2826.272,3452.326,0.014,0.995,0.038,-17.090,2.380,1.984,80.000,634.000,1.000
2326.467,1072.636,-128672.514,-134975.095,-1321.818,3494.778,2877.281,3487.266,0.011,0.989,0.045,-16.907,1.648,1.465,80.000,635.000,1.000
2360.145,1077.001,-128670.542,-134674.752,-1148.783,3553.578,2926.761,3520.115,0.013,0.980,0.046,-16.815,0.916,1.007,80.000,636.000,1.000
2392.541,1079.206,-128605.996,-134371.006,-978.134,3609.157,2971.905,3548.982,0.016,0.966,0.047,-16.418,0.122,0.183,80.000,637.000,1.000
2422.573,1077.563,-128519.437,-134068.357,-811.401,3659.961,3011.537,3573.396,0.027,0.956,0.042,-15.686,-0.763,-0.580,80.000,638.000,1.000
2450.630,1072.834,-128466.636,-133769.319,-648.955,3707.539,3047.831,3595.667,0.036,0.950,0.031,-14.557,-1.038,-1.312,80.000,639.000,1.000
2479.185,1068.834,-128455.546,-133468.977,-489.208,3756.768,3085.537,3620.250,0.034,0.953,0.029,-13.000,-1.373,-1.892,80.000,640.000,1.000
2510.716,1069.334,-128454.505,-133159.909,-330.569,3812.130,3128.257,3650.599,0.034,0.959,0.039,-11.871,-1.801,-2.472,80.000,641.000,1.000
2545.491,1074.694,-128431.680,-132841.317,-173.863,3873.673,3175.389,3686.486,0.034,0.966,0.045,-11.108,-2.075,-2.747,80.000,642.000,1.000
2581.641,1081.975,-128373.658,-132520.332,-21.777,3937.095,3223.110,3724.664,0.031,0.975,0.045,-10.254,-2.380,-3.143,80.000,643.000,1.000
2616.617,1087.487,-128289.410,-132204.194,124.184,3997.257,3267.672,3761.277,0.031,0.988,0.049,-9.644,-2.808,-3.601,80.000,644.000,1.000
2648.432,1088.857,-128211.520,-131893.044,265.544,4051.246,3307.621,3793.704,0.033,1.002,0.048,-9.277,-3.174,-4.059,80.000,645.000,1.000
2676.507,1085.776,-128174.358,-131581.917,405.677,4099.233,3344.261,3821.863,0.036,1.011,0.050,-9.155,-3.540,-4.333,80.000,646.000,1.000
2701.984,1079.885,-128170.833,-131267.721,547.683,4143.911,3380.797,3848.227,0.039,1.018,0.052,-9.155,-3.632,-4.608,80.000,647.000,1.000
2726.862,1073.707,-128145.953,-130951.943,693.462,4189.043,3420.199,3875.432,0.042,1.015,0.055,-9.460,-3.662,-4.852,80.000,648.000,1.000
2752.856,1069.300,-128060.678,-130636.880,843.691,4237.504,3462.997,3903.831,0.042,1.009,0.055,-9.705,-3.510,-4.639,80.000,649.000,1.000
2781.026,1067.690,-127952.883,-130321.045,998.007,4290.090,3507.340,3932.137,0.036,1.000,0.057,-9.705,-3.326,-4.395,80.000,650.000,1.000
2811.643,1068.852,-127899.579,-130000.628,1155.142,4345.599,3550.955,3959.636,0.029,1.000,0.053,-9.399,-3.326,-4.517,80.000,651.000,1.000
2844.141,1071.891,-127913.410,-129674.297,1313.157,4401.752,3592.626,3986.730,0.024,1.003,0.047,-9.155,-3.357,-4.730,80.000,652.000,1.000
2877.237,1075.365,-127914.224,-129344.274,1470.208,4456.523,3632.355,4013.963,0.024,1.007,0.041,-8.820,-3.296,-5.035,80.000,653.000,1.000
2909.350,1077.775,-127830.892,-129013.019,1625.385,4509.103,3670.857,4041.318,0.027,1.003,0.044,-8.667,-3.204,-5.310,80.000,654.000,1.000
2939.570,1078.448,-127703.154,-128680.169,1778.916,4560.126,3709.100,4068.537,0.028,0.997,0.048,-8.331,-3.113,-5.280,80.000,655.000,1.000
2968.438,1078.224,-127635.026,-128343.691,1932.114,4611.506,3748.432,4095.987,0.026,0.989,0.048,-8.057,-2.899,-5.219,80.000,656.000,1.000
2997.493,1078.912,-127652.494,-128003.148,2087.054,4665.479,3790.515,4124.839,0.023,0.988,0.040,-7.629,-2.686,-5.127,80.000,657.000,1.000
3027.644,1081.443,-127661.875,-127660.984,2245.144,4722.392,3835.994,4156.021,0.021,0.993,0.032,-7.019,-2.655,-5.188,80.000,658.000,1.000
3058.361,1084.797,-127575.260,-127320.156,2406.008,4779.729,3883.451,4189.322,0.020,0.996,0.035,-6.348,-2.441,-5.157,80.000,659.000,1.000
3088.728,1087.280,-127434.317,-126980.620,2568.459,4834.512,3930.688,4223.879,0.018,0.989,0.038,-6.012,-2.258,-5.005,80.000,660.000,1.000
3118.490,1088.232,-127356.727,-126639.957,2731.902,4886.098,3976.650,4258.843,0.018,0.979,0.040,-5.615,-2.014,-5.035,80.000,661.000,1.000
3147.607,1088.034,-127373.312,-126297.173,2896.364,4935.878,4021.392,4293.036,0.020,0.966,0.035,-5.127,-1.709,-4.974,80.000,662.000,1.000
3175.509,1087.124,-127380.889,-125954.155,3061.869,4985.112,4064.985,4324.795,0.019,0.959,0.028,-4.395,-1.434,-4.822,80.000,663.000,1.000
3201.588,1085.769,-127280.861,-125613.090,3228.391,5033.909,4107.100,4352.725,0.020,0.958,0.022,-3.265,-1.190,-4.761,80.000,664.000,1.000
3226.016,1084.210,-127115.353,-125273.598,3396.097,5081.480,4146.992,4376.141,0.023,0.964,0.025,-2.106,-0.946,-4.730,80.000,665.000,1.000
3249.440,1082.288,-127012.101,-124933.850,3565.045,5126.723,4183.783,4395.197,0.025,0.978,0.030,-1.007,-0.702,-4.761,80.000,666.000,1.000
3272.538,1079.584,-127011.402,-124592.985,3735.159,5169.541,4217.939,4411.862,0.027,0.993,0.037,-0.336,-0.275,-4.608,80.000,667.000,1.000
3296.211,1076.343,-127011.792,-124251.260,3907.039,5211.922,4252.324,4430.174,0.030,1.005,0.041,-0.183,0.275,-4.517,80.000,668.000,1.000
3321.435,1073.582,-126908.533,-123908.968,4082.183,5256.709,4290.385,4453.832,0.030,1.008,0.038,-0.305,0.641,-4.395,80.000,669.000,1.000
3348.421,1071.940,-126734.249,-123565.927,4261.490,5304.840,4332.924,4483.217,0.028,1.005,0.035,-0.488,1.129,-4.211,80.000,670.000,1.000
3376.189,1070.838,-126610.896,-123222.259,4443.519,5354.343,4377.187,4515.242,0.026,0.996,0.031,-0.671,1.587,-3.906,80.000,671.000,1.000
3403.435,1069.370,-126582.879,-122878.459,4625.369,5402.713,4419.659,4546.174,0.024,0.984,0.025,-0.458,2.167,-3.632,80.000,672.000,1.000
3429.822,1067.757,-126561.106,-122534.411,4805.298,5449.812,4459.472,4574.649,0.023,0.973,0.020,0.122,2.533,-3.571,80.000,673.000,1.000
3456.179,1067.297,-126449.903,-122189.184,4983.496,5497.562,4498.538,4602.171,0.024,0.966,0.020,0.854,2.808,-3.387,80.000,674.000,1.000
3483.363,1068.846,-126277.017,-121841.715,5160.867,5547.425,4538.867,4631.118,0.024,0.963,0.017,1.617,3.204,-3.326,80.000,675.000,1.000
3511.193,1071.734,-126150.589,-121491.983,5337.944,5599.028,4580.705,4662.495,0.024,0.964,0.018,2.411,3.448,-3.235,80.000,676.000,1.000
3538.657,1074.332,-126109.146,-121141.159,5514.765,5650.939,4623.080,4695.283,0.023,0.966,0.020,3.113,3.937,-3.113,80.000,677.000,1.000
3564.838,1075.349,-126072.623,-120790.894,5690.883,5701.920,4665.046,4727.326,0.023,0.970,0.020,3.662,4.395,-2.991,80.000,678.000,1.000
3589.646,1074.589,-125955.698,-120442.782,5865.217,5751.298,4705.996,4756.802,0.022,0.977,0.017,4.272,4.669,-2.869,80.000,679.000,1.000
3613.808,1072.751,-125781.591,-120097.178,6036.677,5798.835,4745.604,4783.379,0.019,0.984,0.015,4.761,4.974,-2.960,80.000,680.000,1.000
3638.007,1070.494,-125643.767,-119752.686,6205.162,5844.578,4783.796,4807.860,0.017,0.988,0.015,4.883,5.219,-2.869,80.000,681.000,1.000
3662.494,1067.998,-125576.160,-119407.123,6371.590,5888.764,4820.448,4830.554,0.018,0.989,0.015,4.883,5.371,-2.869,80.000,682.000,1.000
3687.466,1065.359,-125511.204,-119058.929,6537.016,5931.751,4855.191,4850.591,0.017,0.993,0.016,4.852,5.646,-2.777,80.000,683.000,1.000
3713.070,1062.776,-125376.382,-118708.202,6701.701,5973.745,4887.568,4866.957,0.015,0.996,0.015,4.974,5.829,-2.686,80.000,684.000,1.000
3738.913,1060.350,-125191.231,-118356.331,6864.988,6014.594,4917.510,4879.880,0.013,1.001,0.013,5.127,5.951,-2.686,80.000,685.000,1.000
3764.174,1058.187,-125035.853,-118004.604,7026.172,6054.233,4945.947,4891.350,0.013,1.001,0.014,4.974,6.134,-2.838,80.000,686.000,1.000
3788.420,1056.678,-124941.805,-117652.863,7185.356,6093.333,4974.852,4904.437,0.014,0.998,0.015,4.761,6.256,-2.686,80.000,687.000,1.000
3811.887,1056.255,-124855.488,-117299.692,7343.355,6133.346,5006.515,4922.018,0.015,0.998,0.013,4.669,6.378,-2.686,80.000,688.000,1.000
3835.159,1057.064,-124716.194,-116943.880,7501.169,6176.024,5042.643,4945.736,0.015,0.995,0.016,4.669,6.622,-2.563,80.000,689.000,1.000
3858.921,1059.041,-124535.818,-116585.104,7659.599,6222.537,5083.611,4975.316,0.016,0.996,0.015,4.669,6.775,-2.594,80.000,690.000,1.000
3883.739,1061.954,-124376.027,-116223.769,7818.740,6272.349,5128.031,5008.385,0.016,0.997,0.011,4.578,6.927,-2.472,80.000,691.000,1.000
3909.854,1065.424,-124262.573,-115860.182,7977.692,6323.182,5173.348,5041.534,0.016,0.998,0.011,4.364,7.141,-2.319,80.000,692.000,1.000
3936.861,1068.865,-124155.579,-115494.484,8134.753,6372.192,5216.958,5072.005,0.017,0.998,0.008,4.364,7.141,-2.289,80.000,693.000,1.000
3963.426,1071.122,-124009.413,-115127.831,8287.873,6416.799,5256.395,5098.005,0.014,0.998,0.010,4.272,7.202,-2.045,80.000,694.000,1.000
3987.945,1070.811,-123833.333,-114762.170,8435.751,6455.456,5289.569,5118.297,0.010,0.995,0.009,4.181,7.294,-1.709,80.000,695.000,1.000
4010.101,1067.819,-123672.924,-114398.236,8579.303,6489.128,5316.566,5133.130,0.010,0.998,0.008,4.089,7.385,-1.495,80.000,696.000,1.000
4031.511,1063.995,-123544.967,-114034.090,8721.762,6521.613,5340.849,5145.228,0.007,0.999,0.005,3.967,7.446,-1.526,80.000,697.000,1.000
4054.445,1061.715,-123416.670,-113666.552,8866.606,6557.353,5367.518,5158.726,0.003,1.003,0.006,3.876,7.324,-1.282,80.000,698.000,1.000
4080.048,1062.065,-123252.461,-113294.289,9015.213,6598.632,5400.139,5176.852,0.002,1.004,0.008,3.815,7.172,-1.160,80.000,699.000,1.000
4107.606,1064.369,-123059.902,-112918.697,9166.528,6644.776,5439.177,5200.524,0.000,1.002,0.006,3.601,6.989,-1.068,80.000,700.000,1.000
4135.272,1067.168,-122875.656,-112542.324,9318.643,6693.622,5483.055,5228.861,-0.001,1.000,0.011,3.357,6.897,-0.916,80.000,701.000,1.000
4161.644,1069.650,-122716.187,-112166.492,9470.555,6743.364,5530.008,5260.483,-0.001,0.999,0.007,3.204,6.714,-0.763,80.000,702.000,1.000
4186.372,1071.809,-122560.595,-111790.744,9622.473,6792.795,5578.259,5293.458,-0.002,0.996,0.006,2.930,6.561,-0.763,80.000,703.000,1.000
4209.652,1073.565,-122383.187,-111414.412,9774.897,6840.559,5625.272,5324.857,-0.003,0.993,0.005,2.869,6.287,-0.610,80.000,704.000,1.000
4232.012,1074.676,-122186.691,-111037.381,9927.938,6885.486,5668.655,5352.317,-0.002,0.990,0.004,2.716,6.134,-0.488,80.000,705.000,1.000
4254.072,1075.018,-121994.633,-110659.932,10081.134,6927.306,5707.471,5375.612,-0.003,0.987,0.005,2.899,5.798,-0.366,80.000,706.000,1.000
4275.968,1074.206,-121818.927,-110282.319,10233.640,6966.146,5741.670,5395.570,-0.004,0.983,0.007,2.991,5.524,-0.336,80.000,707.000,1.000
4297.235,1071.439,-121647.329,-109904.523,10384.639,7001.857,5771.318,5412.615,-0.003,0.980,0.004,3.143,5.249,-0.214,80.000,708.000,1.000
4317.495,1066.480,-121463.247,-109526.558,10533.618,7034.699,5797.428,5427.394,0.000,0.976,0.006,3.387,5.035,-0.153,80.000,709.000,1.000
4337.086,1060.485,-121266.658,-109148.205,10680.784,7066.172,5822.442,5441.660,-0.001,0.972,0.004,3.693,4.730,-0.031,80.000,710.000,1.000
4356.708,1055.245,-121070.389,-108768.973,10827.111,7098.205,5848.595,5457.054,0.003,0.969,0.004,4.150,4.425,-0.061,80.000,711.000,1.000
4376.824,1051.972,-120881.474,-108388.369,10973.646,7132.071,5876.474,5473.537,0.003,0.969,0.007,4.578,4.211,-0.061,80.000,712.000,1.000
4397.776,1051.250,-120693.334,-108005.807,11121.107,7168.750,5906.200,5490.503,0.003,0.969,0.007,5.219,4.059,-0.092,80.000,713.000,1.000
4420.293,1053.671,-120496.000,-107620.558,11270.183,7209.626,5939.282,5509.106,0.002,0.971,0.007,5.890,3.754,-0.092,80.000,714.000,1.000
4445.244,1059.528,-120288.005,-107232.155,11421.491,7255.602,5977.803,5531.851,0.000,0.973,0.005,6.531,3.540,-0.275,80.000,715.000,1.000
4472.359,1067.430,-120076.509,-106841.652,11574.584,7305.246,6021.452,5559.243,0.000,0.976,0.007,6.866,3.235,-0.549,80.000,716.000,1.000
4499.589,1074.079,-119868.634,-106451.850,11727.298,7354.717,6066.536,5588.223,0.000,0.978,0.007,7.263,2.930,-0.702,80.000,717.000,1.000
4524.356,1076.491,-119664.351,-106065.760,11876.541,7400.406,6108.993,5615.144,-0.001,0.978,0.010,7.660,2.716,-0.793,80.000,718.000,1.000
4545.631,1074.482,-119455.604,-105684.807,12019.988,7441.627,6148.095,5639.706,-0.003,0.980,0.013,8.118,2.319,-0.854,80.000,719.000,1.000
4564.473,1070.495,-119232.359,-105307.981,12157.370,7480.500,6186.323,5664.704,-0.002,0.978,0.016,8.423,1.953,-1.129,80.000,720.000,1.000
4582.586,1067.035,-118992.876,-104933.099,12290.370,7519.452,6225.526,5691.721,-0.002,0.975,0.019,8.789,1.556,-1.282,80.000,721.000,1.000
4601.254,1065.181,-118746.554,-104558.207,12422.206,7559.588,6264.812,5718.782,0.000,0.970,0.027,9.033,1.343,-1.556,80.000,722.000,1.000
4621.325,1064.991,-118504.543,-104181.991,12557.447,7600.744,6302.306,5742.813,-0.001,0.960,0.031,9.308,0.977,-1.831,80.000,723.000,1.000
4642.775,1065.378,-118268.457,-103804.550,12700.410,7640.693,6335.962,5762.103,0.000,0.951,0.038,9.735,0.671,-2.289,80.000,724.000,1.000
4664.265,1064.001,-118029.937,-103427.269,12852.986,7675.136,6362.982,5776.039,0.003,0.939,0.038,10.315,0.427,-2.594,80.000,725.000,1.000
4684.093,1059.086,-117782.376,-103051.344,13014.593,7701.251,6381.871,5784.950,0.002,0.928,0.036,11.169,0.031,-3.113,80.000,726.000,1.000
4701.733,1051.380,-117530.052,-102676.506,13183.805,7721.169,6395.317,5791.186,0.004,0.918,0.035,12.390,-0.214,-3.632,80.000,727.000,1.000
4718.205,1043.755,-117283.069,-102301.439,13359.608,7741.008,6409.592,5799.105,0.001,0.910,0.031,14.130,-0.580,-4.089,80.000,728.000,1.000
4735.146,1039.011,-117043.890,-101925.313,13541.614,7766.701,6430.444,5812.393,-0.001,0.907,0.027,16.113,-0.977,-4.517,80.000,729.000,1.000
4753.680,1038.058,-116802.372,-101548.083,13729.525,7800.532,6459.660,5831.625,0.001,0.911,0.021,18.341,-1.373,-5.127,80.000,730.000,1.000
4773.825,1039.633,-116547.660,-101170.096,13921.906,7840.677,6495.340,5855.322,0.002,0.925,0.021,20.691,-1.617,-5.951,80.000,731.000,1.000
4794.417,1041.118,-116281.940,-100792.281,14114.834,7882.949,6533.859,5881.949,0.006,0.941,0.020,23.010,-1.862,-6.775,80.000,732.000,1.000
4813.686,1039.990,-116018.278,-100416.308,14302.278,7923.346,6571.262,5909.672,0.008,0.958,0.025,24.841,-2.136,-7.660,80.000,733.000,1.000
4830.988,1035.839,-115764.664,-100043.236,14479.134,7960.614,6604.871,5935.883,0.009,0.973,0.026,26.306,-2.228,-8.423,80.000,734.000,1.000
4847.924,1030.969,-115514.113,-99671.637,14644.135,7996.575,6634.663,5958.497,0.009,0.986,0.029,27.374,-2.380,-9.003,80.000,735.000,1.000
4867.090,1028.395,-115254.236,-99298.428,14799.586,8033.607,6662.823,5977.495,0.008,0.994,0.030,28.168,-2.502,-9.491,80.000,736.000,1.000
4890.084,1029.756,-114982.618,-98921.271,14948.992,8072.566,6692.015,5994.772,0.007,0.994,0.029,28.748,-2.502,-10.132,80.000,737.000,1.000
4916.109,1034.212,-114709.053,-98540.470,15094.406,8111.912,6722.815,6011.634,0.007,0.992,0.029,29.449,-2.472,-10.712,80.000,738.000,1.000
4941.821,1038.409,-114443.413,-98159.265,15235.028,8147.831,6752.139,6026.469,0.002,0.987,0.026,30.090,-2.594,-11.108,80.000,739.000,1.000
4963.622,1039.049,-114183.894,-97780.674,15369.019,8177.649,6776.437,6036.785,0.000,0.984,0.024,30.792,-2.747,-11.505,80.000,740.000,1.000
4980.649,1036.039,-113920.793,-97404.134,15496.653,8203.588,6796.671,6043.673,-0.002,0.983,0.021,31.525,-2.869,-11.993,80.000,741.000,1.000
4995.057,1031.937,-113649.901,-97025.951,15620.879,8230.812,6817.597,6052.053,-0.004,0.986,0.020,32.318,-2.869,-12.421,80.000,742.000,1.000
5009.540,1028.542,-113377.465,-96642.784,15744.845,8261.772,6842.217,6066.106,0.000,0.985,0.016,33.081,-2.991,-12.909,80.000,743.000,1.000
5025.268,1025.338,-113110.705,-96254.312,15869.510,8294.385,6869.192,6085.844,0.000,0.989,0.015,33.691,-2.899,-13.153,80.000,744.000,1.000
5042.065,1021.273,-112846.564,-95862.164,15994.039,8325.824,6895.744,6108.078,-0.002,0.992,0.012,34.363,-2.899,-13.641,80.000,745.000,1.000
5059.465,1016.493,-112574.731,-95467.789,16117.749,8355.873,6920.799,6129.110,-0.002,0.999,0.009,34.882,-3.052,-13.702,80.000,746.000,1.000
5077.193,1011.962,-112290.674,-95071.937,16240.999,8386.116,6944.968,6146.575,-0.001,1.001,0.008,35.522,-2.991,-13.733,80.000,747.000,1.000
5095.185,1008.566,-112000.972,-94675.115,16364.814,8418.014,6969.529,6160.359,-0.001,1.004,0.004,36.011,-2.930,-13.885,80.000,748.000,1.000
5113.662,1007.074,-111714.569,-94277.910,16490.244,8452.455,6995.921,6172.322,-0.002,1.006,-0.003,36.346,-2.838,-13.855,80.000,749.000,1.000
5133.074,1008.127,-111431.771,-93880.650,16617.973,8489.734,7025.109,6185.053,-0.002,1.008,-0.005,36.835,-2.716,-13.824,80.000,750.000,1.000
5153.530,1011.394,-111145.827,-93483.646,16747.996,8529.066,7056.951,6200.687,-0.004,1.014,-0.011,37.109,-2.686,-13.824,80.000,751.000,1.000
5174.302,1014.990,-110853.855,-93087.857,16879.490,8568.489,7090.150,6219.988,-0.004,1.019,-0.016,37.415,-2.594,-13.733,80.000,752.000,1.000
5194.064,1016.451,-110561.730,-92694.605,17011.374,8605.888,7122.968,6241.861,-0.008,1.024,-0.021,37.537,-2.655,-13.641,80.000,753.000,1.000
5211.633,1014.430,-110276.786,-92304.405,17143.146,8640.081,7154.066,6263.826,-0.010,1.023,-0.021,37.415,-2.441,-13.580,80.000,754.000,1.000
5226.474,1009.240,-109997.987,-91915.982,17275.212,8670.758,7182.729,6283.438,-0.011,1.021,-0.027,37.231,-2.502,-13.397,80.000,755.000,1.000
5238.829,1002.140,-109716.878,-91526.993,17408.541,8698.080,7209.040,6300.009,-0.014,1.015,-0.029,37.140,-2.441,-13.153,80.000,756.000,1.000
5249.747,994.693,-109427.692,-91135.439,17544.141,8723.164,7234.197,6314.967,-0.017,1.008,-0.034,37.079,-2.472,-12.939,80.000,757.000,1.000
5260.787,988.413,-109132.920,-90740.140,17682.917,8748.425,7259.996,6330.083,-0.020,1.002,-0.044,37.201,-2.502,-12.665,80.000,758.000,1.000
5273.458,984.450,-108837.707,-90340.156,17825.876,8776.678,7287.894,6345.957,-0.021,0.996,-0.049,37.354,-2.319,-12.421,80.000,759.000,1.000
5288.663,983.419,-108540.815,-89933.945,17973.937,8809.884,7318.882,6362.637,-0.022,0.989,-0.053,37.689,-2.411,-12.360,80.000,760.000,1.000
5306.065,984.978,-108235.007,-89520.424,18126.849,8848.128,7353.177,6380.291,-0.026,0.986,-0.057,38.177,-2.380,-12.177,80.000,761.000,1.000
5324.068,987.550,-107916.678,-89101.018,18282.254,8889.170,7389.341,6398.588,-0.027,0.983,-0.062,38.422,-2.319,-11.932,80.000,762.000,1.000
5340.928,989.333,-107591.573,-88679.279,18436.598,8929.913,7425.049,6416.938,-0.029,0.982,-0.067,38.788,-2.533,-11.810,80.000,763.000,1.000
5356.080,989.854,-107269.150,-88257.892,18587.686,8968.959,7459.391,6435.669,-0.030,0.982,-0.074,39.124,-2.594,-11.566,80.000,764.000,1.000
5370.238,989.963,-106952.265,-87836.329,18736.361,9007.111,7493.456,6455.631,-0.031,0.985,-0.078,39.429,-2.655,-11.444,80.000,765.000,1.000
5384.320,990.268,-106635.217,-87412.493,18885.385,9045.309,7528.542,6476.385,-0.033,0.987,-0.090,39.673,-2.716,-11.383,80.000,766.000,1.000
5398.754,990.402,-106312.219,-86986.317,19036.977,9083.085,7564.646,6495.891,-0.035,0.989,-0.095,39.917,-2.838,-11.292,80.000,767.000,1.000
5413.623,989.820,-105984.816,-86560.563,19191.784,9119.356,7600.826,6512.348,-0.035,0.989,-0.099,40.070,-3.082,-11.108,80.000,768.000,1.000
5428.945,988.637,-105659.429,-86137.766,19349.750,9153.880,7636.301,6525.777,-0.035,0.989,-0.105,40.070,-3.082,-10.895,80.000,769.000,1.000
5444.712,987.623,-105338.641,-85717.025,19511.244,9187.552,7671.180,6538.055,-0.037,0.986,-0.105,40.161,-3.204,-10.681,80.000,770.000,1.000
5460.702,987.466,-105017.953,-85295.425,19676.874,9221.504,7706.245,6551.717,-0.037,0.983,-0.111,40.192,-3.326,-10.345,80.000,771.000,1.000
5476.494,988.034,-104692.150,-84872.365,19846.395,9255.993,7741.639,6567.987,-0.039,0.981,-0.117,40.039,-3.418,-10.132,80.000,772.000,1.000
5491.822,988.494,-104361.996,-84450.538,20018.409,9290.275,7776.242,6585.714,-0.041,0.980,-0.118,40.039,-3.510,-9.918,80.000,773.000,1.000
5506.855,988.166,-104032.653,-84032.186,20191.442,9323.512,7808.928,6602.555,-0.044,0.980,-0.124,40.009,-3.723,-9.796,80.000,774.000,1.000
5521.949,987.015,-103705.921,-83615.491,20365.265,9355.588,7839.929,6616.962,-0.043,0.980,-0.131,39.917,-3.815,-9.705,80.000,775.000,1.000
5537.081,985.343,-103376.980,-83196.302,20541.055,9387.121,7870.696,6629.007,-0.046,0.979,-0.135,39.764,-3.998,-9.674,80.000,776.000,1.000
5551.905,983.501,-103040.655,-82773.124,20720.150,9418.977,7902.937,6640.213,-0.045,0.976,-0.138,39.948,-3.998,-9.613,80.000,777.000,1.000
5566.342,982.007,-102698.713,-82348.879,20902.757,9451.734,7937.896,6652.885,-0.048,0.975,-0.142,39.886,-4.059,-9.491,80.000,778.000,1.000
5580.848,981.518,-102358.366,-81927.107,21088.215,9485.409,7975.868,6668.754,-0.052,0.974,-0.146,39.459,-4.364,-9.369,80.000,779.000,1.000
5596.077,982.493,-102023.353,-81507.255,21276.567,9519.841,8016.180,6687.942,-0.050,0.972,-0.155,39.062,-4.639,-9.186,80.000,780.000,1.000
5612.172,984.732,-101689.783,-81086.062,21468.510,9554.949,8057.531,6709.265,-0.050,0.970,-0.158,38.940,-4.822,-8.911,80.000,781.000,1.000
5628.334,987.080,-101352.749,-80663.502,21663.208,9589.964,8097.885,6731.023,-0.051,0.970,-0.165,38.513,-4.913,-8.789,80.000,782.000,1.000
5643.343,987.975,-101013.835,-80244.230,21857.782,9623.185,8134.673,6751.446,-0.050,0.971,-0.168,38.300,-5.096,-8.667,80.000,783.000,1.000
5656.716,986.756,-100679.318,-79831.690,22050.176,9653.597,8166.395,6769.219,-0.047,0.972,-0.170,38.086,-5.219,-8.362,80.000,784.000,1.000
5669.086,984.110,-100351.764,-79422.822,22241.655,9682.036,8194.013,6784.157,-0.044,0.971,-0.176,37.689,-5.249,-8.179,80.000,785.000,1.000
5681.324,981.050,-100026.802,-79011.505,22435.226,9709.954,8220.010,6797.238,-0.042,0.974,-0.179,37.201,-5.188,-7.782,80.000,786.000,1.000
5693.774,977.926,-99699.407,-78596.303,22631.904,9737.583,8245.746,6809.470,-0.041,0.975,-0.187,36.652,-5.249,-7.507,80.000,787.000,1.000
5706.341,974.482,-99370.072,-78181.710,22829.797,9763.916,8270.258,6820.806,-0.043,0.974,-0.189,35.980,-5.066,-7.050,80.000,788.000,1.000
5719.132,970.776,-99042.752,-77771.288,23027.024,9788.637,8292.363,6830.631,-0.044,0.974,-0.194,35.400,-5.188,-6.714,80.000,789.000,1.000
5732.768,967.809,-98717.732,-77361.863,23224.565,9813.568,8313.342,6839.146,-0.047,0.972,-0.196,34.912,-5.127,-6.561,80.000,790.000,1.000
5747.660,966.607,-98389.319,-76946.603,23425.208,9841.029,8336.027,6847.500,-0.050,0.975,-0.198,34.363,-5.005,-6.378,80.000,791.000,1.000
5763.253,966.922,-98051.724,-76522.619,23629.740,9870.808,8361.524,6856.826,-0.050,0.978,-0.200,33.630,-5.066,-6.470,80.000,792.000,1.000
5778.235,967.338,-97705.321,-76093.286,23835.166,9899.993,8388.287,6867.824,-0.053,0.979,-0.201,32.989,-5.035,-6.378,80.000,793.000,1.000
5791.374,966.442,-97356.048,-75663.393,24037.198,9925.927,8414.178,6880.751,-0.055,0.979,-0.201,32.257,-5.188,-6.226,80.000,794.000,1.000
5802.393,963.909,-97008.636,-75233.815,24234.140,9948.825,8438.580,6895.314,-0.058,0.978,-0.205,31.250,-5.188,-6.195,80.000,795.000,1.000
5812.166,960.604,-96661.993,-74802.507,24427.689,9971.392,8462.473,6910.713,-0.058,0.974,-0.208,30.426,-5.310,-6.042,80.000,796.000,1.000
5821.973,957.600,-96312.309,-74369.430,24620.193,9996.042,8486.766,6925.930,-0.059,0.971,-0.210,29.663,-5.310,-6.012,80.000,797.000,1.000
5832.582,955.285,-95958.768,-73938.004,24812.172,10022.906,8511.236,6940.360,-0.059,0.970,-0.214,28.900,-5.371,-5.829,80.000,798.000,1.000
5844.079,953.475,-95605.210,-73511.774,25002.587,10050.404,8535.039,6954.098,-0.058,0.968,-0.216,28.229,-5.310,-5.768,80.000,799.000,1.000
5856.136,951.968,-95255.876,-73091.021,25190.609,10077.174,8557.456,6967.039,-0.057,0.971,-0.221,27.435,-5.310,-5.737,80.000,800.000,1.000
5868.203,950.731,-94909.912,-72673.238,25376.588,10103.430,8578.161,6978.039,-0.055,0.969,-0.222,26.733,-5.280,-5.615,80.000,801.000,1.000
5879.927,950.031,-94561.378,-72255.659,25561.563,10131.023,8597.597,6985.934,-0.057,0.970,-0.225,25.970,-5.341,-5.432,80.000,802.000,1.000
5891.580,950.571,-94204.356,-71835.846,25746.636,10162.513,8617.682,6991.722,-0.059,0.975,-0.228,25.269,-5.310,-5.249,80.000,803.000,1.000
5903.718,952.943,-93837.609,-71410.605,25933.171,10199.577,8641.309,6998.762,-0.059,0.981,-0.229,24.597,-5.310,-5.096,80.000,804.000,1.000
5916.379,956.541,-93464.046,-70976.547,26122.757,10241.354,8669.832,7009.829,-0.062,0.990,-0.232,23.682,-5.280,-5.066,80.000,805.000,1.000
5928.870,959.393,-93086.805,-70533.399,26315.885,10284.168,8701.215,7024.505,-0.063,0.997,-0.233,22.644,-5.249,-4.822,80.000,806.000,1.000
5940.460,959.486,-92707.784,-70086.189,26510.585,10323.200,8731.225,7040.018,-0.063,1.003,-0.235,21.423,-5.219,-4.639,80.000,807.000,1.000
5951.046,956.198,-92329.770,-69642.957,26702.779,10354.714,8756.338,7053.958,-0.066,1.005,-0.233,20.111,-5.280,-4.456,80.000,808.000,1.000
5961.274,950.653,-91958.303,-69210.010,26888.121,10377.069,8775.717,7065.933,-0.069,1.006,-0.230,18.677,-5.280,-4.333,80.000,809.000,1.000
5972.136,944.986,-91598.874,-68788.977,27063.831,10390.154,8791.162,7077.284,-0.068,1.006,-0.227,17.242,-5.188,-4.181,80.000,810.000,1.000
5984.025,940.880,-91250.272,-68377.726,27229.111,10394.533,8805.212,7089.329,-0.069,1.004,-0.226,15.839,-5.157,-4.089,80.000,811.000,1.000
5996.254,938.588,-90901.934,-67972.372,27384.535,10391.828,8819.171,7101.929,-0.070,1.002,-0.227,14.496,-5.066,-3.998,80.000,812.000,1.000
6007.821,937.285,-90541.471,-67567.973,27531.567,10385.606,8832.874,7113.924,-0.070,0.998,-0.227,13.214,-5.066,-3.906,80.000,813.000,1.000
6018.417,935.886,-90166.111,-67159.819,27671.797,10380.615,8845.296,7123.987,-0.071,0.994,-0.226,11.963,-5.066,-3.693,80.000,814.000,1.000
6028.489,933.505,-89784.687,-66745.743,27805.769,10380.673,8854.898,7130.777,-0.073,0.988,-0.227,10.803,-5.066,-3.693,80.000,815.000,1.000
6038.564,929.798,-89407.686,-66326.864,27932.791,10387.475,8860.600,7133.684,-0.073,0.983,-0.227,9.674,-5.066,-3.601,80.000,816.000,1.000
6048.938,925.402,-89037.048,-65905.536,28052.174,10400.914,8863.194,7133.897,-0.071,0.982,-0.229,8.728,-4.913,-3.510,80.000,817.000,1.000
6059.791,921.743,-88666.995,-65483.072,28164.362,10420.028,8865.480,7134.096,-0.072,0.979,-0.226,7.965,-4.822,-3.479,80.000,818.000,1.000
6071.255,920.003,-88293.339,-65060.104,28270.522,10443.495,8870.571,7136.969,-0.072,0.976,-0.225,7.233,-4.822,-3.479,80.000,819.000,1.000
6083.381,920.334,-87918.813,-64638.096,28371.296,10469.517,8879.737,7143.850,-0.073,0.974,-0.225,6.531,-4.791,-3.571,80.000,820.000,1.000
6096.064,922.062,-87549.115,-64219.406,28466.436,10495.833,8891.771,7153.997,-0.073,0.971,-0.229,5.890,-4.761,-3.601,80.000,821.000,1.000
6109.094,924.353,-87185.803,-63805.286,28555.871,10520.307,8904.396,7164.992,-0.071,0.967,-0.226,5.341,-4.669,-3.601,80.000,822.000,1.000
6122.325,926.586,-86824.735,-63394.280,28640.831,10541.636,8916.142,7174.419,-0.073,0.963,-0.229,4.852,-4.547,-3.571,80.000,823.000,1.000
