EEG 1,EEG 2,EEG 3,EEG 4,EEG 5,EEG 6,EEG 7,EEG 8,Accelerometer X,Accelerometer Y,Accelerometer Z,Gyroscope X,Gyroscope Y,Gyroscope Z,Battery Level,Counter,Validation Indicator
5287.559,4074.702,3373.705,-7335.624,4598.026,2503.401,3374.779,5546.036,-0.020,0.968,-0.078,0.000,0.000,0.000,73.333,1.000,1.000
36733.109,27337.176,21859.303,-51539.280,31152.238,18533.225,23218.000,40620.699,-0.024,0.983,-0.091,0.000,0.000,0.000,73.333,2.000,1.000
122595.725,86383.444,67182.052,-172240.022,100035.247,64121.076,74945.730,141710.926,-0.028,0.987,-0.094,0.000,0.000,0.000,73.333,3.000,1.000
267019.455,174675.868,133828.472,-375052.768,205556.846,140232.947,154442.265,322102.965,-0.029,0.986,-0.094,0.000,0.000,0.000,73.333,4.000,1.000
436755.696,259704.938,200350.145,-606908.943,308865.687,220843.928,232828.772,545619.300,-0.030,0.986,-0.095,0.000,0.000,0.000,73.333,5.000,1.000
579046.296,306392.380,242849.753,-768078.778,364775.022,270169.724,276644.759,735032.462,-0.030,0.983,-0.098,-2.319,1.892,-2.472,73.333,6.000,1.000
646854.150,297172.660,244710.957,-753819.391,350313.509,268538.869,268299.940,806262.891,-0.032,0.982,-0.101,-2.075,2.045,-0.153,73.333,7.000,1.000
619762.515,238228.935,213111.845,-523534.998,274211.985,220922.573,213086.333,714125.765,-0.032,0.983,-0.102,-0.793,1.343,1.434,73.333,8.000,1.000
514115.384,155640.174,189358.027,-142156.101,170015.556,150102.554,135343.610,474764.404,-0.032,0.984,-0.102,-0.153,1.129,2.075,73.333,9.000,1.000
373398.020,81743.604,221932.139,255007.801,78496.286,84382.394,65762.028,148786.203,-0.030,0.987,-0.099,0.122,0.946,2.411,73.333,10.000,1.000
242914.300,36750.324,324485.285,540630.241,25490.730,42865.457,24113.985,-185990.650,-0.027,0.987,-0.099,0.214,1.007,2.441,73.333,11.000,1.000
146880.462,18984.337,466543.317,658951.030,9162.059,25507.115,9256.024,-459336.827,-0.026,0.985,-0.098,0.305,1.007,2.655,73.333,12.000,1.000
84486.680,12398.925,597778.683,641884.168,8244.904,17560.195,5442.826,-633793.030,-0.025,0.982,-0.097,0.336,1.038,2.625,73.333,13.000,1.000
43511.897,3384.762,676674.146,572218.056,3456.611,5297.847,-1451.824,-710847.950,-0.022,0.979,-0.099,0.366,1.068,2.747,73.333,14.000,1.000
14917.933,-9905.521,686589.462,523034.123,-8967.349,-12648.995,-13886.212,-710813.860,-0.022,0.977,-0.101,0.488,1.221,2.808,73.333,15.000,1.000
-4249.998,-22404.044,636940.893,520089.290,-22255.079,-28791.398,-26474.941,-654131.756,-0.023,0.978,-0.101,0.641,1.251,2.869,73.333,16.000,1.000
-16527.634,-31665.604,553145.106,547747.705,-32018.285,-38267.012,-35639.695,-562428.435,-0.023,0.978,-0.102,0.793,1.404,2.899,73.333,17.000,1.000
-26863.429,-39928.962,461654.492,579313.002,-40496.279,-43664.974,-42866.053,-463184.920,-0.025,0.981,-0.100,1.068,1.373,2.960,73.333,18.000,1.000
-38632.814,-48618.389,379548.372,599959.460,-49979.545,-49240.725,-49991.536,-381026.356,-0.026,0.985,-0.098,1.190,1.373,2.991,73.333,19.000,1.000
-49773.926,-54884.017,314810.394,608175.152,-57379.566,-54373.435,-55164.221,-324951.280,-0.025,0.987,-0.097,1.099,1.404,2.960,73.333,20.000,1.000
-55506.508,-55240.410,271783.457,606051.672,-57979.168,-55191.322,-55314.068,-288936.671,-0.025,0.989,-0.099,1.221,1.404,2.930,73.333,21.000,1.000
-54515.280,-50755.472,251981.889,594812.150,-52421.097,-51022.122,-51018.397,-264620.932,-0.023,0.990,-0.099,1.129,1.465,2.960,73.333,22.000,1.000
-50753.697,-46417.032,249968.663,578179.449,-46822.523,-46218.361,-46632.364,-249486.767,-0.023,0.988,-0.099,1.007,1.465,2.960,73.333,23.000,1.000
-48957.440,-45603.956,253174.522,563956.921,-45868.633,-45073.423,-45510.983,-242744.141,-0.025,0.988,-0.100,1.007,1.343,2.838,73.333,24.000,1.000
-49891.441,-46943.538,249864.988,558483.375,-48086.715,-46976.428,-46700.232,-238810.189,-0.027,0.988,-0.099,1.007,1.312,2.777,73.333,25.000,1.000
-50944.906,-47125.919,237587.136,560500.239,-48949.777,-48019.996,-47055.677,-229717.712,-0.027,0.988,-0.100,0.885,1.282,2.747,73.333,26.000,1.000
-50373.925,-45370.777,222459.399,562852.395,-46965.757,-46328.944,-45478.350,-213288.322,-0.030,0.989,-0.097,0.854,1.129,2.502,73.333,27.000,1.000
-49352.690,-43816.516,210598.137,560334.590,-44826.712,-43968.335,-43774.208,-195290.751,-0.029,0.989,-0.097,0.732,1.068,2.350,73.333,28.000,1.000
-49768.126,-44110.678,202070.866,554275.076,-45066.503,-43581.841,-43699.034,-182315.325,-0.029,0.990,-0.098,0.641,0.854,2.197,73.333,29.000,1.000
-51415.011,-45218.878,193411.260,549136.889,-46677.893,-44851.471,-44601.226,-174602.110,-0.029,0.989,-0.097,0.519,0.793,2.045,73.333,30.000,1.000
-52375.420,-45088.120,183599.897,546382.757,-46879.259,-45322.714,-44579.747,-167411.152,-0.029,0.988,-0.099,0.488,0.610,1.984,73.333,31.000,1.000
-51643.524,-43432.234,175222.810,543098.523,-44963.695,-43869.361,-43111.972,-157865.230,-0.026,0.987,-0.101,0.336,0.427,1.740,73.333,32.000,1.000
-50296.885,-41886.090,170194.717,535998.893,-42962.403,-41959.857,-41551.191,-147920.790,-0.026,0.988,-0.100,0.366,0.366,1.678,73.333,33.000,1.000
-49921.493,-41718.114,166674.841,525071.265,-42739.663,-41440.603,-41184.051,-140578.239,-0.026,0.988,-0.100,0.458,0.305,1.587,73.333,34.000,1.000
-50661.828,-42355.526,161356.465,512591.632,-43735.827,-42184.384,-41677.396,-135493.298,-0.025,0.987,-0.098,0.397,0.244,1.617,73.333,35.000,1.000
-51340.295,-42411.799,153661.494,499738.020,-44069.240,-42577.505,-41772.964,-129795.372,-0.024,0.987,-0.099,0.366,0.122,1.617,73.333,36.000,1.000
-51112.285,-41496.195,146174.957,485677.830,-43042.246,-41747.865,-40963.272,-122162.716,-0.024,0.988,-0.098,0.305,0.061,1.709,73.333,37.000,1.000
-50370.412,-40455.441,141115.321,469856.107,-41721.828,-40466.258,-39923.172,-114303.785,-0.025,0.986,-0.096,0.336,0.061,1.740,73.333,38.000,1.000
-49998.270,-40094.532,137733.179,453797.692,-41287.404,-39881.687,-39448.529,-108341.043,-0.026,0.984,-0.094,0.305,-0.031,1.648,73.333,39.000,1.000
-50235.068,-40247.730,133736.090,439877.097,-41618.143,-40076.973,-39503.870,-104127.976,-0.024,0.984,-0.097,0.336,-0.092,1.678,73.333,40.000,1.000
-50558.290,-40206.737,128357.679,428805.888,-41741.987,-40216.303,-39466.752,-99881.467,-0.025,0.984,-0.100,0.275,-0.092,1.831,73.333,41.000,1.000
-50449.547,-39655.377,123006.508,419071.848,-41155.826,-39729.749,-38973.032,-94660.940,-0.026,0.984,-0.099,0.336,-0.122,1.831,73.333,42.000,1.000
-49951.520,-38908.208,119103.355,408823.810,-40263.062,-38887.520,-38241.064,-89227.756,-0.025,0.985,-0.097,0.275,-0.122,1.831,73.333,43.000,1.000
-49484.560,-38402.567,116278.450,397763.594,-39690.421,-38275.882,-37681.263,-84640.945,-0.023,0.987,-0.095,0.214,-0.153,1.862,73.333,44.000,1.000
-49342.072,-38228.800,113102.508,387002.896,-39579.111,-38087.699,-37436.982,-80911.356,-0.022,0.990,-0.094,0.214,-0.214,1.953,73.333,45.000,1.000
-49446.156,-38149.467,109000.884,377474.449,-39593.408,-38048.130,-37328.560,-77322.613,-0.023,0.988,-0.095,0.122,-0.305,1.984,73.333,46.000,1.000
-49486.004,-37892.326,104790.575,368920.126,-39363.317,-37817.308,-37089.236,-73487.384,-0.022,0.989,-0.094,0.153,-0.427,2.014,73.333,47.000,1.000
-49224.246,-37377.194,101447.145,360406.919,-38801.064,-37302.581,-36599.569,-69610.985,-0.024,0.987,-0.093,0.122,-0.458,1.984,73.333,48.000,1.000
-48723.723,-36768.141,98925.258,351490.997,-38124.045,-36673.177,-35982.609,-65981.152,-0.024,0.985,-0.093,0.092,-0.488,1.984,73.333,49.000,1.000
-48306.683,-36341.999,96410.470,342655.590,-37666.227,-36197.679,-35508.520,-62664.727,-0.024,0.986,-0.095,0.000,-0.580,1.953,73.333,50.000,1.000
-48224.550,-36213.373,93393.772,334664.927,-37569.238,-36014.613,-35325.826,-59650.815,-0.022,0.984,-0.094,0.031,-0.641,1.923,73.333,51.000,1.000
-48339.948,-36158.164,90157.666,327657.172,-37581.131,-35963.260,-35253.940,-56899.076,-0.022,0.985,-0.095,0.031,-0.610,1.953,73.333,52.000,1.000
-48236.311,-35819.916,87283.017,320979.126,-37270.618,-35696.095,-34941.414,-54188.931,-0.021,0.982,-0.097,0.031,-0.549,1.923,73.333,53.000,1.000
-47720.662,-35155.671,84963.219,313918.867,-36547.972,-35073.869,-34299.196,-51257.289,-0.019,0.982,-0.098,0.031,-0.549,2.014,73.333,54.000,1.000
-47114.389,-34553.567,82886.745,306514.055,-35857.015,-34399.521,-33669.039,-48227.442,-0.019,0.980,-0.099,0.153,-0.580,1.892,73.333,55.000,1.000
-46884.752,-34368.977,80645.172,299504.449,-35663.978,-34095.026,-33421.748,-45606.467,-0.019,0.982,-0.098,0.183,-0.458,1.892,73.333,56.000,1.000
-47024.934,-34427.472,78144.511,293442.061,-35815.652,-34139.644,-33449.585,-43614.972,-0.018,0.980,-0.100,0.336,-0.458,1.801,73.333,57.000,1.000
-47017.562,-34202.679,75655.423,287991.399,-35667.454,-34032.174,-33259.910,-41748.833,-0.018,0.981,-0.100,0.427,-0.458,1.892,73.333,58.000,1.000
-46501.684,-33511.635,73517.219,282305.337,-34922.688,-33427.389,-32618.794,-39364.641,-0.018,0.980,-0.099,0.549,-0.366,1.984,73.333,59.000,1.000
-45780.326,-32800.209,71776.496,276071.774,-34080.800,-32634.775,-31895.800,-36606.271,-0.017,0.980,-0.100,0.488,-0.305,1.984,73.333,60.000,1.000
-45446.249,-32572.554,70110.896,269924.036,-33812.458,-32249.515,-31595.131,-34308.838,-0.018,0.981,-0.097,0.488,-0.183,1.892,73.333,61.000,1.000
-45583.835,-32696.180,68166.806,264639.198,-34041.901,-32347.254,-31666.874,-32863.103,-0.019,0.982,-0.100,0.549,-0.214,1.862,73.333,62.000,1.000
-45631.426,-32550.115,65986.377,260111.132,-34006.161,-32342.866,-31547.954,-31595.440,-0.016,0.981,-0.099,0.732,-0.031,1.923,73.333,63.000,1.000
-45128.206,-31859.789,63998.134,255449.756,-33274.449,-31763.115,-30917.570,-29632.542,-0.014,0.982,-0.098,0.793,0.000,1.984,73.333,64.000,1.000
-44348.239,-31087.866,62501.223,250126.793,-32356.189,-30906.724,-30148.254,-27127.577,-0.015,0.984,-0.100,0.824,0.122,1.923,73.333,65.000,1.000
-43942.579,-30819.704,61251.965,244677.110,-32031.248,-30462.654,-29813.656,-25104.287,-0.015,0.984,-0.100,0.702,0.183,1.953,73.333,66.000,1.000
-44057.197,-30963.784,59731.688,239999.193,-32285.603,-30574.129,-29906.393,-24053.839,-0.016,0.988,-0.099,0.793,0.275,2.014,73.333,67.000,1.000
-44129.679,-30868.024,57816.652,236153.806,-32316.108,-30629.977,-29840.039,-23218.083,-0.017,0.990,-0.100,0.732,0.336,1.984,73.333,68.000,1.000
-43651.780,-30206.976,55972.802,232265.242,-31620.479,-30090.925,-29245.449,-21604.071,-0.020,0.990,-0.100,0.641,0.397,2.045,73.333,69.000,1.000
-42860.003,-29426.944,54660.990,227677.909,-30685.725,-29228.460,-28473.898,-19357.592,-0.019,0.988,-0.099,0.641,0.397,1.892,73.333,70.000,1.000
-42410.286,-29135.615,53707.966,222826.915,-30324.593,-28756.993,-28115.827,-17576.759,-0.021,0.985,-0.098,0.458,0.458,1.892,73.333,71.000,1.000
-42484.258,-29273.145,52508.298,218648.272,-30566.224,-28857.859,-28195.773,-16797.411,-0.020,0.985,-0.099,0.397,0.427,1.892,73.333,72.000,1.000
-42549.757,-29199.872,50827.790,215317.604,-30621.996,-28933.949,-28145.349,-16245.344,-0.019,0.985,-0.099,0.427,0.427,1.801,73.333,73.000,1.000
-42093.442,-28572.739,49132.104,212015.325,-29966.746,-28429.040,-27583.515,-14899.489,-0.016,0.985,-0.102,0.366,0.519,1.770,73.333,74.000,1.000
-41314.388,-27804.951,47969.771,208028.843,-29047.530,-27583.097,-26829.134,-12894.896,-0.014,0.988,-0.104,0.397,0.580,1.801,73.333,75.000,1.000
-40838.694,-27490.465,47225.745,203697.623,-28659.450,-27093.295,-26453.444,-11325.449,-0.016,0.989,-0.103,0.458,0.671,1.862,73.333,76.000,1.000
-40864.554,-27597.179,46265.388,199933.629,-28862.255,-27160.367,-26502.048,-10731.436,-0.018,0.991,-0.103,0.244,0.732,1.862,73.333,77.000,1.000
-40909.290,-27528.719,44788.514,196984.977,-28919.564,-27229.722,-26449.662,-10368.389,-0.018,0.992,-0.100,0.122,0.824,1.862,73.333,78.000,1.000
-40481.507,-26946.626,43235.676,194116.880,-28316.474,-26762.273,-25927.744,-9247.419,-0.016,0.989,-0.102,-0.061,0.854,1.923,73.333,79.000,1.000
-39741.042,-26216.902,42189.258,190615.740,-27446.187,-25961.679,-25215.841,-7486.036,-0.014,0.986,-0.101,0.031,0.854,2.106,73.333,80.000,1.000
-39258.514,-25890.897,41583.341,186735.951,-27048.176,-25474.940,-24841.462,-6115.979,-0.014,0.984,-0.104,-0.031,0.916,2.136,73.333,81.000,1.000
-39233.310,-25957.033,40797.876,183324.372,-27200.397,-25505.410,-24861.676,-5652.347,-0.016,0.984,-0.103,0.061,0.977,2.014,73.333,82.000,1.000
-39243.677,-25880.358,39502.323,180667.795,-27241.465,-25556.737,-24805.700,-5410.242,-0.018,0.985,-0.098,0.092,1.099,2.014,73.333,83.000,1.000
-38840.386,-25343.134,38095.180,178130.283,-26689.490,-25128.162,-24327.774,-4472.861,-0.020,0.986,-0.098,0.031,1.068,2.228,73.333,84.000,1.000
-38148.237,-24659.555,37150.141,175033.740,-25878.606,-24385.326,-23661.822,-2936.579,-0.023,0.986,-0.098,0.000,1.068,2.045,73.333,85.000,1.000
-37669.881,-24323.881,36637.647,171556.536,-25471.788,-23906.271,-23278.443,-1735.319,-0.023,0.986,-0.099,0.031,0.916,1.953,73.333,86.000,1.000
-37595.890,-24341.450,35979.351,168452.681,-25558.526,-23887.715,-23245.111,-1342.940,-0.025,0.982,-0.101,0.000,0.793,1.801,73.333,87.000,1.000
-37569.508,-24249.156,34840.148,166019.851,-25567.522,-23902.700,-23160.620,-1157.597,-0.024,0.983,-0.101,0.061,0.732,1.648,73.333,88.000,1.000
-37193.613,-23759.682,33568.279,163724.994,-25066.716,-23505.222,-22718.687,-365.441,-0.025,0.981,-0.097,0.275,0.641,1.587,73.333,89.000,1.000
-36560.282,-23133.104,32702.351,160951.324,-24331.155,-22826.501,-22111.255,955.300,-0.024,0.981,-0.101,0.305,0.488,1.526,73.333,90.000,1.000
-36097.197,-22797.045,32241.370,157815.827,-23934.344,-22366.593,-21742.961,1989.077,-0.022,0.982,-0.101,0.549,0.519,1.343,73.333,91.000,1.000
-35979.041,-22768.782,31667.460,154969.967,-23967.459,-22307.280,-21680.060,2319.328,-0.019,0.985,-0.100,0.580,0.488,1.312,73.333,92.000,1.000
-35914.208,-22660.641,30659.621,152706.139,-23949.985,-22291.627,-21584.072,2463.688,-0.020,0.986,-0.101,0.549,0.427,1.282,73.333,93.000,1.000
-35563.278,-22221.744,29511.977,150593.334,-23504.947,-21933.291,-21186.558,3126.289,-0.019,0.986,-0.099,0.641,0.366,1.282,73.333,94.000,1.000
-34989.858,-21659.300,28710.813,148090.091,-22849.530,-21329.417,-20637.475,4248.742,-0.019,0.988,-0.099,0.580,0.336,1.221,73.333,95.000,1.000
-34545.349,-21329.822,28277.101,145262.401,-22463.618,-20896.303,-20275.089,5141.526,-0.019,0.988,-0.098,0.519,0.244,1.282,73.333,96.000,1.000
-34383.163,-21256.710,27764.146,142653.154,-22435.923,-20795.118,-20166.114,5446.660,-0.020,0.987,-0.100,0.519,0.092,1.434,73.333,97.000,1.000
-34272.870,-21125.614,26877.261,140533.500,-22377.780,-20739.136,-20040.995,5589.391,-0.020,0.987,-0.099,0.610,0.153,1.495,73.333,98.000,1.000
-33935.095,-20725.891,25854.595,138564.928,-21973.943,-20407.866,-19677.399,6154.867,-0.022,0.987,-0.100,0.641,0.122,1.465,73.333,99.000,1.000
-33413.036,-20219.214,25116.814,136285.978,-21391.821,-19872.057,-19188.709,7100.201,-0.020,0.987,-0.100,0.610,0.122,1.434,73.333,100.000,1.000
-32988.946,-19895.942,24696.584,133722.811,-21021.309,-19467.732,-18845.962,7861.673,-0.021,0.987,-0.098,0.641,0.061,1.434,73.333,101.000,1.000
-32794.525,-19783.817,24219.846,131314.241,-20944.332,-19331.778,-18708.566,8143.546,-0.022,0.987,-0.097,0.671,0.061,1.587,73.333,102.000,1.000
-32653.193,-19635.714,23427.414,129304.287,-20855.088,-19239.680,-18565.385,8287.063,-0.024,0.985,-0.098,0.641,-0.092,1.465,73.333,103.000,1.000
-32338.935,-19277.840,22509.142,127439.945,-20495.025,-18932.003,-18235.023,8766.555,-0.023,0.986,-0.095,0.641,-0.183,1.587,73.333,104.000,1.000
-31874.176,-18828.631,21821.545,125342.434,-19985.079,-18456.685,-17798.462,9554.356,-0.022,0.984,-0.099,0.641,-0.275,1.587,73.333,105.000,1.000
-31475.144,-18515.256,21406.168,123009.028,-19630.873,-18077.477,-17467.397,10204.004,-0.022,0.986,-0.099,0.641,-0.397,1.587,73.333,106.000,1.000
-31251.627,-18367.629,20958.906,120780.942,-19507.053,-17909.937,-17297.009,10475.889,-0.022,0.985,-0.100,0.702,-0.366,1.556,73.333,107.000,1.000
-31076.634,-18200.750,20255.740,118868.078,-19384.914,-17786.864,-17132.074,10630.997,-0.023,0.985,-0.098,0.732,-0.519,1.526,73.333,108.000,1.000
-30776.455,-17877.670,19438.600,117088.783,-19061.539,-17505.004,-16831.229,11039.373,-0.023,0.984,-0.098,0.732,-0.610,1.526,73.333,109.000,1.000
-30359.715,-17481.004,18797.695,115140.955,-18619.614,-17091.794,-16447.888,11686.094,-0.021,0.986,-0.099,0.793,-0.702,1.526,73.333,110.000,1.000
-29985.279,-17181.204,18378.770,113001.771,-18288.401,-16743.750,-16138.462,12232.821,-0.020,0.985,-0.103,0.763,-0.671,1.434,73.333,111.000,1.000
-29740.772,-17007.019,17945.165,110927.604,-18130.899,-16553.280,-15948.451,12495.255,-0.020,0.984,-0.101,0.854,-0.671,1.343,73.333,112.000,1.000
-29539.268,-16825.626,17312.201,109095.571,-17982.057,-16401.576,-15766.737,12666.612,-0.018,0.983,-0.098,0.916,-0.702,1.404,73.333,113.000,1.000
-29251.972,-16532.494,16582.568,107385.158,-17687.877,-16136.405,-15486.978,13023.645,-0.017,0.985,-0.100,0.916,-0.824,1.434,73.333,114.000,1.000
-28877.342,-16181.032,15984.868,105564.127,-17301.104,-15771.414,-15143.201,13557.794,-0.018,0.984,-0.101,0.977,-0.793,1.373,73.333,115.000,1.000
-28526.426,-15894.012,15564.025,103595.406,-16988.105,-15448.117,-14849.340,14019.894,-0.018,0.981,-0.102,1.038,-0.671,1.373,73.333,116.000,1.000
-28267.603,-15698.817,15141.215,101660.247,-16803.056,-15239.308,-14645.375,14270.733,-0.018,0.982,-0.102,1.038,-0.732,1.404,73.333,117.000,1.000
-28046.945,-15506.245,14567.747,99902.080,-16634.878,-15065.862,-14457.343,14445.882,-0.019,0.983,-0.103,1.129,-0.580,1.465,73.333,118.000,1.000
-27773.666,-15239.441,13913.056,98249.652,-16370.254,-14817.778,-14205.934,14746.041,-0.018,0.982,-0.101,1.160,-0.641,1.404,73.333,119.000,1.000
-27438.528,-14927.938,13351.052,96532.928,-16035.262,-14496.937,-13904.860,15173.332,-0.018,0.982,-0.099,1.160,-0.580,1.373,73.333,120.000,1.000
-27112.203,-14653.988,12925.065,94708.329,-15740.580,-14197.761,-13627.404,15559.556,-0.019,0.983,-0.099,1.190,-0.549,1.343,73.333,121.000,1.000
-26845.117,-14442.132,12507.730,92896.308,-15529.990,-13975.069,-13405.402,15806.908,-0.017,0.982,-0.101,1.190,-0.488,1.404,73.333,122.000,1.000
-26609.320,-14238.875,11984.003,91209.277,-15337.646,-13782.957,-13198.055,16000.810,-0.016,0.982,-0.103,1.251,-0.549,1.373,73.333,123.000,1.000
-26346.302,-13992.032,11395.768,89612.859,-15088.592,-13549.040,-12956.568,16271.420,-0.017,0.982,-0.101,1.282,-0.488,1.282,73.333,124.000,1.000
-26042.993,-13713.902,10868.330,87987.601,-14792.634,-13268.144,-12686.159,16621.625,-0.017,0.983,-0.099,1.312,-0.458,1.221,73.333,125.000,1.000
-25738.666,-13454.290,10440.639,86286.029,-14517.412,-12996.417,-12429.981,16945.268,-0.019,0.983,-0.101,1.343,-0.488,1.099,73.333,126.000,1.000
-25468.286,-13234.151,10027.578,84578.843,-14296.660,-12772.003,-12210.717,17178.830,-0.020,0.983,-0.101,1.312,-0.397,1.099,73.333,127.000,1.000
-25222.736,-13027.104,9543.732,82951.315,-14097.213,-12572.797,-12007.603,17371.777,-0.018,0.985,-0.105,1.221,-0.397,1.038,73.333,128.000,1.000
-24968.207,-12799.769,9010.028,81398.757,-13871.120,-12354.043,-11787.833,17604.113,-0.018,0.988,-0.104,1.312,-0.427,1.038,73.333,129.000,1.000
-24688.971,-12550.425,8512.015,79846.066,-13612.749,-12103.927,-11544.323,17884.453,-0.018,0.986,-0.103,1.312,-0.458,1.007,73.333,130.000,1.000
-24400.670,-12303.251,8083.974,78247.087,-13354.877,-11849.052,-11296.999,18157.186,-0.020,0.988,-0.102,1.190,-0.549,1.038,73.333,131.000,1.000
-24127.388,-12076.805,7674.362,76633.647,-13124.114,-11616.523,-11066.456,18383.745,-0.019,0.988,-0.104,1.129,-0.488,0.977,73.333,132.000,1.000
-23875.823,-11866.969,7222.097,75066.032,-12915.147,-11405.777,-10854.142,18581.596,-0.019,0.988,-0.105,1.007,-0.549,0.824,73.333,133.000,1.000
-23632.428,-11656.687,6731.725,73558.919,-12704.418,-11196.708,-10645.994,18787.414,-0.021,0.987,-0.100,0.946,-0.519,0.793,73.333,134.000,1.000
-23380.029,-11434.775,6256.381,72070.952,-12477.246,-10974.438,-10428.986,19011.253,-0.023,0.988,-0.100,0.854,-0.580,0.854,73.333,135.000,1.000
-23114.923,-11205.163,5825.938,70558.989,-12239.524,-10742.047,-10203.261,19236.508,-0.021,0.988,-0.100,0.854,-0.641,0.702,73.333,136.000,1.000
-22849.540,-10981.755,5416.475,69026.641,-12008.833,-10514.015,-9980.798,19447.084,-0.022,0.990,-0.100,0.763,-0.732,0.763,73.333,137.000,1.000
-22599.115,-10774.322,4988.496,67514.566,-11796.787,-10301.133,-9772.195,19640.534,-0.023,0.989,-0.104,0.732,-0.824,0.824,73.333,138.000,1.000
-22364.456,-10577.474,4535.079,66050.797,-11597.126,-10100.073,-9574.274,19822.970,-0.024,0.988,-0.104,0.580,-0.885,0.824,73.333,139.000,1.000
-22129.355,-10374.836,4082.983,64619.764,-11390.871,-9896.014,-9371.938,20004.233,-0.024,0.985,-0.104,0.549,-0.916,0.793,73.333,140.000,1.000
-21878.631,-10157.455,3656.238,63182.390,-11167.013,-9678.108,-9154.964,20194.215,-0.023,0.986,-0.104,0.458,-1.007,0.763,73.333,141.000,1.000
-21617.518,-9936.470,3250.780,61722.045,-10937.673,-9453.590,-8932.385,20392.009,-0.023,0.987,-0.102,0.427,-1.099,0.793,73.333,142.000,1.000
-21367.145,-9731.410,2844.121,60263.371,-10726.463,-9241.947,-8724.386,20580.045,-0.024,0.988,-0.102,0.275,-1.038,0.885,73.333,143.000,1.000
-21138.162,-9545.167,2421.921,58842.473,-10538.915,-9051.359,-8537.804,20741.643,-0.022,0.989,-0.103,0.183,-1.282,0.977,73.333,144.000,1.000
-20915.275,-9357.831,1991.503,57463.085,-10352.043,-8865.740,-8355.448,20886.409,-0.022,0.987,-0.101,0.061,-1.312,1.038,73.333,145.000,1.000
-20675.498,-9151.069,1571.742,56091.210,-10141.543,-8662.951,-8156.517,21044.238,-0.023,0.988,-0.099,0.000,-1.312,1.007,73.333,146.000,1.000
-20418.621,-8933.203,1172.435,54696.445,-9914.531,-8444.047,-7944.337,21226.525,-0.022,0.987,-0.098,-0.122,-1.343,1.007,73.333,147.000,1.000
-20169.116,-8729.907,783.857,53290.182,-9702.844,-8234.163,-7742.935,21406.282,-0.021,0.987,-0.097,-0.214,-1.404,0.977,73.333,148.000,1.000
-19944.460,-8550.368,387.257,51911.939,-9521.686,-8050.387,-7564.805,21551.393,-0.022,0.985,-0.101,-0.336,-1.434,1.007,73.333,149.000,1.000
-19731.177,-8373.916,-23.695,50578.885,-9348.103,-7877.855,-7393.038,21669.985,-0.024,0.986,-0.104,-0.397,-1.526,1.038,73.333,150.000,1.000
-19502.090,-8177.173,-434.377,49262.474,-9150.883,-7688.181,-7203.730,21802.569,-0.021,0.986,-0.100,-0.275,-1.556,1.007,73.333,151.000,1.000
-19252.952,-7966.397,-825.679,47924.282,-8933.287,-7477.811,-6999.296,21967.023,-0.023,0.983,-0.098,-0.336,-1.526,0.885,73.333,152.000,1.000
-19009.048,-7770.229,-1198.157,46565.984,-8729.965,-7274.140,-6805.955,22131.994,-0.020,0.981,-0.098,-0.305,-1.526,0.946,73.333,153.000,1.000
-18791.649,-7601.412,-1573.459,45227.678,-8560.240,-7099.301,-6638.143,22258.908,-0.020,0.984,-0.102,-0.458,-1.495,0.946,73.333,154.000,1.000
-18589.277,-7439.118,-1968.194,43935.287,-8400.930,-6939.876,-6478.388,22356.660,-0.021,0.984,-0.103,-0.458,-1.526,0.824,73.333,155.000,1.000
-18373.252,-7256.597,-2372.026,42665.959,-8216.859,-6764.335,-6300.411,22471.840,-0.021,0.984,-0.104,-0.427,-1.617,0.977,73.333,156.000,1.000
-18136.636,-7057.103,-2759.710,41378.100,-8008.202,-6565.310,-6104.417,22625.405,-0.022,0.985,-0.100,-0.458,-1.648,0.885,73.333,157.000,1.000
-17903.668,-6869.101,-3123.836,40066.553,-7810.268,-6369.336,-5916.543,22782.580,-0.020,0.984,-0.099,-0.458,-1.556,0.854,73.333,158.000,1.000
-17696.655,-6707.341,-3485.347,38769.272,-7645.560,-6200.668,-5753.646,22899.087,-0.020,0.983,-0.101,-0.488,-1.556,0.793,73.333,159.000,1.000
-17505.516,-6552.744,-3866.100,37516.395,-7493.250,-6048.269,-5600.970,22981.476,-0.020,0.986,-0.101,-0.580,-1.587,0.732,73.333,160.000,1.000
-17301.550,-6378.470,-4259.127,36289.939,-7317.684,-5880.971,-5432.557,23078.381,-0.020,0.987,-0.099,-0.519,-1.648,0.793,73.333,161.000,1.000
-17076.211,-6186.372,-4637.161,35048.164,-7116.689,-5689.901,-5246.338,23214.342,-0.020,0.986,-0.100,-0.488,-1.556,0.702,73.333,162.000,1.000
-16852.119,-6003.965,-4989.308,33781.342,-6924.016,-5500.024,-5065.824,23357.065,-0.020,0.986,-0.099,-0.519,-1.556,0.671,73.333,163.000,1.000
-16651.860,-5846.854,-5336.512,32523.925,-6763.221,-5335.615,-4907.520,23462.501,-0.021,0.986,-0.101,-0.519,-1.617,0.641,73.333,164.000,1.000
-16467.651,-5698.300,-5704.057,31307.515,-6616.431,-5187.582,-4759.099,23535.068,-0.021,0.985,-0.098,-0.519,-1.526,0.580,73.333,165.000,1.000
-16272.816,-5533.040,-6087.731,30118.598,-6449.912,-5027.049,-4597.151,23620.491,-0.021,0.985,-0.102,-0.549,-1.404,0.580,73.333,166.000,1.000
-16058.141,-5351.775,-6459.407,28917.628,-6260.109,-4845.342,-4419.435,23742.215,-0.021,0.988,-0.101,-0.610,-1.373,0.641,73.333,167.000,1.000
-15843.417,-5179.277,-6804.874,27692.399,-6077.508,-4665.297,-4247.432,23869.483,-0.021,0.986,-0.101,-0.488,-1.373,0.549,73.333,168.000,1.000
-15649.621,-5030.125,-7142.667,26473.569,-5924.293,-4509.478,-4096.583,23960.535,-0.021,0.986,-0.096,-0.519,-1.373,0.519,73.333,169.000,1.000
-15470.610,-4889.291,-7498.508,25292.682,-5784.512,-4369.527,-3955.237,24020.303,-0.021,0.986,-0.097,-0.549,-1.404,0.580,73.333,170.000,1.000
-15282.406,-4733.253,-7870.528,24140.248,-5626.875,-4218.194,-3801.211,24092.856,-0.023,0.986,-0.100,-0.580,-1.373,0.519,73.333,171.000,1.000
-15076.016,-4561.850,-8232.374,22979.691,-5447.434,-4046.638,-3632.690,24200.676,-0.024,0.988,-0.102,-0.641,-1.312,0.549,73.333,172.000,1.000
-14868.934,-4397.542,-8569.429,21796.469,-5273.951,-3875.826,-3470.323,24315.129,-0.024,0.986,-0.100,-0.610,-1.312,0.580,73.333,173.000,1.000
-14680.831,-4254.616,-8898.474,20615.770,-5127.654,-3727.622,-3329.173,24396.734,-0.025,0.987,-0.101,-0.549,-1.404,0.580,73.333,174.000,1.000
-14507.654,-4120.813,-9244.582,19466.731,-4995.552,-3595.888,-3199.296,24448.080,-0.025,0.985,-0.097,-0.458,-1.373,0.549,73.333,175.000,1.000
-14328.650,-3975.223,-9607.432,18343.334,-4849.681,-3456.184,-3059.943,24507.883,-0.026,0.984,-0.098,-0.427,-1.373,0.671,73.333,176.000,1.000
-14134.760,-3816.539,-9962.480,17214.286,-4684.904,-3299.060,-2907.044,24597.278,-0.028,0.983,-0.094,-0.397,-1.312,0.732,73.333,177.000,1.000
-13939.544,-3663.267,-10294.426,16066.051,-4524.084,-3141.336,-2756.785,24692.989,-0.023,0.981,-0.096,-0.366,-1.312,0.824,73.333,178.000,1.000
-13759.298,-3527.487,-10616.928,14920.095,-4385.621,-3001.769,-2622.409,24761.881,-0.023,0.981,-0.096,-0.366,-1.434,0.732,73.333,179.000,1.000
-13590.794,-3398.634,-10952.647,13802.946,-4258.813,-2875.396,-2496.483,24806.916,-0.022,0.982,-0.096,-0.336,-1.434,0.885,73.333,180.000,1.000
-13416.675,-3258.432,-11302.274,12711.220,-4119.486,-2740.842,-2361.575,24861.775,-0.022,0.984,-0.096,-0.214,-1.312,0.946,73.333,181.000,1.000
-13229.434,-3105.340,-11644.502,11618.113,-3962.417,-2588.999,-2213.547,24944.233,-0.025,0.986,-0.095,-0.092,-1.312,0.946,73.333,182.000,1.000
-13040.769,-2955.309,-11965.513,10510.209,-3806.497,-2433.738,-2065.439,25033.349,-0.023,0.986,-0.096,-0.153,-1.282,1.007,73.333,183.000,1.000
-12864.807,-2819.713,-12277.152,9404.179,-3667.774,-2291.972,-1928.781,25099.606,-0.023,0.986,-0.097,-0.092,-1.251,1.099,73.333,184.000,1.000
-12699.369,-2691.199,-12600.128,8322.572,-3538.610,-2161.808,-1798.993,25144.250,-0.024,0.985,-0.096,-0.092,-1.190,1.068,73.333,185.000,1.000
-12530.116,-2555.316,-12936.432,7263.289,-3400.070,-2027.540,-1663.592,25194.815,-0.024,0.984,-0.098,-0.122,-1.099,1.373,73.333,186.000,1.000
-12350.171,-2410.423,-13268.016,6203.520,-3248.315,-1882.390,-1520.555,25266.200,-0.024,0.985,-0.099,-0.153,-1.129,1.434,73.333,187.000,1.000
-12168.574,-2269.028,-13582.247,5130.459,-3099.300,-1737.606,-1381.640,25341.371,-0.023,0.986,-0.097,-0.031,-1.068,1.343,73.333,188.000,1.000
-11997.470,-2140.520,-13888.791,4056.712,-2967.091,-1606.889,-1257.221,25395.760,-0.021,0.986,-0.096,0.092,-1.038,1.343,73.333,189.000,1.000
-11836.416,-2019.270,-14205.840,3001.706,-2846.001,-1488.124,-1142.933,25430.261,-0.021,0.988,-0.098,0.153,-0.946,1.343,73.333,190.000,1.000
-11674.442,-1893.183,-14535.792,1966.083,-2719.579,-1366.828,-1025.280,25468.722,-0.020,0.989,-0.098,0.214,-0.824,1.495,73.333,191.000,1.000
-11505.390,-1759.879,-14863.158,932.879,-2582.402,-1235.376,-898.141,25525.816,-0.018,0.989,-0.099,0.183,-0.732,1.617,73.333,192.000,1.000
-11335.396,-1628.550,-15176.004,-108.719,-2445.437,-1101.566,-768.212,25589.498,-0.019,0.988,-0.100,0.183,-0.641,1.617,73.333,193.000,1.000
-11173.477,-1506.691,-15480.953,-1149.938,-2319.731,-976.480,-644.351,25639.359,-0.017,0.985,-0.100,0.153,-0.641,1.648,73.333,194.000,1.000
-11019.220,-1390.493,-15792.556,-2175.691,-2201.938,-859.624,-526.338,25673.654,-0.016,0.982,-0.100,0.183,-0.580,1.617,73.333,195.000,1.000
-10864.037,-1271.026,-16113.208,-3184.772,-2080.389,-741.025,-407.329,25709.012,-0.015,0.978,-0.102,0.366,-0.427,1.678,73.333,196.000,1.000
-10702.881,-1146.462,-16430.759,-4189.983,-1951.352,-615.477,-284.902,25756.367,-0.016,0.976,-0.102,0.519,-0.305,1.678,73.333,197.000,1.000
-10540.336,-1023.654,-16735.625,-5200.089,-1823.212,-488.934,-164.461,25807.276,-0.015,0.977,-0.102,0.732,-0.183,1.801,73.333,198.000,1.000
-10383.767,-908.327,-17033.258,-6208.805,-1704.326,-369.662,-51.552,25847.246,-0.015,0.981,-0.102,0.885,-0.092,1.709,73.333,199.000,1.000
-10233.707,-797.718,-17335.903,-7204.400,-1592.073,-257.147,55.820,25875.616,-0.016,0.984,-0.102,1.007,0.061,1.617,73.333,200.000,1.000
-10084.150,-684.857,-17646.235,-8185.529,-1477.217,-143.486,164.767,25905.104,-0.017,0.988,-0.099,1.007,0.153,1.617,73.333,201.000,1.000
-9930.949,-567.700,-17954.751,-9162.089,-1356.098,-24.215,278.568,25943.808,-0.017,0.988,-0.098,1.160,0.275,1.678,73.333,202.000,1.000
-9776.677,-450.784,-18253.083,-10141.574,-1234.273,96.389,393.565,25985.213,-0.017,0.988,-0.098,1.038,0.183,1.648,73.333,203.000,1.000
-9626.306,-338.516,-18544.494,-11119.869,-1118.075,211.546,504.807,26018.459,-0.019,0.987,-0.098,1.068,0.336,1.678,73.333,204.000,1.000
-9480.416,-229.679,-18838.293,-12087.615,-1006.423,320.508,612.237,26043.226,-0.021,0.988,-0.099,0.946,0.397,1.495,73.333,205.000,1.000
-9334.968,-119.964,-19137.253,-13042.429,-893.369,428.434,719.716,26069.161,-0.023,0.988,-0.099,1.007,0.397,1.404,73.333,206.000,1.000
-9186.998,-8.264,-19434.966,-13990.942,-776.602,538.997,828.927,26102.243,-0.025,0.989,-0.098,0.885,0.427,1.251,73.333,207.000,1.000
-9038.370,102.089,-19725.314,-14939.411,-660.290,650.170,937.161,26137.229,-0.026,0.991,-0.096,0.793,0.244,1.160,73.333,208.000,1.000
-8892.985,208.075,-20010.251,-15885.919,-549.162,758.075,1041.382,26165.450,-0.025,0.992,-0.095,0.702,0.092,0.946,73.333,209.000,1.000
-8751.706,310.984,-20296.105,-16823.717,-442.534,862.544,1142.460,26186.173,-0.026,0.993,-0.095,0.671,0.000,0.732,73.333,210.000,1.000
-8611.701,414.501,-20584.875,-17750.370,-336.106,966.563,1243.678,26206.250,-0.028,0.994,-0.096,0.519,-0.244,0.580,73.333,211.000,1.000
-8470.287,519.958,-20872.292,-18670.507,-227.884,1071.460,1346.307,26230.511,-0.027,0.992,-0.099,0.397,-0.244,0.488,73.333,212.000,1.000
-8327.948,625.186,-21154.336,-19589.549,-120.153,1175.205,1448.904,26256.758,-0.026,0.991,-0.099,0.336,-0.397,0.488,73.333,213.000,1.000
-8187.120,727.492,-21432.800,-20507.352,-15.830,1275.397,1549.520,26280.138,-0.025,0.990,-0.098,0.336,-0.488,0.336,73.333,214.000,1.000
-8049.176,826.509,-21712.794,-21419.569,85.196,1372.383,1647.292,26299.221,-0.025,0.989,-0.099,0.092,-0.610,0.458,73.333,215.000,1.000
-7913.559,923.834,-21996.189,-22323.873,185.371,1468.714,1742.482,26316.207,-0.024,0.987,-0.098,0.122,-0.793,0.580,73.333,216.000,1.000
-7779.115,1020.797,-22279.485,-23222.503,286.445,1566.331,1835.675,26332.884,-0.024,0.988,-0.098,0.122,-0.885,0.610,73.333,217.000,1.000
-7645.509,1117.542,-22558.268,-24118.626,388.058,1665.152,1927.801,26348.727,-0.026,0.986,-0.099,0.000,-0.916,0.671,73.333,218.000,1.000
-7513.257,1213.776,-22832.048,-25011.885,489.081,1763.976,2020.390,26363.086,-0.026,0.986,-0.097,-0.031,-1.007,0.793,73.333,219.000,1.000
-7382.802,1309.628,-23103.755,-25898.814,589.290,1862.007,2115.229,26377.412,-0.026,0.986,-0.096,-0.092,-1.129,0.824,73.333,220.000,1.000
-7253.928,1405.491,-23375.627,-26777.211,689.167,1959.281,2213.097,26393.840,-0.025,0.986,-0.097,-0.092,-1.282,0.977,73.333,221.000,1.000
-7126.032,1501.184,-23647.051,-27648.791,788.593,2055.847,2312.107,26412.013,-0.025,0.987,-0.097,-0.122,-1.404,1.099,73.333,222.000,1.000
-6998.942,1595.749,-23916.451,-28517.131,886.288,2151.002,2408.354,26428.683,-0.024,0.986,-0.096,-0.122,-1.434,1.312,73.333,223.000,1.000
-6873.129,1688.068,-24183.816,-29383.538,980.915,2243.817,2498.773,26440.791,-0.023,0.984,-0.097,-0.153,-1.434,1.434,73.333,224.000,1.000
-6749.105,1777.762,-24450.577,-30245.840,1072.381,2334.260,2583.256,26447.880,-0.023,0.985,-0.095,-0.092,-1.617,1.404,73.333,225.000,1.000
-6626.844,1865.442,-24717.675,-31101.238,1161.769,2423.181,2663.955,26451.312,-0.021,0.987,-0.095,-0.153,-1.617,1.495,73.333,226.000,1.000
-6505.604,1952.231,-24984.321,-31949.215,1250.648,2511.418,2743.404,26452.860,-0.023,0.986,-0.096,-0.183,-1.801,1.587,73.333,227.000,1.000
-6384.423,2039.121,-25248.824,-32791.485,1340.280,2599.292,2823.838,26454.477,-0.020,0.985,-0.094,-0.122,-1.617,1.556,73.333,228.000,1.000
-6263.034,2126.073,-25510.469,-33629.792,1430.750,2686.442,2906.278,26457.613,-0.021,0.984,-0.096,-0.244,-1.740,1.587,73.333,229.000,1.000
-6142.349,2211.910,-25770.297,-34464.265,1520.739,2771.961,2989.691,26461.964,-0.021,0.982,-0.095,-0.153,-1.770,1.465,73.333,230.000,1.000
-6023.628,2295.563,-26029.927,-35293.744,1608.762,2855.171,3072.160,26465.788,-0.021,0.981,-0.096,-0.183,-1.740,1.373,73.333,231.000,1.000
-5906.853,2377.323,-26289.717,-36117.335,1694.905,2936.595,3152.971,26468.069,-0.020,0.981,-0.099,-0.092,-1.556,1.312,73.333,232.000,1.000
-5790.530,2458.650,-26548.401,-36935.512,1780.605,3017.874,3233.277,26469.697,-0.018,0.981,-0.096,0.000,-1.587,1.190,73.333,233.000,1.000
-5673.352,2540.544,-26804.414,-37749.460,1866.712,3100.247,3314.225,26471.801,-0.017,0.979,-0.098,0.092,-1.465,1.160,73.333,234.000,1.000
-5555.637,2622.598,-27057.400,-38559.398,1952.466,3183.320,3395.365,26473.720,-0.015,0.979,-0.099,0.244,-1.373,1.068,73.333,235.000,1.000
-5438.801,2703.785,-27308.423,-39364.077,2036.732,3265.646,3475.637,26473.760,-0.015,0.978,-0.096,0.336,-1.282,1.007,73.333,236.000,1.000
-5323.635,2783.728,-27558.675,-40162.256,2119.815,3346.398,3554.848,26471.588,-0.015,0.979,-0.095,0.427,-1.312,1.007,73.333,237.000,1.000
-5209.831,2862.811,-27808.386,-40954.627,2202.959,3426.016,3633.443,26468.521,-0.016,0.979,-0.099,0.488,-1.251,0.916,73.333,238.000,1.000
-5097.129,2940.890,-28057.117,-41743.492,2286.159,3504.878,3710.752,26465.341,-0.019,0.978,-0.102,0.549,-1.160,0.763,73.333,239.000,1.000
-4986.130,3016.914,-28304.663,-42530.169,2367.482,3582.154,3784.810,26460.868,-0.019,0.979,-0.099,0.702,-1.038,0.702,73.333,240.000,1.000
-4877.478,3090.324,-28551.355,-43313.390,2445.031,3656.758,3854.556,26453.301,-0.016,0.979,-0.100,0.702,-1.038,0.702,73.333,241.000,1.000
-4770.439,3162.168,-28797.403,-44090.791,2519.251,3728.994,3921.304,26442.776,-0.017,0.979,-0.099,0.824,-0.916,0.671,73.333,242.000,1.000
-4663.174,3234.321,-29042.193,-44861.716,2592.532,3800.476,3988.003,26431.911,-0.017,0.981,-0.098,0.916,-0.854,0.671,73.333,243.000,1.000
-4554.603,3307.532,-29284.474,-45627.653,2666.726,3872.505,4056.886,26423.377,-0.020,0.982,-0.098,0.977,-0.854,0.702,73.333,244.000,1.000
-4445.617,3380.824,-29523.514,-46389.936,2741.570,3944.928,4127.898,26417.242,-0.018,0.984,-0.100,1.099,-0.763,0.610,73.333,245.000,1.000
-4338.141,3452.811,-29760.168,-47148.055,2815.569,4016.547,4199.221,26411.073,-0.018,0.986,-0.102,1.068,-0.702,0.824,73.333,246.000,1.000
-4233.016,3523.186,-29996.238,-47900.703,2888.137,4086.687,4268.949,26402.667,-0.019,0.985,-0.101,1.068,-0.580,0.885,73.333,247.000,1.000
-4129.342,3592.871,-30232.611,-48647.903,2960.169,4156.147,4336.650,26392.270,-0.021,0.989,-0.101,1.068,-0.580,0.946,73.333,248.000,1.000
-4025.823,3662.662,-30468.268,-49391.035,3032.656,4226.065,4403.277,26381.811,-0.021,0.991,-0.099,1.007,-0.580,0.977,73.333,249.000,1.000
-3922.224,3732.307,-30701.444,-50130.661,3105.417,4296.309,4470.114,26372.397,-0.020,0.993,-0.100,0.885,-0.519,1.068,73.333,250.000,1.000
-3819.290,3801.133,-30931.631,-50865.380,3177.448,4365.668,4537.784,26363.015,-0.021,0.992,-0.098,0.854,-0.610,1.190,73.333,251.000,1.000
-3717.310,3869.181,-31159.817,-51593.403,3248.334,4433.555,4605.560,26351.878,-0.024,0.990,-0.098,0.732,-0.580,1.343,73.333,252.000,1.000
-3615.615,3937.276,-31386.913,-52314.883,3318.679,4500.871,4672.172,26338.603,-0.023,0.988,-0.095,0.610,-0.763,1.221,73.333,253.000,1.000
-3513.757,4005.648,-31612.688,-53031.938,3388.981,4568.737,4736.851,26324.161,-0.024,0.985,-0.098,0.427,-0.824,1.190,73.333,254.000,1.000
-3412.464,4073.282,-31836.479,-53746.274,3458.627,4636.863,4799.370,26308.999,-0.021,0.984,-0.103,0.397,-0.854,1.312,73.333,255.000,1.000
-3312.923,4139.089,-32058.503,-54457.344,3526.586,4703.851,4860.017,26292.578,-0.022,0.985,-0.104,0.336,-1.007,1.282,73.333,256.000,1.000
-3215.302,4203.197,-32279.790,-55163.210,3593.017,4768.895,4919.862,26274.938,-0.022,0.988,-0.102,0.397,-1.068,1.251,73.333,257.000,1.000
-3118.486,4266.677,-32500.827,-55863.057,3659.226,4832.414,4980.374,26257.477,-0.023,0.990,-0.102,0.305,-0.977,1.190,73.333,258.000,1.000
-3021.163,4330.005,-32720.695,-56557.992,3725.963,4894.911,5041.626,26241.317,-0.022,0.991,-0.098,0.214,-0.977,1.373,73.333,259.000,1.000
-2923.034,4392.431,-32938.046,-57249.284,3792.372,4956.037,5101.727,26225.444,-0.020,0.991,-0.096,0.092,-1.038,1.404,73.333,260.000,1.000
-2824.989,4453.110,-33152.838,-57936.655,3857.068,5015.340,5159.075,26207.598,-0.019,0.990,-0.099,0.000,-1.038,1.495,73.333,261.000,1.000
-2728.041,4512.439,-33366.359,-58618.777,3920.187,5073.725,5214.664,26187.363,-0.016,0.987,-0.101,0.000,-0.977,1.617,73.333,262.000,1.000
-2632.468,4571.938,-33579.534,-59295.208,3983.526,5133.471,5271.745,26167.315,-0.016,0.987,-0.106,-0.092,-0.946,1.709,73.333,263.000,1.000
-2538.031,4632.588,-33791.785,-59967.143,4048.533,5196.174,5332.714,26150.231,-0.018,0.986,-0.103,-0.092,-0.885,1.801,73.333,264.000,1.000
-2444.714,4693.849,-34001.944,-60636.029,4114.585,5260.859,5396.656,26135.615,-0.021,0.986,-0.101,-0.061,-0.824,1.892,73.333,265.000,1.000
-2352.951,4754.307,-34210.088,-61302.099,4179.385,5324.327,5459.891,26119.778,-0.022,0.987,-0.100,-0.122,-0.824,1.740,73.333,266.000,1.000
-2262.865,4812.897,-34417.683,-61964.548,4241.045,5383.573,5518.571,26099.472,-0.026,0.988,-0.099,-0.244,-0.854,1.617,73.333,267.000,1.000
-2173.737,4869.639,-34625.747,-62622.837,4299.542,5438.242,5571.545,26074.780,-0.027,0.987,-0.099,-0.305,-0.916,1.495,73.333,268.000,1.000
-2084.607,4925.114,-34833.501,-63277.131,4356.254,5490.633,5620.593,26048.183,-0.026,0.985,-0.101,-0.366,-1.038,1.282,73.333,269.000,1.000
-1995.270,4979.678,-35039.295,-63927.368,4412.475,5543.356,5668.368,26021.703,-0.023,0.984,-0.102,-0.275,-1.221,1.221,73.333,270.000,1.000
-1906.292,5033.581,-35242.434,-64572.502,4468.789,5597.488,5716.937,25995.807,-0.021,0.982,-0.100,-0.244,-1.343,1.129,73.333,271.000,1.000
-1818.032,5087.456,-35443.467,-65211.259,4525.778,5652.951,5767.877,25970.742,-0.021,0.985,-0.102,-0.122,-1.343,1.038,73.333,272.000,1.000
-1730.169,5142.200,-35643.019,-65843.722,4584.163,5709.535,5822.299,25947.455,-0.022,0.984,-0.099,-0.183,-1.282,1.007,73.333,273.000,1.000
-1642.209,5197.974,-35840.925,-66471.615,4643.824,5766.733,5879.268,25926.283,-0.020,0.985,-0.099,-0.183,-1.312,1.007,73.333,274.000,1.000
-1554.310,5253.768,-36036.788,-67096.758,4703.346,5823.372,5935.677,25905.762,-0.020,0.985,-0.100,-0.183,-1.282,0.885,73.333,275.000,1.000
-1467.443,5308.221,-36231.075,-67719.470,4761.087,5878.253,5989.007,25883.731,-0.020,0.985,-0.098,-0.244,-1.282,0.916,73.333,276.000,1.000
-1382.535,5360.638,-36425.031,-68338.662,4816.582,5931.044,6038.999,25859.119,-0.018,0.986,-0.098,-0.244,-1.343,1.068,73.333,277.000,1.000
-1299.803,5411.169,-36619.593,-68953.520,4870.271,5982.171,6086.484,25831.922,-0.018,0.987,-0.098,-0.122,-1.404,1.038,73.333,278.000,1.000
-1218.944,5460.074,-36814.616,-69564.535,4922.383,6031.897,6131.570,25802.015,-0.017,0.988,-0.097,-0.214,-1.373,1.068,73.333,279.000,1.000
-1139.559,5507.466,-37009.126,-70172.515,4972.825,6080.158,6174.151,25769.204,-0.018,0.989,-0.097,-0.305,-1.373,1.160,73.333,280.000,1.000
-1061.236,5553.767,-37202.223,-70777.187,5021.916,6127.248,6215.440,25734.417,-0.018,0.986,-0.096,-0.336,-1.373,1.312,73.333,281.000,1.000
-983.317,5599.860,-37393.457,-71377.263,5070.783,6174.059,6257.587,25699.994,-0.018,0.987,-0.096,-0.366,-1.373,1.251,73.333,282.000,1.000
-905.054,5646.694,-37582.501,-71971.800,5120.662,6221.490,6302.287,25668.447,-0.020,0.987,-0.096,-0.305,-1.404,1.343,73.333,283.000,1.000
-826.128,5694.513,-37768.875,-72561.027,5171.907,6269.567,6349.624,25640.729,-0.020,0.984,-0.097,-0.275,-1.343,1.373,73.333,284.000,1.000
-746.997,5742.627,-37952.361,-73145.803,5223.703,6317.379,6398.012,25615.398,-0.019,0.984,-0.097,-0.214,-1.343,1.434,73.333,285.000,1.000
-668.524,5790.072,-38133.542,-73726.532,5274.796,6364.050,6445.410,25589.582,-0.021,0.985,-0.096,-0.122,-1.434,1.495,73.333,286.000,1.000
-590.946,5836.493,-38313.370,-74302.765,5324.672,6409.707,6490.721,25561.281,-0.021,0.983,-0.098,-0.031,-1.495,1.404,73.333,287.000,1.000
-513.580,5882.428,-38492.272,-74873.972,5373.765,6455.292,6534.591,25530.761,-0.021,0.983,-0.097,0.092,-1.373,1.465,73.333,288.000,1.000
-435.679,5928.470,-38669.921,-75440.446,5422.573,6501.296,6578.377,25499.452,-0.021,0.981,-0.096,0.244,-1.404,1.373,73.333,289.000,1.000
-357.337,5974.429,-38845.941,-76003.261,5470.835,6547.071,6622.400,25467.854,-0.020,0.983,-0.095,0.336,-1.434,1.282,73.333,290.000,1.000
-279.468,6019.541,-39020.623,-76563.394,5517.793,6591.654,6665.664,25435.171,-0.019,0.983,-0.098,0.397,-1.434,1.282,73.333,291.000,1.000
-202.959,6063.357,-39194.640,-77120.893,5563.359,6634.919,6707.124,25401.022,-0.018,0.983,-0.099,0.488,-1.495,1.312,73.333,292.000,1.000
-128.193,6106.305,-39368.288,-77675.060,5608.410,6677.554,6746.880,25366.390,-0.018,0.981,-0.097,0.641,-1.526,1.343,73.333,293.000,1.000
-55.155,6149.127,-39541.197,-78225.219,5653.837,6720.116,6785.549,25332.283,-0.019,0.981,-0.095,0.763,-1.465,1.221,73.333,294.000,1.000
16.445,6192.236,-39712.691,-78771.051,5699.718,6762.628,6823.528,25298.462,-0.020,0.983,-0.098,0.824,-1.587,1.068,73.333,295.000,1.000
87.130,6235.619,-39882.350,-79312.345,5745.515,6804.948,6861.367,25264.094,-0.020,0.985,-0.097,0.916,-1.556,1.099,73.333,296.000,1.000
157.587,6278.986,-40050.146,-79848.772,5790.871,6847.105,6899.861,25229.027,-0.019,0.984,-0.097,0.946,-1.526,1.007,73.333,297.000,1.000
228.252,6321.873,-40216.342,-80380.337,5835.652,6889.019,6939.460,25193.713,-0.019,0.985,-0.098,1.038,-1.526,0.946,73.333,298.000,1.000
298.914,6363.431,-40381.493,-80907.893,5879.410,6929.907,6979.269,25158.122,-0.018,0.985,-0.100,1.099,-1.434,0.946,73.333,299.000,1.000
368.837,6402.648,-40546.313,-81432.711,5921.399,6968.607,7017.591,25121.534,-0.019,0.985,-0.099,1.221,-1.373,0.916,73.333,300.000,1.000
437.317,6439.159,-40711.317,-81955.475,5961.318,7004.908,7054.112,25083.577,-0.020,0.983,-0.100,1.312,-1.404,0.854,73.333,301.000,1.000
504.384,6473.688,-40876.407,-82475.750,5999.879,7040.183,7090.264,25044.891,-0.020,0.983,-0.102,1.343,-1.312,0.916,73.333,302.000,1.000
570.866,6507.670,-41040.913,-82992.465,6038.177,7076.217,7127.263,25006.521,-0.021,0.983,-0.100,1.434,-1.251,0.946,73.333,303.000,1.000
637.767,6542.295,-41203.972,-83504.653,6076.888,7113.626,7164.982,24969.369,-0.020,0.983,-0.101,1.495,-1.282,0.946,73.333,304.000,1.000
705.513,6577.997,-41364.969,-84011.910,6116.107,7151.771,7202.880,24934.001,-0.019,0.983,-0.101,1.495,-1.221,1.007,73.333,305.000,1.000
773.535,6614.428,-41524.011,-84514.676,6155.211,7189.364,7239.800,24899.375,-0.019,0.984,-0.103,1.617,-1.129,0.946,73.333,306.000,1.000
840.627,6650.638,-41681.859,-85013.928,6193.031,7224.865,7273.116,24862.350,-0.019,0.985,-0.102,1.770,-1.160,0.885,73.333,307.000,1.000
905.566,6685.658,-41839.292,-85510.429,6228.706,7257.368,7300.912,24820.174,-0.022,0.986,-0.100,1.648,-1.160,0.854,73.333,308.000,1.000
967.683,6718.992,-41996.523,-86004.263,6262.454,7287.447,7324.370,24773.034,-0.022,0.986,-0.101,1.709,-1.312,0.885,73.333,309.000,1.000
1027.344,6750.880,-42152.992,-86494.909,6295.422,7316.877,7347.059,24723.727,-0.020,0.986,-0.103,1.740,-1.343,1.007,73.333,310.000,1.000
1085.932,6782.234,-42307.629,-86981.548,6328.937,7347.458,7372.626,24675.689,-0.021,0.986,-0.104,1.770,-1.251,0.885,73.333,311.000,1.000
1145.238,6814.149,-42459.373,-87463.250,6364.013,7380.062,7402.991,24631.372,-0.021,0.985,-0.106,1.709,-1.312,0.824,73.333,312.000,1.000
1206.579,6847.453,-42607.761,-87939.335,6400.951,7414.461,7437.711,24591.279,-0.022,0.984,-0.107,1.801,-1.312,0.946,73.333,313.000,1.000
1270.173,6882.228,-42753.194,-88409.856,6439.181,7449.704,7474.097,24553.778,-0.024,0.984,-0.107,1.801,-1.251,1.007,73.333,314.000,1.000
1334.985,6917.604,-42896.821,-88875.797,6477.476,7484.718,7508.816,24516.223,-0.021,0.982,-0.103,1.801,-1.221,0.946,73.333,315.000,1.000
1399.211,6952.158,-43040.053,-89338.598,6514.484,7518.543,7540.081,24476.757,-0.023,0.982,-0.106,1.862,-1.221,0.885,73.333,316.000,1.000
1461.476,6984.811,-43183.677,-89799.155,6549.576,7550.541,7568.183,24435.277,-0.022,0.982,-0.106,1.892,-1.312,0.946,73.333,317.000,1.000
1521.568,7015.616,-43327.408,-90257.451,6583.119,7581.006,7594.775,24392.751,-0.021,0.982,-0.103,1.923,-1.282,0.793,73.333,318.000,1.000
1580.157,7045.365,-43470.354,-90713.009,6615.908,7610.960,7621.504,24349.892,-0.021,0.981,-0.105,2.014,-1.221,0.793,73.333,319.000,1.000
1638.122,7074.732,-43611.708,-91165.282,6648.459,7640.986,7649.013,24306.824,-0.021,0.982,-0.104,2.075,-1.160,0.854,73.333,320.000,1.000
1696.041,7103.913,-43751.104,-91613.752,6680.799,7670.716,7677.005,24263.490,-0.021,0.981,-0.105,2.106,-1.160,0.732,73.333,321.000,1.000
1754.089,7132.777,-43888.549,-92057.925,6712.894,7699.685,7704.967,24219.997,-0.022,0.982,-0.103,2.136,-1.282,0.732,73.333,322.000,1.000
1812.069,7161.237,-44024.386,-92497.562,6744.816,7728.106,7732.935,24176.655,-0.022,0.983,-0.102,2.106,-1.404,0.854,73.333,323.000,1.000
1869.617,7189.273,-44159.224,-92932.941,6776.518,7756.371,7760.870,24133.537,-0.024,0.985,-0.099,2.106,-1.282,0.885,73.333,324.000,1.000
1926.455,7216.916,-44293.551,-93364.690,6807.680,7784.361,7787.941,24090.158,-0.023,0.983,-0.102,2.106,-1.251,0.854,73.333,325.000,1.000
1982.377,7244.140,-44427.541,-93793.413,6837.699,7811.433,7812.968,24045.617,-0.021,0.983,-0.103,2.106,-1.221,0.916,73.333,326.000,1.000
2037.290,7270.659,-44561.122,-94219.442,6865.904,7836.970,7835.180,23999.064,-0.023,0.982,-0.104,2.106,-1.221,0.916,73.333,327.000,1.000
2091.311,7296.198,-44694.024,-94642.726,6892.056,7861.223,7855.415,23950.620,-0.022,0.981,-0.105,2.136,-1.282,1.068,73.333,328.000,1.000
2144.731,7320.663,-44825.806,-95062.840,6916.637,7885.007,7875.765,23901.550,-0.023,0.979,-0.106,2.197,-1.312,0.977,73.333,329.000,1.000
2197.796,7344.090,-44956.130,-95479.446,6940.363,7908.452,7897.352,23852.711,-0.024,0.977,-0.104,2.258,-1.312,0.977,73.333,330.000,1.000
2250.537,7366.746,-45084.951,-95892.599,6963.793,7931.178,7919.668,23803.676,-0.024,0.975,-0.104,2.441,-1.404,0.977,73.333,331.000,1.000
2303.033,7389.269,-45212.180,-96302.208,6987.715,7953.573,7942.111,23754.086,-0.023,0.974,-0.104,2.594,-1.434,1.068,73.333,332.000,1.000
2355.546,7412.393,-45337.633,-96707.852,7012.840,7976.500,7964.668,23704.244,-0.021,0.977,-0.102,2.686,-1.343,0.977,73.333,333.000,1.000
2408.227,7436.185,-45461.450,-97109.393,7038.914,7999.679,7986.451,23653.974,-0.021,0.977,-0.101,2.869,-1.312,1.038,73.333,334.000,1.000
2460.926,7460.027,-45584.021,-97507.097,7064.987,8021.779,8005.680,23602.717,-0.021,0.980,-0.102,3.052,-1.312,1.099,73.333,335.000,1.000
2513.304,7483.296,-45705.532,-97901.106,7090.529,8042.157,8021.816,23550.852,-0.022,0.979,-0.104,3.082,-1.343,1.129,73.333,336.000,1.000
2564.945,7505.571,-45825.914,-98291.273,7115.728,8061.378,8036.179,23499.600,-0.023,0.978,-0.104,3.082,-1.373,1.038,73.333,337.000,1.000
2615.381,7526.690,-45945.202,-98677.554,7140.798,8080.441,8050.823,23449.663,-0.024,0.980,-0.103,3.296,-1.312,1.068,73.333,338.000,1.000
2664.438,7546.980,-46063.462,-99060.099,7165.825,8100.450,8067.616,23400.895,-0.023,0.979,-0.104,3.296,-1.221,0.946,73.333,339.000,1.000
2712.521,7567.309,-46180.495,-99439.087,7191.062,8122.525,8087.967,23353.209,-0.021,0.982,-0.104,3.357,-1.190,1.007,73.333,340.000,1.000
2760.222,7588.361,-46296.096,-99814.843,7216.541,8146.785,8111.851,23306.627,-0.023,0.984,-0.103,3.448,-1.221,1.007,73.333,341.000,1.000
2807.778,7609.847,-46410.514,-100188.020,7241.537,8171.471,8136.683,23260.277,-0.021,0.986,-0.103,3.479,-1.251,0.977,73.333,342.000,1.000
2854.876,7630.851,-46524.488,-100559.463,7264.837,8193.954,8158.757,23212.276,-0.020,0.986,-0.102,3.479,-1.190,1.038,73.333,343.000,1.000
2901.129,7650.797,-46638.584,-100929.531,7285.923,8212.977,8176.273,23161.211,-0.021,0.990,-0.102,3.510,-1.099,1.068,73.333,344.000,1.000
2946.741,7670.021,-46752.496,-101297.468,7305.680,8229.741,8190.788,23107.499,-0.021,0.988,-0.105,3.540,-1.007,1.007,73.333,345.000,1.000
2992.432,7689.252,-46865.331,-101661.859,7325.576,8246.591,8205.572,23052.980,-0.021,0.988,-0.102,3.479,-0.977,1.129,73.333,346.000,1.000
3038.835,7708.732,-46976.362,-102021.647,7346.501,8265.023,8222.703,22999.508,-0.020,0.990,-0.103,3.418,-0.977,0.946,73.333,347.000,1.000
3085.994,7728.258,-47085.361,-102376.603,7368.472,8285.121,8242.286,22948.082,-0.021,0.992,-0.103,3.265,-0.916,0.885,73.333,348.000,1.000
3133.325,7747.512,-47192.540,-102727.139,7391.000,8306.123,8263.167,22898.652,-0.021,0.993,-0.103,3.143,-0.885,0.946,73.333,349.000,1.000
3179.930,7766.178,-47298.394,-103074.024,7413.370,8326.969,8283.621,22850.309,-0.021,0.996,-0.105,2.899,-0.824,0.977,73.333,350.000,1.000
3225.082,7784.065,-47403.408,-103418.023,7434.877,8346.694,8302.078,22801.833,-0.022,0.993,-0.104,2.869,-0.824,1.007,73.333,351.000,1.000
3268.653,7801.212,-47507.715,-103759.403,7455.263,8364.831,8317.868,22752.362,-0.021,0.993,-0.106,2.747,-0.793,0.977,73.333,352.000,1.000
3310.931,7817.876,-47611.201,-104097.942,7474.658,8381.462,8331.681,22701.642,-0.022,0.992,-0.106,2.502,-0.702,0.916,73.333,353.000,1.000
3352.417,7834.346,-47713.665,-104433.230,7493.340,8397.021,8345.035,22649.938,-0.021,0.995,-0.110,2.380,-0.702,0.946,73.333,354.000,1.000
3393.947,7851.038,-47814.667,-104764.820,7511.746,8412.474,8359.444,22597.886,-0.020,0.993,-0.107,2.258,-0.641,1.129,73.333,355.000,1.000
3436.484,7868.429,-47913.631,-105092.401,7530.348,8429.011,8375.781,22546.248,-0.021,0.992,-0.104,2.075,-0.610,1.038,73.333,356.000,1.000
3480.504,7886.464,-48010.284,-105416.008,7549.328,8446.767,8393.613,22495.665,-0.020,0.991,-0.104,1.984,-0.549,1.099,73.333,357.000,1.000
3525.371,7904.196,-48105.195,-105736.397,7568.051,8464.115,8410.933,22445.530,-0.021,0.988,-0.103,1.770,-0.488,1.190,73.333,358.000,1.000
3569.708,7920.318,-48199.553,-106054.821,7585.319,8478.991,8424.734,22393.201,-0.023,0.988,-0.105,1.709,-0.488,1.221,73.333,359.000,1.000
3612.638,7934.461,-48294.033,-106371.800,7600.778,8491.206,8433.527,22336.383,-0.021,0.986,-0.106,1.556,-0.366,1.312,73.333,360.000,1.000
3654.242,7947.484,-48388.284,-106686.569,7615.511,8502.678,8439.324,22275.919,-0.022,0.985,-0.107,1.465,-0.397,1.373,73.333,361.000,1.000
3695.127,7960.453,-48481.447,-106997.835,7630.996,8515.263,8445.663,22214.853,-0.023,0.984,-0.109,1.556,-0.336,1.312,73.333,362.000,1.000
3736.036,7974.035,-48572.813,-107304.669,7647.836,8529.157,8454.501,22155.807,-0.022,0.983,-0.109,1.526,-0.244,1.312,73.333,363.000,1.000
3777.559,7988.405,-48662.169,-107606.755,7665.679,8543.313,8465.606,22100.080,-0.021,0.985,-0.108,1.587,-0.214,1.373,73.333,364.000,1.000
3819.865,8003.352,-48749.796,-107904.331,7683.822,8556.719,8478.182,22047.930,-0.020,0.987,-0.109,1.587,-0.183,1.434,73.333,365.000,1.000
3862.634,8018.431,-48836.219,-108198.158,7701.540,8569.140,8491.801,21998.429,-0.021,0.989,-0.111,1.556,-0.183,1.495,73.333,366.000,1.000
3905.268,8033.112,-48921.850,-108489.243,7718.290,8581.145,8505.873,21949.517,-0.025,0.990,-0.110,1.495,-0.092,1.465,73.333,367.000,1.000
3947.130,8047.068,-49006.864,-108778.355,7733.901,8593.671,8519.770,21899.255,-0.027,0.987,-0.108,1.587,-0.031,1.495,73.333,368.000,1.000
3987.851,8060.186,-49091.280,-109065.601,7748.678,8607.179,8533.376,21847.230,-0.025,0.985,-0.105,1.373,-0.092,1.434,73.333,369.000,1.000
4027.445,8072.509,-49175.062,-109350.592,7763.118,8621.168,8546.865,21794.316,-0.025,0.981,-0.109,1.343,-0.122,1.373,73.333,370.000,1.000
4066.040,8084.217,-49258.259,-109633.101,7777.304,8634.382,8559.593,21740.920,-0.024,0.981,-0.113,1.373,-0.061,1.404,73.333,371.000,1.000
4103.756,8095.619,-49340.870,-109913.111,7790.955,8645.723,8569.837,21686.152,-0.024,0.980,-0.111,1.465,-0.214,1.373,73.333,372.000,1.000
4140.759,8107.256,-49422.628,-110190.201,7804.147,8655.565,8577.062,21629.271,-0.025,0.981,-0.109,1.587,-0.244,1.282,73.333,373.000,1.000
4177.259,8119.635,-49503.081,-110463.457,7817.715,8665.814,8583.355,21571.258,-0.023,0.982,-0.110,1.648,-0.275,1.373,73.333,374.000,1.000
4213.361,8132.784,-49581.986,-110732.366,7832.532,8678.016,8591.438,21514.086,-0.021,0.982,-0.109,1.831,-0.305,1.312,73.333,375.000,1.000
4248.936,8146.078,-49659.531,-110997.518,7848.487,8691.690,8602.062,21458.777,-0.021,0.979,-0.108,1.831,-0.336,1.251,73.333,376.000,1.000
4283.979,8158.550,-49735.969,-111260.025,7864.562,8704.849,8613.930,21404.998,-0.019,0.977,-0.107,1.862,-0.275,1.251,73.333,377.000,1.000
4318.876,8169.542,-49811.323,-111520.558,7879.547,8715.679,8625.590,21352.088,-0.019,0.975,-0.111,1.862,-0.275,1.465,73.333,378.000,1.000
4354.159,8178.878,-49885.514,-111779.063,7892.518,8723.575,8636.126,21299.282,-0.017,0.973,-0.109,1.984,-0.183,1.648,73.333,379.000,1.000
4390.185,8186.810,-49958.551,-112035.060,7902.992,8729.274,8644.707,21245.257,-0.016,0.971,-0.112,2.167,0.031,1.648,73.333,380.000,1.000
4427.084,8193.967,-50030.499,-112287.919,7911.006,8734.176,8650.650,21188.549,-0.018,0.970,-0.114,2.350,0.061,1.801,73.333,381.000,1.000
4464.950,8201.110,-50101.277,-112536.926,7917.334,8739.328,8653.905,21128.721,-0.019,0.976,-0.112,2.625,0.244,1.892,73.333,382.000,1.000
4503.667,8208.823,-50170.753,-112781.617,7923.258,8744.979,8655.531,21066.920,-0.021,0.981,-0.111,2.686,0.275,1.831,73.333,383.000,1.000
4542.628,8217.190,-50239.020,-113022.155,7930.049,8750.908,8657.218,21005.355,-0.022,0.986,-0.114,2.716,0.214,1.831,73.333,384.000,1.000
4580.746,8225.843,-50306.432,-113259.299,7938.460,8756.990,8660.324,20946.060,-0.022,0.990,-0.115,2.655,0.122,1.892,73.333,385.000,1.000
4616.666,8234.220,-50373.479,-113494.063,7948.413,8763.367,8665.319,20889.688,-0.020,0.989,-0.113,2.563,0.153,1.984,73.333,386.000,1.000
4649.334,8241.878,-50440.395,-113727.095,7959.345,8770.337,8671.705,20835.321,-0.019,0.990,-0.113,2.411,0.031,2.075,73.333,387.000,1.000
4678.619,8248.830,-50506.870,-113958.272,7970.751,8778.130,8678.485,20781.313,-0.021,0.989,-0.114,2.319,0.092,2.136,73.333,388.000,1.000
4705.449,8255.366,-50572.206,-114186.893,7982.391,8786.394,8684.574,20726.313,-0.022,0.988,-0.116,2.228,0.000,1.984,73.333,389.000,1.000
4731.376,8261.747,-50635.721,-114412.229,7994.196,8794.169,8689.416,20669.905,-0.023,0.988,-0.117,2.136,0.061,1.862,73.333,390.000,1.000
4757.963,8268.176,-50697.097,-114633.999,8006.054,8800.713,8693.516,20612.548,-0.023,0.989,-0.115,2.167,0.031,1.770,73.333,391.000,1.000
4786.394,8274.855,-50756.435,-114852.379,8017.781,8806.280,8697.971,20555.039,-0.024,0.990,-0.114,1.984,-0.092,1.740,73.333,392.000,1.000
4817.018,8281.992,-50814.245,-115067.818,8029.030,8811.930,8703.755,20498.004,-0.025,0.992,-0.112,1.831,-0.214,1.648,73.333,393.000,1.000
4849.319,8289.646,-50871.209,-115280.656,8039.480,8818.704,8711.374,20441.912,-0.024,0.994,-0.112,1.648,-0.244,1.556,73.333,394.000,1.000
4882.463,8297.768,-50927.675,-115490.762,8049.287,8827.112,8721.071,20387.358,-0.023,0.995,-0.110,1.495,-0.366,1.434,73.333,395.000,1.000
4915.541,8306.069,-50983.683,-115697.914,8058.781,8836.763,8732.257,20334.354,-0.021,0.995,-0.112,1.221,-0.458,1.465,73.333,396.000,1.000
4947.598,8313.753,-51039.370,-115902.445,8067.796,8846.213,8742.347,20281.397,-0.021,0.996,-0.114,0.885,-0.427,1.465,73.333,397.000,1.000
4978.006,8320.034,-51094.975,-116105.081,8075.663,8853.486,8747.835,20226.136,-0.020,0.994,-0.112,0.732,-0.549,1.373,73.333,398.000,1.000
5006.875,8324.726,-51150.462,-116306.162,8081.959,8857.109,8746.975,20167.131,-0.020,0.990,-0.114,0.641,-0.549,1.312,73.333,399.000,1.000
5034.968,8328.336,-51205.360,-116505.256,8087.044,8857.178,8741.294,20104.850,-0.018,0.988,-0.115,0.397,-0.488,1.343,73.333,400.000,1.000
5063.148,8331.670,-51259.074,-116701.472,8091.718,8855.265,8734.337,20041.071,-0.019,0.988,-0.115,0.397,-0.488,1.343,73.333,401.000,1.000
5091.922,8335.313,-51311.209,-116894.016,8096.708,8853.379,8729.252,19977.812,-0.019,0.986,-0.111,0.336,-0.427,1.526,73.333,402.000,1.000
5121.077,8339.396,-51361.780,-117082.759,8102.343,8853.282,8727.965,19916.548,-0.017,0.984,-0.109,0.336,-0.458,1.556,73.333,403.000,1.000
5149.657,8343.366,-51411.315,-117268.457,8108.333,8855.681,8730.651,19857.386,-0.017,0.982,-0.109,0.366,-0.488,1.709,73.333,404.000,1.000
5176.454,8346.122,-51460.755,-117452.417,8113.634,8859.441,8735.128,19798.845,-0.019,0.979,-0.111,0.427,-0.519,1.709,73.333,405.000,1.000
5200.820,8346.820,-51510.992,-117635.739,8116.949,8862.465,8738.068,19738.968,-0.020,0.978,-0.113,0.519,-0.427,1.709,73.333,406.000,1.000
5223.498,8345.881,-51561.842,-117818.195,8118.156,8863.890,8737.735,19677.199,-0.020,0.977,-0.114,0.610,-0.458,1.678,73.333,407.000,1.000
5246.276,8344.986,-51611.839,-117998.043,8118.712,8864.722,8735.311,19614.938,-0.021,0.976,-0.109,0.793,-0.427,1.617,73.333,408.000,1.000
5270.544,8345.545,-51659.515,-118173.409,8120.270,8866.249,8732.933,19553.877,-0.021,0.977,-0.112,0.854,-0.458,1.587,73.333,409.000,1.000
5296.503,8347.804,-51704.348,-118343.513,8123.565,8868.932,8731.852,19494.683,-0.022,0.973,-0.111,1.038,-0.519,1.587,73.333,410.000,1.000
5323.581,8351.341,-51746.463,-118508.586,8128.641,8872.541,8732.720,19437.453,-0.021,0.972,-0.109,1.190,-0.549,1.526,73.333,411.000,1.000
5351.040,8355.467,-51786.182,-118669.407,8135.217,8876.350,8735.732,19382.128,-0.020,0.973,-0.110,1.282,-0.549,1.495,73.333,412.000,1.000
5377.910,8359.186,-51824.262,-118827.412,8142.333,8879.333,8740.166,19327.905,-0.020,0.974,-0.112,1.404,-0.549,1.343,73.333,413.000,1.000
5403.099,8361.417,-51861.836,-118984.424,8148.515,8880.749,8744.206,19273.191,-0.021,0.975,-0.110,1.556,-0.519,1.343,73.333,414.000,1.000
5426.215,8361.890,-51899.585,-119141.499,8152.923,8880.750,8746.079,19216.780,-0.023,0.979,-0.112,1.709,-0.458,1.465,73.333,415.000,1.000
5447.877,8361.439,-51937.384,-119298.259,8155.885,8880.226,8745.506,19158.501,-0.023,0.979,-0.111,1.709,-0.641,1.587,73.333,416.000,1.000
5469.105,8361.079,-51974.837,-119453.512,8158.281,8880.005,8743.497,19098.643,-0.020,0.978,-0.110,1.770,-0.671,1.465,73.333,417.000,1.000
5490.499,8361.117,-52011.910,-119606.453,8160.514,8880.148,8741.107,19037.358,-0.021,0.978,-0.109,1.740,-0.671,1.434,73.333,418.000,1.000
5512.022,8361.081,-52048.911,-119757.053,8162.285,8879.975,8738.502,18974.750,-0.021,0.980,-0.113,1.862,-0.702,1.434,73.333,419.000,1.000
5533.510,8360.527,-52085.847,-119905.392,8163.375,8879.036,8735.570,18911.307,-0.022,0.981,-0.112,1.801,-0.732,1.404,73.333,420.000,1.000
5555.068,8359.535,-52122.162,-120051.195,8164.195,8877.722,8732.893,18847.840,-0.023,0.981,-0.111,1.831,-0.702,1.556,73.333,421.000,1.000
5577.075,8358.456,-52156.944,-120193.934,8165.688,8876.861,8731.381,18785.194,-0.023,0.980,-0.112,1.770,-0.671,1.556,73.333,422.000,1.000
5599.958,8357.738,-52189.270,-120333.125,8168.735,8877.069,8731.462,18724.152,-0.024,0.981,-0.113,1.740,-0.671,1.678,73.333,423.000,1.000
5623.742,8357.531,-52218.815,-120468.710,8173.345,8878.216,8732.345,18664.740,-0.023,0.981,-0.113,1.709,-0.702,1.678,73.333,424.000,1.000
5647.789,8357.467,-52246.133,-120601.070,8178.454,8879.341,8732.276,18605.859,-0.021,0.982,-0.113,1.740,-0.610,1.740,73.333,425.000,1.000
5671.137,8357.090,-52272.193,-120730.472,8182.726,8878.983,8729.948,18546.338,-0.023,0.983,-0.115,1.678,-0.763,1.740,73.333,426.000,1.000
5692.988,8356.140,-52297.941,-120856.936,8185.370,8875.900,8725.279,18485.903,-0.022,0.982,-0.114,1.740,-0.793,1.770,73.333,427.000,1.000
5712.872,8354.544,-52324.268,-120980.687,8186.073,8869.958,8719.116,18424.703,-0.022,0.982,-0.116,1.709,-0.763,1.923,73.333,428.000,1.000
5730.880,8352.394,-52351.665,-121102.133,8184.852,8862.202,8712.416,18362.769,-0.022,0.985,-0.114,1.648,-0.793,2.045,73.333,429.000,1.000
5747.770,8350.044,-52379.747,-121221.419,8182.251,8854.308,8706.291,18300.577,-0.022,0.988,-0.112,1.678,-0.793,2.075,73.333,430.000,1.000
5764.573,8347.976,-52407.519,-121338.363,8179.171,8847.995,8702.269,18239.333,-0.021,0.990,-0.113,1.495,-0.763,2.228,73.333,431.000,1.000
5782.131,8346.355,-52434.021,-121452.714,8176.292,8844.202,8700.943,18179.734,-0.021,0.993,-0.118,1.282,-0.793,2.258,73.333,432.000,1.000
5801.015,8345.141,-52458.609,-121564.316,8173.764,8842.667,8700.939,18120.781,-0.023,0.991,-0.114,1.099,-0.824,2.319,73.333,433.000,1.000
5821.715,8344.477,-52480.787,-121672.989,8171.680,8842.538,8699.889,18060.589,-0.022,0.985,-0.117,0.885,-0.824,2.319,73.333,434.000,1.000
5844.149,8344.382,-52500.602,-121778.843,8170.107,8842.939,8695.923,17997.838,-0.023,0.983,-0.117,0.732,-0.824,2.472,73.333,435.000,1.000
5866.723,8343.832,-52519.453,-121882.994,8168.247,8842.567,8687.890,17931.929,-0.024,0.982,-0.114,0.793,-0.885,2.594,73.333,436.000,1.000
5886.983,8340.977,-52539.462,-121987.050,8164.644,8839.718,8675.262,17862.989,-0.022,0.983,-0.115,0.854,-1.007,2.655,73.333,437.000,1.000
5903.474,8334.904,-52561.637,-122091.523,8158.691,8833.565,8659.288,17792.481,-0.021,0.983,-0.117,0.854,-0.946,2.686,73.333,438.000,1.000
5916.813,8326.648,-52584.880,-122194.950,8151.619,8825.050,8643.313,17723.068,-0.019,0.985,-0.112,0.854,-1.038,2.716,73.333,439.000,1.000
5929.507,8318.764,-52606.478,-122294.557,8145.973,8816.552,8631.087,17657.337,-0.019,0.990,-0.115,0.885,-1.160,2.686,73.333,440.000,1.000
5944.461,8313.815,-52623.875,-122388.120,8143.874,8810.544,8624.545,17596.247,-0.020,0.993,-0.114,0.732,-1.007,2.747,73.333,441.000,1.000
5962.925,8312.495,-52636.549,-122475.554,8145.515,8807.950,8622.880,17538.627,-0.015,0.993,-0.114,0.580,-0.946,2.838,73.333,442.000,1.000
5983.789,8313.302,-52646.223,-122558.670,8149.226,8807.744,8623.878,17482.378,-0.015,0.992,-0.114,0.366,-0.885,2.899,73.333,443.000,1.000
6004.826,8313.737,-52655.387,-122639.687,8152.790,8807.867,8625.343,17425.926,-0.014,0.992,-0.114,0.183,-0.885,2.960,73.333,444.000,1.000
6024.065,8311.663,-52665.907,-122720.309,8154.401,8806.058,8625.275,17368.429,-0.010,0.991,-0.117,0.214,-0.702,2.899,73.333,445.000,1.000
6040.237,8305.989,-52678.673,-122801.618,8152.770,8800.326,8621.808,17309.133,-0.009,0.989,-0.114,0.061,-0.763,2.869,73.333,446.000,1.000
6053.063,8296.925,-52693.492,-122883.809,8147.520,8790.093,8613.998,17247.414,-0.011,0.987,-0.115,-0.031,-0.458,2.899,73.333,447.000,1.000
6063.680,8286.220,-52708.934,-122965.829,8139.759,8777.223,8603.023,17183.648,-0.015,0.990,-0.114,-0.061,-0.305,2.777,73.333,448.000,1.000
6074.242,8276.347,-52722.928,-123045.797,8131.660,8764.889,8591.428,17119.227,-0.018,0.990,-0.114,-0.061,-0.305,2.625,73.333,449.000,1.000
6086.634,8269.074,-52733.866,-123121.908,8125.218,8755.480,8581.338,17055.636,-0.018,0.987,-0.116,-0.244,-0.244,2.472,73.333,450.000,1.000
6101.684,8264.962,-52741.046,-123192.836,8121.523,8749.889,8574.049,16994.038,-0.018,0.984,-0.116,-0.397,-0.427,2.380,73.333,451.000,1.000
6119.206,8263.571,-52744.585,-123257.971,8120.768,8747.779,8570.055,16935.219,-0.016,0.982,-0.117,-0.366,-0.366,2.197,73.333,452.000,1.000
6137.839,8263.413,-52745.815,-123318.220,8121.830,8747.264,8568.245,16878.606,-0.014,0.980,-0.116,-0.336,-0.336,2.075,73.333,453.000,1.000
6155.522,8262.152,-52747.065,-123375.927,8122.389,8745.064,8565.515,16821.714,-0.013,0.982,-0.116,-0.244,-0.183,1.801,73.333,454.000,1.000
6171.291,8258.305,-52749.765,-123433.039,8120.758,8738.946,8559.097,16762.134,-0.011,0.983,-0.116,-0.183,-0.122,1.678,73.333,455.000,1.000
6185.937,8252.321,-52753.349,-123489.953,8117.136,8729.590,8548.967,16699.624,-0.011,0.982,-0.116,-0.153,-0.153,1.556,73.333,456.000,1.000
6200.654,8245.389,-52756.415,-123546.231,8112.699,8719.191,8537.088,16635.714,-0.011,0.981,-0.113,-0.153,-0.031,1.556,73.333,457.000,1.000
6215.923,8238.256,-52758.106,-123601.469,8108.237,8709.374,8525.688,16572.158,-0.011,0.981,-0.114,-0.153,0.061,1.495,73.333,458.000,1.000
6231.642,8231.094,-52758.299,-123655.391,8103.821,8700.577,8515.916,16509.654,-0.010,0.979,-0.115,-0.122,0.214,1.434,73.333,459.000,1.000
6247.551,8223.903,-52757.232,-123707.730,8099.192,8692.529,8507.410,16447.598,-0.010,0.979,-0.113,-0.153,0.305,1.465,73.333,460.000,1.000
6263.208,8216.716,-52755.349,-123758.257,8094.118,8684.924,8499.109,16384.847,-0.011,0.981,-0.115,-0.122,0.397,1.465,73.333,461.000,1.000
6278.231,8209.668,-52752.999,-123806.595,8088.748,8677.795,8490.277,16320.794,-0.013,0.980,-0.117,0.000,0.427,1.404,73.333,462.000,1.000
6293.055,8203.487,-52749.783,-123851.803,8083.944,8671.616,8481.351,16256.254,-0.012,0.978,-0.117,0.061,0.519,1.465,73.333,463.000,1.000
6308.662,8199.044,-52744.826,-123892.760,8080.822,8666.839,8473.617,16193.110,-0.012,0.979,-0.113,0.122,0.580,1.526,73.333,464.000,1.000
6325.031,8195.990,-52738.104,-123929.401,8079.508,8663.192,8468.210,16132.746,-0.013,0.981,-0.113,0.336,0.641,1.526,73.333,465.000,1.000
6340.685,8192.532,-52730.865,-123963.108,8078.632,8659.429,8465.208,16074.771,-0.015,0.984,-0.110,0.366,0.641,1.526,73.333,466.000,1.000
6354.050,8186.702,-52724.511,-123995.677,8076.199,8653.810,8462.506,16016.951,-0.017,0.981,-0.110,0.305,0.671,1.556,73.333,467.000,1.000
6364.731,8177.923,-52719.368,-124028.062,8070.888,8645.295,8456.662,15956.608,-0.016,0.981,-0.111,0.366,0.702,1.556,73.333,468.000,1.000
6373.578,8167.241,-52714.524,-124059.918,8062.874,8634.344,8445.700,15892.539,-0.016,0.981,-0.113,0.366,0.702,1.648,73.333,469.000,1.000
6381.816,8156.162,-52708.827,-124090.246,8053.335,8622.244,8430.455,15825.579,-0.015,0.982,-0.114,0.336,0.610,1.709,73.333,470.000,1.000
6390.276,8145.575,-52701.809,-124118.275,8043.322,8609.918,8413.268,15757.517,-0.015,0.981,-0.116,0.427,0.610,1.709,73.333,471.000,1.000
6399.500,8135.725,-52693.505,-124143.610,8033.525,8597.815,8396.329,15690.026,-0.016,0.983,-0.112,0.580,0.610,1.648,73.333,472.000,1.000
6409.834,8126.724,-52683.973,-124166.069,8024.477,8586.478,8381.458,15624.400,-0.017,0.985,-0.113,0.610,0.641,1.770,73.333,473.000,1.000
6420.986,8118.401,-52673.454,-124185.891,8016.311,8576.271,8369.608,15561.226,-0.017,0.983,-0.112,0.641,0.549,1.770,73.333,474.000,1.000
6431.964,8110.092,-52662.585,-124203.928,8008.452,8566.815,8359.984,15499.900,-0.018,0.983,-0.114,0.580,0.488,1.709,73.333,475.000,1.000
6441.763,8100.992,-52652.044,-124221.251,7999.988,8557.283,8350.638,15438.955,-0.020,0.984,-0.112,0.702,0.397,1.740,73.333,476.000,1.000
6450.167,8090.771,-52641.863,-124238.400,7990.630,8547.394,8340.464,15377.433,-0.019,0.984,-0.115,0.641,0.458,1.709,73.333,477.000,1.000
6457.977,8080.221,-52631.083,-124254.821,7981.227,8538.080,8330.576,15315.885,-0.018,0.981,-0.114,0.671,0.397,1.740,73.333,478.000,1.000
6466.399,8070.708,-52618.411,-124269.100,7973.016,8530.524,8322.445,15255.379,-0.014,0.981,-0.114,0.793,0.275,1.770,73.333,479.000,1.000
6475.862,8062.596,-52603.512,-124280.116,7966.181,8524.406,8315.163,15195.762,-0.016,0.979,-0.115,0.977,0.244,1.770,73.333,480.000,1.000
6485.644,8054.765,-52587.348,-124287.821,7959.610,8517.774,8306.097,15135.720,-0.016,0.979,-0.117,0.977,0.275,1.648,73.333,481.000,1.000
6494.899,8045.945,-52570.946,-124292.626,7952.329,8508.886,8293.713,15074.441,-0.017,0.979,-0.115,1.068,0.244,1.709,73.333,482.000,1.000
6503.595,8036.138,-52554.282,-124294.576,7944.548,8497.825,8279.193,15012.511,-0.019,0.979,-0.113,1.129,0.122,1.862,73.333,483.000,1.000
6512.323,8026.340,-52536.484,-124293.482,7937.250,8486.326,8265.431,14951.287,-0.018,0.980,-0.113,1.099,0.061,1.862,73.333,484.000,1.000
6521.521,8017.416,-52516.797,-124289.542,7931.052,8476.218,8254.800,14891.608,-0.017,0.981,-0.115,1.190,-0.031,1.831,73.333,485.000,1.000
6531.078,8009.325,-52495.352,-124283.664,7925.349,8467.580,8247.130,14832.595,-0.017,0.981,-0.117,1.251,-0.061,1.862,73.333,486.000,1.000
6540.755,8001.248,-52472.908,-124276.887,7918.800,8458.609,8239.603,14772.033,-0.015,0.981,-0.118,1.251,-0.153,1.740,73.333,487.000,1.000
6550.316,7992.214,-52450.324,-124269.787,7910.279,8447.358,8229.157,14708.271,-0.014,0.980,-0.117,1.221,-0.183,1.556,73.333,488.000,1.000
6559.194,7981.295,-52428.480,-124262.603,7899.199,8432.889,8214.375,14641.219,-0.016,0.981,-0.116,1.251,-0.183,1.678,73.333,489.000,1.000
6567.197,7968.500,-52407.486,-124254.958,7886.114,8415.905,8196.199,14572.398,-0.017,0.983,-0.114,1.343,-0.275,1.740,73.333,490.000,1.000
6575.346,7955.619,-52385.865,-124245.370,7873.187,8399.049,8177.802,14504.666,-0.019,0.984,-0.115,1.282,-0.305,1.740,73.333,491.000,1.000
6584.956,7944.687,-52361.725,-124232.097,7862.722,8384.969,8162.180,14440.545,-0.018,0.984,-0.116,1.251,-0.305,1.770,73.333,492.000,1.000
6596.073,7935.783,-52334.798,-124214.732,7854.902,8373.710,8149.791,14380.181,-0.017,0.983,-0.116,1.251,-0.427,1.831,73.333,493.000,1.000
6607.524,7927.098,-52306.556,-124194.374,7847.924,8363.063,8139.066,14321.676,-0.016,0.982,-0.115,1.190,-0.427,1.801,73.333,494.000,1.000
6618.135,7916.968,-52278.560,-124172.327,7840.098,8351.276,8128.943,14263.389,-0.017,0.984,-0.114,1.160,-0.397,1.770,73.333,495.000,1.000
6627.396,7905.096,-52251.380,-124149.078,7830.996,8338.166,8119.567,14204.926,-0.016,0.984,-0.115,1.129,-0.427,1.740,73.333,496.000,1.000
6635.319,7891.963,-52224.781,-124124.452,7820.856,8323.870,8110.124,14145.743,-0.015,0.983,-0.115,1.038,-0.610,1.648,73.333,497.000,1.000
6641.968,7878.076,-52198.430,-124098.420,7809.672,8308.062,8098.099,14084.126,-0.016,0.984,-0.115,1.007,-0.641,1.801,73.333,498.000,1.000
6647.502,7863.922,-52172.027,-124071.191,7797.410,8290.743,8081.586,14018.636,-0.017,0.982,-0.117,0.977,-0.732,1.831,73.333,499.000,1.000
6652.754,7850.411,-52144.736,-124042.432,7784.912,8273.243,8061.742,13950.265,-0.016,0.981,-0.119,1.007,-0.916,1.862,73.333,500.000,1.000
6659.118,7838.746,-52115.185,-124011.118,7773.789,8257.923,8042.534,13882.315,-0.018,0.981,-0.117,0.946,-1.038,1.770,73.333,501.000,1.000
6667.455,7829.380,-52082.532,-123976.591,7765.100,8246.544,8027.678,13817.820,-0.019,0.983,-0.118,0.824,-1.099,1.801,73.333,502.000,1.000
6677.183,7821.391,-52047.370,-123939.440,7758.197,8238.669,8017.797,13757.208,-0.017,0.981,-0.113,0.824,-1.251,1.740,73.333,503.000,1.000
6686.871,7813.074,-52011.185,-123900.702,7751.318,8231.735,8010.155,13698.590,-0.016,0.981,-0.113,0.824,-1.160,1.801,73.333,504.000,1.000
6695.431,7803.212,-51975.179,-123860.593,7743.096,8222.838,8001.076,13639.822,-0.018,0.984,-0.113,0.763,-1.251,1.678,73.333,505.000,1.000
6702.309,7791.656,-51939.960,-123818.644,7733.137,8210.497,7988.579,13579.845,-0.016,0.983,-0.114,0.641,-1.251,1.678,73.333,506.000,1.000
6707.383,7779.136,-51905.571,-123774.448,7721.972,8195.475,7973.165,13518.890,-0.016,0.984,-0.114,0.610,-1.251,1.709,73.333,507.000,1.000
6711.084,7766.802,-51871.546,-123728.077,7710.618,8180.112,7957.050,13457.750,-0.013,0.981,-0.115,0.580,-1.312,1.678,73.333,508.000,1.000
6714.029,7755.129,-51837.499,-123680.268,7699.598,8166.053,7941.970,13396.458,-0.013,0.981,-0.112,0.610,-1.373,1.587,73.333,509.000,1.000
6716.595,7743.508,-51803.413,-123632.043,7688.516,8152.886,7927.684,13334.062,-0.015,0.982,-0.115,0.549,-1.404,1.526,73.333,510.000,1.000
6719.134,7731.187,-51769.191,-123583.750,7676.794,8139.376,7913.037,13269.852,-0.015,0.982,-0.117,0.519,-1.312,1.587,73.333,511.000,1.000
6722.221,7718.153,-51734.252,-123534.522,7664.685,8125.454,7898.024,13204.699,-0.014,0.984,-0.115,0.519,-1.312,1.526,73.333,512.000,1.000
6726.241,7705.143,-51697.858,-123482.805,7653.238,8112.485,7884.561,13141.138,-0.014,0.984,-0.114,0.366,-1.343,1.587,73.333,513.000,1.000
6730.867,7692.702,-51659.843,-123427.638,7643.115,8101.269,7874.189,13081.324,-0.014,0.984,-0.112,0.305,-1.373,1.556,73.333,514.000,1.000
6734.933,7680.244,-51621.083,-123369.714,7633.331,8090.212,7864.995,13024.291,-0.012,0.983,-0.115,0.244,-1.312,1.648,73.333,515.000,1.000
6737.135,7666.486,-51582.918,-123310.901,7621.707,8076.485,7852.409,12966.033,-0.010,0.982,-0.116,0.244,-1.129,1.495,73.333,516.000,1.000
6737.469,7651.067,-51545.618,-123252.212,7607.177,8059.101,7833.581,12903.243,-0.011,0.981,-0.118,0.336,-1.190,1.617,73.333,517.000,1.000
6737.564,7635.281,-51507.873,-123192.786,7591.005,8039.928,7810.281,12836.477,-0.010,0.981,-0.118,0.336,-1.068,1.587,73.333,518.000,1.000
6739.432,7620.952,-51467.858,-123130.842,7575.729,8021.912,7787.195,12769.319,-0.010,0.979,-0.116,0.366,-0.946,1.678,73.333,519.000,1.000
6744.085,7609.195,-51424.517,-123065.109,7563.373,8007.258,7768.379,12705.238,-0.012,0.980,-0.115,0.427,-0.977,1.740,73.333,520.000,1.000
6750.536,7599.554,-51378.542,-122995.832,7553.985,7996.212,7754.946,12645.213,-0.011,0.981,-0.116,0.488,-0.946,1.617,73.333,521.000,1.000
6755.995,7589.827,-51332.306,-122924.738,7545.513,7986.519,7744.807,12587.640,-0.009,0.978,-0.114,0.519,-0.916,1.617,73.333,522.000,1.000
6757.943,7577.680,-51288.060,-122853.632,7535.446,7974.922,7734.718,12530.070,-0.010,0.981,-0.115,0.519,-0.916,1.556,73.333,523.000,1.000
6756.249,7562.514,-51246.044,-122782.915,7522.728,7959.729,7722.496,12470.910,-0.011,0.983,-0.116,0.549,-0.885,1.556,73.333,524.000,1.000
6753.028,7545.583,-51204.657,-122711.705,7507.953,7941.757,7707.656,12409.792,-0.011,0.981,-0.115,0.519,-0.732,1.556,73.333,525.000,1.000
6750.820,7528.665,-51162.105,-122638.954,7492.214,7923.030,7690.835,12347.062,-0.012,0.984,-0.117,0.610,-0.671,1.465,73.333,526.000,1.000
6751.247,7512.938,-51117.344,-122563.815,7476.514,7905.176,7673.014,12283.580,-0.012,0.984,-0.115,0.610,-0.580,1.465,73.333,527.000,1.000
6754.562,7498.823,-51070.110,-122485.652,7461.696,7888.997,7655.294,12220.510,-0.011,0.983,-0.119,0.671,-0.580,1.312,73.333,528.000,1.000
6759.941,7486.168,-51020.701,-122404.206,7448.338,7874.667,7638.565,12158.741,-0.011,0.984,-0.115,0.610,-0.580,1.343,73.333,529.000,1.000
6766.267,7474.553,-50969.695,-122319.520,7436.662,7861.895,7623.191,12098.648,-0.011,0.985,-0.113,0.671,-0.488,1.251,73.333,530.000,1.000
6772.350,7463.216,-50918.117,-122232.147,7426.194,7849.778,7609.013,12039.942,-0.010,0.985,-0.112,0.549,-0.397,1.312,73.333,531.000,1.000
6776.957,7451.061,-50867.296,-122143.287,7415.940,7837.247,7595.800,11981.958,-0.011,0.988,-0.114,0.458,-0.366,1.343,73.333,532.000,1.000
6779.475,7437.695,-50817.769,-122053.913,7405.404,7824.329,7584.203,11924.706,-0.012,0.988,-0.113,0.397,-0.397,1.251,73.333,533.000,1.000
6780.092,7423.491,-50769.054,-121964.266,7394.532,7811.626,7574.410,11868.362,-0.014,0.988,-0.113,0.336,-0.305,1.282,73.333,534.000,1.000
6778.721,7408.082,-50721.098,-121874.827,7382.255,7797.916,7563.703,11811.234,-0.014,0.988,-0.112,0.153,-0.336,1.312,73.333,535.000,1.000
6775.060,7390.504,-50674.401,-121786.277,7366.988,7780.513,7548.349,11750.596,-0.014,0.985,-0.114,-0.031,-0.366,1.404,73.333,536.000,1.000
6770.352,7371.234,-50628.183,-121697.831,7349.077,7758.593,7527.632,11685.829,-0.014,0.985,-0.112,0.031,-0.305,1.434,73.333,537.000,1.000
6767.081,7352.293,-50580.427,-121607.431,7330.633,7734.131,7503.648,11618.495,-0.015,0.982,-0.112,0.000,-0.244,1.526,73.333,538.000,1.000
6766.689,7335.177,-50529.810,-121513.643,7313.400,7710.144,7478.741,11550.482,-0.013,0.981,-0.111,0.031,-0.275,1.495,73.333,539.000,1.000
6768.794,7320.164,-50476.293,-121416.267,7298.251,7689.589,7455.663,11483.954,-0.014,0.979,-0.113,0.031,-0.183,1.648,73.333,540.000,1.000
6772.019,7306.843,-50420.573,-121315.869,7285.359,7674.215,7437.281,11421.036,-0.012,0.982,-0.115,0.061,-0.122,1.587,73.333,541.000,1.000
6774.896,7294.117,-50363.768,-121213.463,7273.799,7662.863,7423.357,11361.862,-0.010,0.983,-0.112,0.122,-0.214,1.495,73.333,542.000,1.000
6776.036,7280.121,-50307.418,-121110.464,7261.439,7651.549,7409.689,11303.813,-0.009,0.983,-0.114,0.183,-0.153,1.587,73.333,543.000,1.000
6774.404,7263.127,-50252.889,-121008.101,7246.285,7636.292,7391.868,11243.570,-0.010,0.982,-0.113,0.214,-0.092,1.709,73.333,544.000,1.000
6770.640,7243.600,-50199.751,-120905.986,7228.713,7616.723,7369.668,11180.363,-0.010,0.983,-0.118,0.275,-0.031,1.709,73.333,545.000,1.000
6767.316,7224.558,-50145.498,-120801.892,7211.692,7596.571,7347.244,11116.717,-0.012,0.982,-0.115,0.336,-0.031,1.801,73.333,546.000,1.000
6766.828,7208.845,-50087.778,-120693.721,7198.116,7580.118,7329.014,11055.718,-0.014,0.982,-0.113,0.427,-0.092,1.831,73.333,547.000,1.000
6769.392,7196.679,-50026.539,-120581.393,7188.158,7568.365,7316.133,10998.192,-0.015,0.982,-0.112,0.519,-0.061,1.770,73.333,548.000,1.000
6773.142,7185.778,-49963.907,-120466.739,7179.348,7558.465,7306.226,10942.477,-0.014,0.984,-0.114,0.488,-0.092,1.740,73.333,549.000,1.000
6775.772,7173.490,-49902.331,-120351.859,7168.853,7546.583,7295.805,10886.319,-0.013,0.982,-0.117,0.488,-0.061,1.678,73.333,550.000,1.000
6776.209,7158.886,-49842.693,-120237.463,7155.682,7530.989,7282.979,10828.878,-0.012,0.981,-0.116,0.641,-0.092,1.678,73.333,551.000,1.000
6774.977,7142.960,-49783.908,-120122.572,7141.004,7512.572,7267.921,10770.979,-0.011,0.981,-0.117,0.671,-0.153,1.678,73.333,552.000,1.000
6773.029,7127.204,-49724.331,-120005.873,7126.471,7493.267,7251.543,10713.432,-0.009,0.981,-0.116,0.702,-0.092,1.770,73.333,553.000,1.000
6770.836,7112.278,-49663.157,-119886.875,7112.764,7474.648,7234.422,10655.781,-0.010,0.981,-0.115,0.885,-0.092,1.740,73.333,554.000,1.000
6768.784,7098.147,-49600.279,-119765.644,7099.830,7457.695,7217.135,10597.300,-0.009,0.979,-0.113,1.038,0.031,1.740,73.333,555.000,1.000
6767.482,7084.541,-49535.863,-119642.408,7087.378,7442.510,7200.494,10538.216,-0.009,0.977,-0.113,1.190,0.031,1.862,73.333,556.000,1.000
6767.231,7070.822,-49470.491,-119517.755,7074.862,7428.006,7184.898,10479.336,-0.008,0.975,-0.115,1.221,-0.031,1.953,73.333,557.000,1.000
6767.624,7056.317,-49405.029,-119392.496,7061.693,7412.889,7170.436,10421.207,-0.008,0.973,-0.119,1.373,0.183,1.923,73.333,558.000,1.000
6767.954,7040.849,-49340.047,-119266.968,7047.705,7396.680,7156.754,10363.751,-0.009,0.974,-0.119,1.495,0.244,1.953,73.333,559.000,1.000
6767.770,7024.756,-49275.491,-119140.781,7033.081,7379.461,7142.389,10306.165,-0.009,0.976,-0.118,1.587,0.305,1.953,73.333,560.000,1.000
6766.858,7008.407,-49210.961,-119013.359,7017.909,7361.254,7125.350,10247.246,-0.010,0.979,-0.117,1.831,0.366,2.045,73.333,561.000,1.000
6765.132,6991.761,-49146.046,-118884.434,7002.175,7342.067,7104.674,10186.284,-0.012,0.983,-0.118,1.984,0.336,1.984,73.333,562.000,1.000
6762.751,6974.688,-49080.459,-118753.997,6986.034,7322.340,7081.649,10123.828,-0.011,0.985,-0.119,2.075,0.244,1.953,73.333,563.000,1.000
6760.066,6957.330,-49014.072,-118622.007,6969.901,7302.936,7059.163,10061.510,-0.009,0.986,-0.118,2.014,0.275,1.831,73.333,564.000,1.000
6757.385,6940.107,-48946.818,-118488.262,6954.287,7284.646,7039.689,10001.056,-0.010,0.988,-0.118,1.984,0.275,1.953,73.333,565.000,1.000
6754.658,6923.309,-48878.840,-118352.734,6939.288,7267.461,7023.482,9943.013,-0.012,0.988,-0.117,1.923,0.122,1.984,73.333,566.000,1.000
6751.423,6906.634,-48810.660,-118215.810,6924.362,7250.433,7008.437,9886.397,-0.013,0.989,-0.116,1.862,0.061,1.892,73.333,567.000,1.000
6747.443,6889.800,-48742.557,-118077.734,6909.112,7232.908,6992.469,9830.034,-0.014,0.990,-0.115,1.709,0.000,1.892,73.333,568.000,1.000
6743.222,6873.135,-48674.008,-117938.201,6893.934,7215.459,6975.410,9773.666,-0.017,0.990,-0.116,1.587,-0.183,1.953,73.333,569.000,1.000
6739.467,6857.064,-48604.309,-117796.970,6879.339,7199.071,6958.236,9717.322,-0.019,0.992,-0.113,1.495,-0.366,1.801,73.333,570.000,1.000
6736.359,6841.456,-48533.378,-117654.338,6865.046,7183.861,6941.496,9660.514,-0.019,0.994,-0.110,1.373,-0.336,1.678,73.333,571.000,1.000
6733.663,6825.798,-48461.593,-117510.717,6850.273,7168.985,6924.815,9602.664,-0.018,0.994,-0.114,1.129,-0.488,1.495,73.333,572.000,1.000
6730.907,6809.607,-48389.518,-117366.398,6834.308,7153.313,6907.485,9543.659,-0.017,0.994,-0.115,0.916,-0.763,1.404,73.333,573.000,1.000
6727.329,6792.327,-48317.942,-117221.720,6816.757,7135.827,6888.955,9483.754,-0.018,0.994,-0.114,0.702,-0.854,1.312,73.333,574.000,1.000
6722.481,6773.726,-48247.301,-117076.648,6798.077,7116.290,6869.461,9423.762,-0.017,0.994,-0.114,0.458,-0.977,1.251,73.333,575.000,1.000
6716.709,6754.348,-48177.226,-116930.548,6779.613,7095.745,6850.044,9364.858,-0.014,0.993,-0.114,0.244,-1.129,1.343,73.333,576.000,1.000
6710.530,6734.827,-48107.186,-116782.937,6762.451,7075.525,6831.209,9307.467,-0.012,0.992,-0.116,0.000,-1.282,1.312,73.333,577.000,1.000
6704.179,6715.478,-48036.952,-116633.886,6746.593,7055.958,6812.412,9250.941,-0.013,0.990,-0.115,-0.275,-1.312,1.282,73.333,578.000,1.000
6698.172,6696.723,-47966.156,-116483.439,6731.451,7036.549,6792.698,9194.181,-0.011,0.988,-0.116,-0.427,-1.312,1.434,73.333,579.000,1.000
6693.255,6679.070,-47894.235,-116331.458,6716.432,7017.064,6771.522,9136.134,-0.011,0.986,-0.119,-0.580,-1.404,1.434,73.333,580.000,1.000
6689.353,6662.270,-47821.167,-116178.217,6700.780,6997.680,6749.223,9076.127,-0.011,0.984,-0.115,-0.549,-1.526,1.373,73.333,581.000,1.000
6685.516,6645.200,-47747.550,-116024.269,6683.729,6978.417,6726.548,9014.288,-0.010,0.983,-0.115,-0.488,-1.587,1.373,73.333,582.000,1.000
6681.078,6627.112,-47673.747,-115869.578,6665.238,6959.166,6704.443,8951.862,-0.008,0.983,-0.115,-0.519,-1.587,1.282,73.333,583.000,1.000
6676.480,6608.463,-47599.268,-115713.200,6646.478,6940.093,6684.265,8891.045,-0.007,0.984,-0.115,-0.549,-1.495,1.282,73.333,584.000,1.000
6672.822,6590.465,-47523.110,-115554.036,6629.179,6921.729,6667.068,8833.747,-0.009,0.984,-0.112,-0.549,-1.495,1.251,73.333,585.000,1.000
6670.515,6573.770,-47444.943,-115391.981,6613.994,6904.248,6652.001,8779.683,-0.006,0.984,-0.111,-0.732,-1.465,1.221,73.333,586.000,1.000
6668.710,6557.639,-47365.702,-115228.098,6599.791,6886.758,6636.214,8726.150,-0.008,0.984,-0.108,-0.702,-1.465,1.282,73.333,587.000,1.000
6666.168,6540.763,-47286.794,-115063.683,6584.742,6868.140,6617.411,8670.303,-0.008,0.984,-0.107,-0.732,-1.495,1.251,73.333,588.000,1.000
6662.335,6522.476,-47208.948,-114899.270,6567.904,6848.466,6595.751,8611.415,-0.009,0.982,-0.109,-0.702,-1.434,1.373,73.333,589.000,1.000
6657.348,6502.994,-47131.983,-114734.505,6549.587,6828.792,6573.154,8550.977,-0.010,0.981,-0.111,-0.641,-1.404,1.312,73.333,590.000,1.000
6651.394,6482.808,-47055.410,-114568.796,6530.535,6809.646,6551.459,8491.017,-0.010,0.984,-0.113,-0.732,-1.434,1.190,73.333,591.000,1.000
6644.840,6462.379,-46978.605,-114401.591,6511.472,6790.710,6531.369,8432.729,-0.012,0.981,-0.112,-0.732,-1.495,1.312,73.333,592.000,1.000
6638.582,6442.368,-46900.729,-114232.327,6493.065,6771.796,6512.718,8376.188,-0.010,0.980,-0.112,-0.671,-1.465,1.251,73.333,593.000,1.000
6633.561,6423.325,-46821.134,-114060.771,6475.550,6752.945,6494.760,8320.610,-0.010,0.980,-0.113,-0.610,-1.434,1.190,73.333,594.000,1.000
6629.862,6405.166,-46739.937,-113887.536,6458.367,6733.743,6476.343,8264.869,-0.009,0.979,-0.115,-0.610,-1.312,1.068,73.333,595.000,1.000
6626.448,6387.228,-46658.036,-113713.917,6440.482,6713.288,6456.383,8208.042,-0.008,0.977,-0.116,-0.519,-1.251,1.038,73.333,596.000,1.000
6622.222,6369.115,-46576.132,-113540.656,6421.644,6691.266,6434.609,8150.146,-0.007,0.976,-0.114,-0.305,-1.068,0.854,73.333,597.000,1.000
6617.006,6351.215,-46494.064,-113367.263,6402.849,6668.627,6412.055,8092.203,-0.006,0.978,-0.111,-0.244,-1.007,0.854,73.333,598.000,1.000
6611.228,6333.836,-46411.430,-113192.838,6385.147,6646.631,6390.118,8034.954,-0.007,0.978,-0.113,-0.122,-1.068,1.007,73.333,599.000,1.000
6605.521,6316.847,-46327.961,-113016.727,6368.823,6626.000,6369.621,7978.274,-0.008,0.976,-0.115,-0.061,-0.916,0.977,73.333,600.000,1.000
6600.657,6300.344,-46243.301,-112838.412,6353.790,6607.174,6350.885,7921.906,-0.009,0.977,-0.114,0.031,-0.793,1.099,73.333,601.000,1.000
6596.898,6284.453,-46157.367,-112657.750,6339.784,6590.236,6333.521,7865.745,-0.010,0.977,-0.115,0.153,-0.732,0.977,73.333,602.000,1.000
6593.133,6268.534,-46071.099,-112475.557,6325.939,6574.266,6316.325,7809.464,-0.010,0.977,-0.117,0.275,-0.824,0.977,73.333,603.000,1.000
6587.385,6251.314,-45986.035,-112293.223,6311.110,6557.624,6298.104,7752.802,-0.010,0.977,-0.116,0.336,-0.671,1.007,73.333,604.000,1.000
6578.476,6232.081,-45902.920,-112111.565,6294.906,6539.276,6278.933,7696.273,-0.008,0.977,-0.116,0.488,-0.610,1.068,73.333,605.000,1.000
6566.974,6211.307,-45821.145,-111930.280,6277.796,6519.248,6259.978,7640.746,-0.008,0.979,-0.116,0.671,-0.641,1.160,73.333,606.000,1.000
6554.907,6190.288,-45739.156,-111748.105,6260.551,6498.261,6241.877,7586.531,-0.008,0.981,-0.117,0.824,-0.519,1.129,73.333,607.000,1.000
6544.609,6170.602,-45655.233,-111563.525,6243.805,6477.575,6224.183,7533.270,-0.007,0.981,-0.115,0.824,-0.488,1.160,73.333,608.000,1.000
6537.179,6152.963,-45568.629,-111375.910,6227.539,6458.193,6205.894,7480.177,-0.008,0.980,-0.116,0.885,-0.458,1.190,73.333,609.000,1.000
6531.873,6136.456,-45480.129,-111185.993,6210.855,6439.832,6186.295,7426.437,-0.009,0.982,-0.116,0.793,-0.427,1.251,73.333,610.000,1.000
6526.985,6119.331,-45391.329,-110995.195,6192.588,6421.254,6165.706,7371.772,-0.013,0.985,-0.117,0.702,-0.427,1.160,73.333,611.000,1.000
6521.094,6100.352,-45303.468,-110804.660,6172.187,6401.403,6144.915,7316.333,-0.014,0.985,-0.117,0.763,-0.488,1.251,73.333,612.000,1.000
6513.487,6079.344,-45216.972,-110614.861,6149.897,6379.898,6123.905,7259.999,-0.014,0.985,-0.112,0.763,-0.427,1.160,73.333,613.000,1.000
6504.153,6056.807,-45131.612,-110425.510,6126.553,6356.880,6101.514,7202.359,-0.012,0.984,-0.112,0.610,-0.458,1.282,73.333,614.000,1.000
6493.762,6033.646,-45046.671,-110235.671,6103.400,6333.044,6076.857,7143.527,-0.013,0.981,-0.115,0.641,-0.519,1.221,73.333,615.000,1.000
6483.336,6011.073,-44961.197,-110044.369,6081.673,6309.667,6050.917,7084.546,-0.013,0.980,-0.116,0.641,-0.519,1.251,73.333,616.000,1.000
6473.860,5990.200,-44874.219,-109851.082,6062.240,6288.128,6026.317,7027.094,-0.011,0.984,-0.117,0.580,-0.580,1.282,73.333,617.000,1.000
6465.979,5971.633,-44784.958,-109655.647,6045.388,6269.120,6005.695,6972.731,-0.010,0.987,-0.118,0.610,-0.641,1.434,73.333,618.000,1.000
6459.783,5955.152,-44693.189,-109458.088,6030.660,6252.173,5989.650,6921.655,-0.010,0.990,-0.117,0.549,-0.549,1.282,73.333,619.000,1.000
6454.846,5939.824,-44599.455,-109258.649,6016.951,6236.014,5976.134,6872.167,-0.009,0.991,-0.117,0.366,-0.519,1.465,73.333,620.000,1.000
6450.372,5924.441,-44504.914,-109057.817,6002.933,6219.330,5962.111,6821.811,-0.007,0.991,-0.113,0.244,-0.610,1.495,73.333,621.000,1.000
6445.551,5907.988,-44410.758,-108856.153,5987.695,6201.376,5945.561,6769.076,-0.006,0.988,-0.115,0.092,-0.549,1.556,73.333,622.000,1.000
6439.878,5890.077,-44317.637,-108654.112,5970.950,6182.156,5926.196,6713.946,-0.004,0.985,-0.119,0.031,-0.488,1.678,73.333,623.000,1.000
6433.143,5870.837,-44225.558,-108451.924,5952.773,6161.881,5904.554,6657.325,-0.003,0.985,-0.121,0.000,-0.397,1.770,73.333,624.000,1.000
6425.448,5850.695,-44133.969,-108249.383,5933.502,6140.591,5881.168,6600.362,-0.005,0.987,-0.117,0.061,-0.366,1.740,73.333,625.000,1.000
6417.399,5830.429,-44041.909,-108045.766,5913.892,6118.624,5856.987,6544.108,-0.009,0.987,-0.116,0.061,-0.336,1.617,73.333,626.000,1.000
6409.932,5810.939,-43948.441,-107840.259,5895.034,6097.017,5833.661,6489.406,-0.010,0.986,-0.115,-0.031,-0.244,1.617,73.333,627.000,1.000
6403.581,5792.751,-43853.279,-107632.723,5877.697,6076.922,5812.892,6436.632,-0.014,0.985,-0.116,-0.092,-0.183,1.556,73.333,628.000,1.000
6398.227,5775.751,-43756.833,-107423.712,5861.914,6058.662,5795.206,6385.507,-0.015,0.983,-0.118,-0.092,-0.305,1.343,73.333,629.000,1.000
6393.248,5759.181,-43659.960,-107214.022,5846.870,6041.278,5778.911,6334.985,-0.016,0.981,-0.115,-0.214,-0.427,1.312,73.333,630.000,1.000
6387.428,5741.641,-43564.022,-107004.659,5830.868,6022.783,5760.483,6283.111,-0.014,0.979,-0.115,-0.183,-0.549,1.221,73.333,631.000,1.000
6379.741,5722.016,-43470.004,-106796.135,5812.616,6001.706,5737.373,6228.357,-0.014,0.979,-0.113,-0.092,-0.641,0.977,73.333,632.000,1.000
6370.367,5700.786,-43377.364,-106587.609,5792.617,5978.564,5710.745,6171.473,-0.014,0.979,-0.116,0.061,-0.671,0.946,73.333,633.000,1.000
6360.188,5679.350,-43284.692,-106377.744,5772.320,5955.030,5684.084,6114.536,-0.013,0.979,-0.113,0.092,-0.732,0.824,73.333,634.000,1.000
6350.006,5658.701,-43190.939,-106165.961,5752.607,5932.447,5660.042,6058.720,-0.013,0.979,-0.115,0.244,-0.793,0.854,73.333,635.000,1.000
6340.721,5639.349,-43095.494,-105952.266,5733.742,5911.580,5639.434,6004.084,-0.013,0.981,-0.114,0.275,-0.885,0.824,73.333,636.000,1.000
6333.351,5621.430,-42997.958,-105736.611,5715.903,5892.576,5621.602,5950.543,-0.011,0.982,-0.116,0.305,-0.854,0.793,73.333,637.000,1.000
6328.248,5604.560,-42898.425,-105519.040,5699.054,5874.751,5605.131,5898.160,-0.011,0.982,-0.118,0.305,-0.977,0.854,73.333,638.000,1.000
6324.512,5587.782,-42797.802,-105300.198,5682.627,5856.796,5588.462,5846.769,-0.012,0.983,-0.115,0.214,-1.099,0.885,73.333,639.000,1.000
6320.361,5570.048,-42697.507,-105081.233,5665.757,5837.569,5570.456,5795.875,-0.012,0.983,-0.115,0.275,-1.068,0.946,73.333,640.000,1.000
6314.154,5550.908,-42598.682,-104863.077,5647.861,5816.798,5550.876,5744.903,-0.012,0.982,-0.114,0.336,-1.160,1.007,73.333,641.000,1.000
6305.165,5530.548,-42501.675,-104645.940,5628.894,5794.947,5529.979,5693.227,-0.013,0.984,-0.116,0.275,-1.190,1.129,73.333,642.000,1.000
6293.636,5509.381,-42406.138,-104429.441,5609.004,5772.460,5507.938,5640.189,-0.011,0.985,-0.115,0.305,-1.190,1.068,73.333,643.000,1.000
6280.662,5487.784,-42311.165,-104212.733,5588.433,5749.480,5484.845,5585.683,-0.011,0.987,-0.113,0.275,-1.312,1.190,73.333,644.000,1.000
6267.859,5466.182,-42215.448,-103994.619,5567.724,5726.222,5461.197,5530.606,-0.012,0.987,-0.113,0.244,-1.373,1.160,73.333,645.000,1.000
6256.345,5444.923,-42118.013,-103774.187,5547.392,5703.053,5437.874,5476.023,-0.009,0.985,-0.113,0.244,-1.282,1.221,73.333,646.000,1.000
6246.191,5424.125,-42018.707,-103551.215,5527.648,5680.363,5415.467,5422.308,-0.011,0.983,-0.112,0.183,-1.251,1.251,73.333,647.000,1.000
6237.010,5404.069,-41917.806,-103325.880,5508.662,5658.650,5394.089,5369.478,-0.012,0.984,-0.115,0.153,-1.190,1.282,73.333,648.000,1.000
6228.660,5385.262,-41815.513,-103098.394,5490.746,5638.336,5373.461,5317.594,-0.011,0.983,-0.114,0.031,-1.312,1.251,73.333,649.000,1.000
6221.095,5367.886,-41712.020,-102869.064,5474.081,5619.360,5353.257,5266.693,-0.011,0.980,-0.116,0.092,-1.282,1.404,73.333,650.000,1.000
6213.807,5351.280,-41607.874,-102638.600,5458.307,5600.926,5333.523,5216.706,-0.011,0.980,-0.113,0.153,-1.343,1.373,73.333,651.000,1.000
6206.198,5334.296,-41503.788,-102407.882,5442.695,5581.909,5314.415,5167.543,-0.009,0.979,-0.116,0.183,-1.343,1.404,73.333,652.000,1.000
6198.302,5316.385,-41400.080,-102177.404,5426.650,5561.949,5295.971,5119.067,-0.010,0.979,-0.116,0.275,-1.282,1.495,73.333,653.000,1.000
6190.608,5297.863,-41296.602,-101947.161,5409.975,5541.860,5278.142,5070.740,-0.010,0.981,-0.116,0.244,-1.404,1.495,73.333,654.000,1.000
6183.481,5279.431,-41192.972,-101716.830,5392.891,5522.925,5260.979,5021.701,-0.009,0.981,-0.113,0.366,-1.404,1.465,73.333,655.000,1.000
6176.798,5261.521,-41088.959,-101486.044,5375.656,5505.741,5244.382,4971.289,-0.009,0.982,-0.115,0.366,-1.312,1.465,73.333,656.000,1.000
6169.734,5243.587,-40984.963,-101254.824,5357.983,5489.317,5227.117,4919.169,-0.009,0.979,-0.119,0.397,-1.312,1.556,73.333,657.000,1.000
6160.912,5224.190,-40882.084,-101023.836,5338.862,5471.314,5206.977,4865.058,-0.009,0.981,-0.118,0.427,-1.282,1.404,73.333,658.000,1.000
6149.420,5202.215,-40781.224,-100793.736,5317.432,5449.730,5182.503,4809.063,-0.007,0.981,-0.119,0.519,-1.160,1.495,73.333,659.000,1.000
6135.899,5178.260,-40681.856,-100564.114,5294.200,5424.727,5154.732,4752.547,-0.008,0.980,-0.117,0.580,-1.160,1.465,73.333,660.000,1.000
6122.199,5154.379,-40582.211,-100333.675,5270.812,5398.489,5126.864,4697.646,-0.007,0.980,-0.117,0.671,-1.160,1.495,73.333,661.000,1.000
6110.052,5132.440,-40480.681,-100101.353,5248.686,5373.339,5101.770,4645.485,-0.007,0.981,-0.117,0.732,-1.068,1.312,73.333,662.000,1.000
6099.986,5112.989,-40376.931,-99867.061,5228.044,5350.300,5080.215,4595.302,-0.009,0.981,-0.118,0.732,-1.007,1.282,73.333,663.000,1.000
6091.274,5095.236,-40271.838,-99631.467,5208.241,5329.098,5061.158,4545.564,-0.007,0.981,-0.117,0.824,-0.977,1.343,73.333,664.000,1.000
6082.923,5078.027,-40166.345,-99395.020,5188.895,5309.153,5043.326,4495.805,-0.008,0.982,-0.117,0.824,-0.946,1.312,73.333,665.000,1.000
6074.313,5060.476,-40060.827,-99157.650,5169.977,5289.843,5025.692,4446.438,-0.008,0.981,-0.116,0.854,-0.916,1.312,73.333,666.000,1.000
6065.019,5041.746,-39955.441,-98919.375,5151.034,5270.018,5006.645,4397.097,-0.009,0.981,-0.115,0.824,-0.946,1.373,73.333,667.000,1.000
6054.722,5021.371,-39850.246,-98680.513,5131.359,5248.663,4984.875,4346.704,-0.009,0.979,-0.117,0.885,-0.885,1.404,73.333,668.000,1.000
6043.494,4999.829,-39744.935,-98441.140,5110.985,5226.085,4960.969,4294.939,-0.008,0.981,-0.116,0.854,-0.977,1.343,73.333,669.000,1.000
6031.967,4978.497,-39638.840,-98200.690,5091.002,5203.905,4937.184,4242.876,-0.010,0.982,-0.116,0.885,-0.824,1.251,73.333,670.000,1.000
6020.947,4958.760,-39531.459,-97958.415,5072.653,5183.689,4915.767,4192.143,-0.008,0.983,-0.116,0.885,-0.885,1.099,73.333,671.000,1.000
6010.703,4940.831,-39423.040,-97714.330,5056.135,5165.520,4897.215,4143.480,-0.010,0.984,-0.116,0.916,-0.824,1.160,73.333,672.000,1.000
6000.688,4923.526,-39314.562,-97469.542,5040.225,5147.967,4880.089,4096.067,-0.011,0.983,-0.117,0.885,-0.854,0.977,73.333,673.000,1.000
5990.025,4905.081,-39207.063,-97225.510,5023.097,5129.274,4862.140,4048.074,-0.012,0.983,-0.116,0.763,-0.763,0.977,73.333,674.000,1.000
5978.325,4884.513,-39100.767,-96982.840,5003.657,5108.631,4841.847,3997.993,-0.010,0.985,-0.116,0.793,-0.885,1.068,73.333,675.000,1.000
5966.052,4862.396,-38994.835,-96740.792,4982.219,5086.476,4819.456,3945.807,-0.011,0.985,-0.117,0.824,-0.885,0.977,73.333,676.000,1.000
5954.222,4840.226,-38887.964,-96497.848,4960.124,5063.814,4796.442,3893.040,-0.011,0.986,-0.117,0.732,-0.824,0.977,73.333,677.000,1.000
5943.631,4819.274,-38779.300,-96252.818,4938.694,5041.431,4774.141,3841.571,-0.011,0.984,-0.117,0.610,-0.854,0.916,73.333,678.000,1.000
5934.089,4799.641,-38669.182,-96005.676,4918.358,5019.263,4752.742,3792.242,-0.014,0.983,-0.114,0.519,-0.854,0.793,73.333,679.000,1.000
5924.356,4780.203,-38559.102,-95757.508,4898.567,4996.443,4731.366,3744.463,-0.011,0.984,-0.117,0.519,-0.946,0.793,73.333,680.000,1.000
5913.071,4759.691,-38450.635,-95509.619,4878.431,4972.361,4709.086,3696.948,-0.013,0.983,-0.119,0.519,-1.038,0.763,73.333,681.000,1.000
5899.999,4737.849,-38344.099,-95262.464,4857.689,4947.747,4685.970,3648.855,-0.014,0.984,-0.118,0.488,-1.068,0.854,73.333,682.000,1.000
5886.191,4715.570,-38238.347,-95015.412,4836.988,4924.391,4663.345,3600.293,-0.015,0.982,-0.117,0.458,-1.190,0.793,73.333,683.000,1.000
5873.061,4693.956,-38131.772,-94767.421,4817.216,4903.661,4642.537,3551.799,-0.014,0.983,-0.114,0.397,-1.221,0.916,73.333,684.000,1.000
5861.573,4673.576,-38023.295,-94517.752,4798.815,4885.614,4623.656,3503.825,-0.014,0.983,-0.112,0.366,-1.282,1.007,73.333,685.000,1.000
5851.810,4654.388,-37912.751,-94266.322,4781.506,4869.274,4605.720,3456.561,-0.014,0.983,-0.114,0.397,-1.282,0.946,73.333,686.000,1.000
5843.027,4635.886,-37800.756,-94013.597,4764.501,4853.167,4587.212,3409.723,-0.014,0.983,-0.117,0.305,-1.312,1.007,73.333,687.000,1.000
5834.097,4617.416,-37688.344,-93760.297,4746.864,4835.804,4566.953,3362.583,-0.011,0.981,-0.117,0.305,-1.312,1.129,73.333,688.000,1.000
5823.994,4598.367,-37576.558,-93507.119,4727.863,4816.230,4544.761,3314.385,-0.011,0.982,-0.117,0.427,-1.312,1.068,73.333,689.000,1.000
5812.111,4578.314,-37465.974,-93254.439,4707.252,4794.390,4521.363,3264.880,-0.010,0.980,-0.115,0.366,-1.373,1.099,73.333,690.000,1.000
5798.242,4557.024,-37356.609,-93002.238,4685.219,4770.820,4497.772,3214.471,-0.009,0.982,-0.115,0.366,-1.343,1.099,73.333,691.000,1.000
5782.764,4534.634,-37247.848,-92749.896,4662.476,4746.396,4474.833,3164.191,-0.010,0.984,-0.116,0.336,-1.312,1.099,73.333,692.000,1.000
5767.098,4512.266,-37138.240,-92495.938,4640.455,4722.589,4453.445,3115.430,-0.010,0.985,-0.115,0.336,-1.404,1.343,73.333,693.000,1.000
5753.091,4491.410,-37026.303,-92238.964,4620.483,4700.785,4434.087,3068.773,-0.012,0.985,-0.115,0.275,-1.465,1.373,73.333,694.000,1.000
5741.367,4472.359,-36912.024,-91979.236,4602.413,4680.778,4415.947,3023.298,-0.013,0.985,-0.116,0.336,-1.434,1.373,73.333,695.000,1.000
5730.786,4453.915,-36797.032,-91718.702,4584.561,4660.549,4397.003,2977.285,-0.011,0.984,-0.115,0.153,-1.404,1.434,73.333,696.000,1.000
5719.844,4434.651,-36683.096,-91459.252,4565.182,4637.958,4375.006,2929.385,-0.010,0.986,-0.114,0.092,-1.373,1.434,73.333,697.000,1.000
5708.159,4414.244,-36570.622,-91201.224,4543.943,4612.807,4349.516,2879.693,-0.011,0.985,-0.117,0.031,-1.434,1.526,73.333,698.000,1.000
5696.492,4393.497,-36458.595,-90943.467,4522.119,4587.015,4322.761,2830.018,-0.010,0.985,-0.115,0.061,-1.343,1.556,73.333,699.000,1.000
5685.677,4373.366,-36345.779,-90684.670,4501.316,4562.722,4297.558,2782.337,-0.011,0.983,-0.116,-0.061,-1.434,1.587,73.333,700.000,1.000
5675.620,4354.073,-36231.943,-90424.603,4482.048,4540.620,4274.957,2736.766,-0.008,0.984,-0.116,-0.122,-1.343,1.556,73.333,701.000,1.000
5665.388,4335.069,-36117.802,-90163.998,4463.811,4520.248,4254.502,2691.806,-0.010,0.983,-0.115,0.000,-1.282,1.495,73.333,702.000,1.000
5654.071,4315.825,-36004.067,-89903.574,4445.958,4501.052,4235.909,2646.300,-0.009,0.987,-0.115,-0.061,-1.251,1.495,73.333,703.000,1.000
5641.580,4296.263,-35890.860,-89643.387,4427.986,4482.520,4218.768,2600.011,-0.009,0.984,-0.118,-0.153,-1.221,1.404,73.333,704.000,1.000
5628.828,4276.685,-35777.753,-89382.874,4409.451,4463.917,4201.350,2552.846,-0.008,0.983,-0.118,-0.153,-1.160,1.495,73.333,705.000,1.000
5616.895,4257.354,-35664.314,-89121.480,4390.037,4444.506,4181.570,2504.639,-0.010,0.984,-0.116,-0.092,-1.190,1.343,73.333,706.000,1.000
5606.020,4238.060,-35550.549,-88859.176,4369.784,4423.923,4158.947,2455.627,-0.009,0.983,-0.113,-0.244,-1.007,1.099,73.333,707.000,1.000
5595.567,4218.333,-35436.757,-88596.349,4349.068,4402.219,4135.013,2406.652,-0.007,0.982,-0.114,-0.244,-0.977,1.129,73.333,708.000,1.000
5584.824,4197.852,-35323.085,-88333.248,4328.402,4379.623,4111.865,2358.765,-0.007,0.983,-0.114,-0.153,-0.916,1.038,73.333,709.000,1.000
5573.677,4176.744,-35209.237,-88069.646,4308.245,4356.438,4090.626,2312.541,-0.007,0.982,-0.117,-0.122,-0.824,1.068,73.333,710.000,1.000
5562.474,4155.474,-35094.770,-87805.166,4288.651,4332.856,4070.693,2267.321,-0.006,0.980,-0.116,-0.092,-0.793,1.007,73.333,711.000,1.000
5551.669,4134.518,-34979.449,-87539.625,4269.293,4309.032,4050.111,2221.511,-0.008,0.981,-0.116,-0.031,-0.641,0.916,73.333,712.000,1.000
5541.569,4114.359,-34863.229,-87272.956,4249.959,4285.555,4027.355,2174.094,-0.011,0.982,-0.115,0.031,-0.702,0.916,73.333,713.000,1.000
5532.048,4095.263,-34746.225,-87005.191,4230.723,4263.255,4002.585,2125.425,-0.013,0.984,-0.116,0.031,-0.671,0.916,73.333,714.000,1.000
5522.668,4077.128,-34628.656,-86736.468,4211.767,4242.719,3977.470,2076.702,-0.011,0.986,-0.116,0.061,-0.641,0.977,73.333,715.000,1.000
5512.969,4059.578,-34510.812,-86466.986,4193.170,4224.163,3954.208,2029.113,-0.012,0.988,-0.117,-0.031,-0.549,0.916,73.333,716.000,1.000
5502.364,4041.839,-34393.242,-86197.160,4174.690,4207.066,3933.955,1983.183,-0.011,0.986,-0.115,0.031,-0.549,0.824,73.333,717.000,1.000
5490.252,4023.031,-34276.585,-85927.565,4155.848,4190.038,3916.137,1938.646,-0.012,0.984,-0.116,-0.061,-0.671,0.885,73.333,718.000,1.000
5476.737,4002.963,-34160.840,-85658.288,4136.526,4171.708,3899.189,1894.944,-0.012,0.984,-0.117,-0.092,-0.732,0.824,73.333,719.000,1.000
5462.585,3982.211,-34045.344,-85388.827,4117.014,4151.614,3881.689,1851.595,-0.012,0.983,-0.115,-0.061,-0.732,0.732,73.333,720.000,1.000
5448.183,3961.183,-33929.770,-85118.952,4097.283,4130.106,3863.115,1808.045,-0.010,0.984,-0.116,-0.031,-0.732,0.793,73.333,721.000,1.000
5433.360,3939.853,-33814.326,-84848.930,4077.065,4108.033,3843.823,1763.879,-0.012,0.986,-0.112,-0.031,-0.702,0.854,73.333,722.000,1.000
5417.961,3918.332,-33699.152,-84579.017,4056.360,4086.285,3824.096,1718.985,-0.010,0.982,-0.111,-0.153,-0.702,0.885,73.333,723.000,1.000
5401.953,3896.668,-33584.239,-84309.289,4035.230,4064.749,3803.025,1673.143,-0.011,0.982,-0.111,-0.153,-0.763,0.977,73.333,724.000,1.000
5385.530,3874.723,-33469.395,-84039.507,4013.760,4042.351,3779.412,1626.317,-0.012,0.980,-0.115,-0.183,-0.610,1.038,73.333,725.000,1.000
5369.456,3852.890,-33353.915,-83768.839,3992.586,4018.734,3754.007,1579.454,-0.014,0.980,-0.115,-0.092,-0.641,0.916,73.333,726.000,1.000
5354.869,3832.208,-33236.790,-83496.185,3972.862,3995.062,3729.506,1534.138,-0.012,0.984,-0.116,0.092,-0.702,1.038,73.333,727.000,1.000
5342.190,3813.279,-33117.772,-83221.313,3955.063,3972.559,3707.992,1491.093,-0.011,0.985,-0.116,0.061,-0.763,1.068,73.333,728.000,1.000
5330.560,3795.409,-32997.879,-82945.412,3938.204,3951.073,3688.898,1449.245,-0.012,0.985,-0.113,0.061,-0.793,1.190,73.333,729.000,1.000
5318.975,3777.524,-32878.226,-82669.969,3920.860,3929.894,3669.999,1406.575,-0.009,0.988,-0.113,0.000,-0.702,1.190,73.333,730.000,1.000
5307.458,3759.431,-32758.802,-82395.360,3902.558,3909.027,3649.904,1361.853,-0.011,0.988,-0.115,-0.122,-0.732,1.251,73.333,731.000,1.000
5296.632,3741.544,-32638.823,-82120.867,3883.880,3888.797,3628.865,1315.504,-0.011,0.986,-0.114,-0.153,-0.732,1.190,73.333,732.000,1.000
5286.576,3723.975,-32517.983,-81845.770,3865.413,3868.823,3607.877,1268.931,-0.013,0.983,-0.115,-0.305,-0.793,1.282,73.333,733.000,1.000
5276.579,3706.275,-32396.893,-81570.004,3847.017,3848.123,3587.384,1223.058,-0.011,0.982,-0.116,-0.336,-0.854,1.282,73.333,734.000,1.000
5265.790,3687.923,-32276.470,-81293.949,3828.076,3826.163,3566.876,1177.691,-0.014,0.982,-0.113,-0.275,-0.763,1.282,73.333,735.000,1.000
5253.686,3668.585,-32157.357,-81018.043,3808.025,3803.247,3545.461,1132.118,-0.012,0.982,-0.112,-0.183,-0.885,1.251,73.333,736.000,1.000
5240.330,3648.179,-32039.525,-80742.324,3786.824,3780.269,3522.443,1086.002,-0.011,0.986,-0.115,-0.122,-0.854,1.251,73.333,737.000,1.000
5226.303,3627.081,-31922.233,-80466.298,3765.003,3758.323,3497.919,1039.654,-0.011,0.985,-0.116,-0.061,-0.916,1.312,73.333,738.000,1.000
5212.001,3605.645,-31804.837,-80189.591,3743.056,3737.778,3472.778,993.566,-0.009,0.986,-0.113,-0.153,-0.854,1.373,73.333,739.000,1.000
5197.375,3583.876,-31687.252,-79912.305,3721.147,3717.835,3448.155,948.249,-0.009,0.986,-0.115,-0.214,-0.916,1.373,73.333,740.000,1.000
5182.517,3561.884,-31569.484,-79634.557,3699.497,3697.253,3425.001,904.389,-0.010,0.984,-0.116,-0.275,-1.007,1.373,73.333,741.000,1.000
5168.063,3540.148,-31451.206,-79356.122,3678.628,3675.409,3403.855,862.518,-0.007,0.979,-0.117,-0.244,-1.007,1.373,73.333,742.000,1.000
5154.833,3519.409,-31331.891,-79076.593,3659.157,3652.996,3385.126,822.571,-0.005,0.976,-0.116,-0.244,-0.793,1.465,73.333,743.000,1.000
5143.100,3500.120,-31211.320,-78795.743,3641.412,3631.508,3368.969,783.908,-0.006,0.973,-0.117,-0.092,-0.702,1.434,73.333,744.000,1.000
5132.184,3481.910,-31089.923,-78513.861,3625.047,3611.955,3354.666,745.705,-0.006,0.974,-0.116,0.031,-0.580,1.465,73.333,745.000,1.000
5120.896,3463.878,-30968.496,-78231.675,3609.030,3594.156,3340.498,707.181,-0.004,0.976,-0.118,0.183,-0.549,1.495,73.333,746.000,1.000
5108.600,3445.397,-30847.454,-77949.809,3592.213,3576.813,3324.138,667.492,-0.006,0.979,-0.116,0.336,-0.427,1.526,73.333,747.000,1.000
5095.435,3426.364,-30726.770,-77668.582,3573.759,3557.946,3303.780,625.818,-0.007,0.983,-0.118,0.458,-0.305,1.617,73.333,748.000,1.000
5081.560,3406.660,-30606.538,-77388.173,3553.308,3535.916,3279.393,581.922,-0.008,0.988,-0.113,0.397,-0.244,1.617,73.333,749.000,1.000
5067.029,3386.277,-30486.818,-77108.373,3531.414,3510.924,3253.036,536.799,-0.005,0.988,-0.115,0.275,-0.244,1.556,73.333,750.000,1.000
5052.206,3365.730,-30367.270,-76828.426,3509.395,3485.107,3227.679,492.310,-0.006,0.990,-0.116,0.153,-0.214,1.617,73.333,751.000,1.000
5037.586,3345.470,-30247.553,-76547.618,3488.262,3460.743,3205.185,449.798,-0.007,0.989,-0.117,0.061,-0.244,1.556,73.333,752.000,1.000
5023.292,3325.407,-30127.696,-76265.820,3468.067,3438.901,3185.615,409.236,-0.009,0.989,-0.114,-0.092,-0.183,1.465,73.333,753.000,1.000
5009.186,3305.358,-30007.788,-75983.282,3448.422,3419.605,3167.940,369.586,-0.011,0.990,-0.114,-0.122,-0.183,1.404,73.333,754.000,1.000
4995.190,3285.424,-29887.723,-75700.315,3429.077,3402.114,3150.741,329.695,-0.014,0.990,-0.114,-0.305,-0.153,1.221,73.333,755.000,1.000
4981.132,3265.613,-29767.502,-75417.308,3409.781,3384.789,3132.757,288.991,-0.016,0.990,-0.114,-0.397,-0.305,1.007,73.333,756.000,1.000
4966.986,3245.873,-29646.990,-75134.259,3390.541,3366.080,3113.761,248.111,-0.017,0.990,-0.111,-0.519,-0.397,0.885,73.333,757.000,1.000
4953.266,3226.633,-29525.557,-74850.477,3371.841,3345.921,3094.786,208.440,-0.017,0.989,-0.110,-0.671,-0.580,0.702,73.333,758.000,1.000
4940.295,3208.029,-29402.957,-74565.678,3353.629,3324.927,3076.061,169.850,-0.017,0.986,-0.113,-0.793,-0.641,0.671,73.333,759.000,1.000
4927.497,3189.159,-29280.048,-74280.774,3334.738,3303.058,3055.833,129.848,-0.017,0.984,-0.117,-0.946,-0.793,0.427,73.333,760.000,1.000
4914.119,3169.067,-29157.874,-73996.839,3314.139,3280.142,3032.606,86.125,-0.017,0.981,-0.115,-0.977,-0.916,0.275,73.333,761.000,1.000
4900.323,3147.975,-29036.447,-73713.703,3292.303,3256.897,3007.102,39.083,-0.014,0.981,-0.113,-0.793,-1.068,0.244,73.333,762.000,1.000
4886.993,3127.125,-28914.894,-73430.146,3270.772,3234.661,2981.622,-8.622,-0.015,0.984,-0.113,-0.763,-1.190,0.183,73.333,763.000,1.000
4874.309,3107.231,-28792.860,-73145.429,3250.527,3214.037,2958.076,-54.340,-0.015,0.988,-0.109,-0.702,-1.251,0.153,73.333,764.000,1.000
4861.102,3087.622,-28671.175,-72860.064,3231.192,3194.274,2936.960,-96.933,-0.017,0.989,-0.108,-0.885,-1.312,0.397,73.333,765.000,1.000
4846.486,3067.672,-28550.362,-72574.487,3212.215,3174.696,2918.262,-136.367,-0.014,0.991,-0.109,-1.007,-1.434,0.427,73.333,766.000,1.000
4831.442,3048.068,-28429.339,-72287.913,3193.971,3155.831,2901.999,-172.963,-0.015,0.990,-0.111,-1.312,-1.465,0.366,73.333,767.000,1.000
4817.400,3029.529,-28306.913,-71999.695,3176.549,3137.943,2887.120,-207.952,-0.015,0.989,-0.109,-1.465,-1.617,0.458,73.333,768.000,1.000
4804.408,3011.394,-28183.442,-71710.611,3158.795,3119.805,2871.363,-243.464,-0.017,0.986,-0.109,-1.617,-1.740,0.610,73.333,769.000,1.000
4791.589,2992.489,-28060.125,-71421.981,3139.524,3099.975,2853.001,-281.060,-0.016,0.986,-0.108,-1.709,-1.862,0.732,73.333,770.000,1.000
4777.946,2972.140,-27937.967,-71134.694,3118.422,3077.964,2831.668,-321.202,-0.016,0.987,-0.108,-1.831,-1.831,0.824,73.333,771.000,1.000
4762.666,2950.152,-27817.459,-70849.018,3095.878,3054.001,2807.701,-363.733,-0.015,0.988,-0.107,-1.923,-1.892,0.793,73.333,772.000,1.000
4745.842,2927.123,-27698.147,-70564.344,3072.927,3028.933,2782.228,-407.692,-0.013,0.987,-0.107,-1.923,-2.045,0.824,73.333,773.000,1.000
4729.036,2904.705,-27578.471,-70279.028,3051.298,3004.430,2757.478,-450.967,-0.013,0.987,-0.106,-1.984,-2.045,0.824,73.333,774.000,1.000
4714.456,2884.756,-27456.595,-69991.176,3032.705,2982.475,2735.953,-491.085,-0.010,0.987,-0.104,-2.167,-2.136,0.916,73.333,775.000,1.000
4702.920,2867.617,-27332.096,-69700.275,3017.362,2963.848,2718.822,-527.078,-0.012,0.985,-0.108,-2.197,-2.197,0.885,73.333,776.000,1.000
4692.709,2851.275,-27206.794,-69408.034,3003.319,2947.195,2704.920,-560.566,-0.012,0.985,-0.111,-2.289,-2.167,0.916,73.333,777.000,1.000
4681.024,2833.075,-27083.250,-69116.994,2987.831,2930.298,2691.524,-594.535,-0.014,0.982,-0.110,-2.380,-2.228,0.977,73.333,778.000,1.000
4666.905,2812.396,-26962.117,-68828.014,2969.671,2912.142,2676.044,-630.919,-0.009,0.981,-0.112,-2.441,-2.167,0.946,73.333,779.000,1.000
4652.066,2791.119,-26841.478,-68539.643,2949.808,2893.200,2657.330,-669.529,-0.010,0.981,-0.110,-2.441,-2.136,0.763,73.333,780.000,1.000
4638.355,2771.195,-26719.317,-68250.387,2929.557,2873.654,2635.578,-709.527,-0.010,0.982,-0.109,-2.472,-2.075,0.793,73.333,781.000,1.000
4625.456,2752.451,-26595.846,-67960.710,2908.833,2852.248,2611.089,-751.069,-0.007,0.982,-0.109,-2.350,-1.953,0.854,73.333,782.000,1.000
4611.613,2733.299,-26472.903,-67672.235,2886.727,2827.652,2584.366,-794.557,-0.008,0.980,-0.108,-2.319,-1.953,0.946,73.333,783.000,1.000
4595.832,2712.756,-26351.663,-67385.579,2863.267,2800.453,2557.101,-839.072,-0.008,0.977,-0.111,-2.350,-1.923,1.007,73.333,784.000,1.000
4578.907,2691.441,-26231.360,-67099.499,2839.971,2773.258,2531.552,-882.745,-0.008,0.973,-0.111,-2.228,-1.801,1.038,73.333,785.000,1.000
4562.435,2670.764,-26110.190,-66812.085,2818.548,2748.892,2508.840,-924.444,-0.006,0.970,-0.113,-1.953,-1.709,1.038,73.333,786.000,1.000
4547.372,2651.517,-25986.909,-66522.267,2799.631,2728.598,2488.366,-964.283,-0.005,0.969,-0.114,-1.740,-1.709,1.099,73.333,787.000,1.000
4533.521,2633.417,-25861.532,-66230.288,2782.635,2711.598,2468.906,-1002.873,-0.007,0.969,-0.113,-1.556,-1.526,1.221,73.333,788.000,1.000
4519.794,2615.246,-25735.274,-65937.430,2766.178,2695.656,2449.559,-1040.861,-0.008,0.968,-0.116,-1.190,-1.526,1.190,73.333,789.000,1.000
4504.991,2595.606,-25609.810,-65645.235,2748.837,2678.423,2430.083,-1078.602,-0.008,0.970,-0.116,-0.885,-1.404,1.251,73.333,790.000,1.000
4488.873,2574.232,-25485.945,-65354.347,2730.226,2659.065,2411.222,-1115.665,-0.007,0.972,-0.115,-0.641,-1.343,1.251,73.333,791.000,1.000
4472.541,2552.315,-25362.908,-65063.949,2711.401,2638.629,2394.129,-1151.014,-0.007,0.973,-0.115,-0.397,-1.251,1.312,73.333,792.000,1.000
4457.540,2531.499,-25239.124,-64772.592,2693.819,2618.758,2379.099,-1184.074,-0.006,0.976,-0.114,-0.244,-1.221,1.312,73.333,793.000,1.000
4444.741,2512.790,-25113.467,-64479.402,2678.093,2600.299,2365.172,-1215.397,-0.008,0.975,-0.114,-0.061,-1.099,1.251,73.333,794.000,1.000
4433.818,2496.138,-24985.981,-64184.599,2663.673,2583.068,2350.985,-1246.224,-0.009,0.977,-0.114,0.153,-1.068,1.282,73.333,795.000,1.000
4423.126,2480.191,-24858.141,-63889.524,2648.902,2565.998,2335.168,-1278.166,-0.007,0.978,-0.113,0.305,-0.854,1.312,73.333,796.000,1.000
4410.583,2462.790,-24732.092,-63595.910,2631.742,2547.356,2316.101,-1312.986,-0.007,0.979,-0.112,0.519,-0.793,1.556,73.333,797.000,1.000
4395.138,2442.497,-24609.070,-63304.639,2611.143,2525.653,2292.915,-1351.559,-0.008,0.980,-0.113,0.549,-0.732,1.434,73.333,798.000,1.000
4377.367,2419.577,-24488.523,-63015.078,2587.822,2500.841,2266.882,-1392.880,-0.011,0.980,-0.111,0.702,-0.763,1.434,73.333,799.000,1.000
4359.226,2396.134,-24368.170,-62725.196,2564.165,2474.994,2241.294,-1434.149,-0.011,0.979,-0.110,0.793,-0.824,1.404,73.333,800.000,1.000
4343.023,2375.111,-24245.218,-62432.760,2542.957,2451.344,2219.205,-1472.602,-0.010,0.980,-0.109,0.854,-0.763,1.312,73.333,801.000,1.000
4329.670,2357.987,-24118.560,-62137.232,2525.320,2431.892,2200.898,-1507.933,-0.010,0.980,-0.109,0.824,-0.732,1.282,73.333,802.000,1.000
4317.955,2343.636,-23989.695,-61840.272,2510.051,2416.236,2184.523,-1542.080,-0.008,0.983,-0.111,0.763,-0.580,1.221,73.333,803.000,1.000
4305.887,2329.616,-23861.229,-61544.046,2495.170,2402.529,2168.505,-1576.674,-0.006,0.985,-0.112,0.854,-0.641,1.221,73.333,804.000,1.000
4292.354,2314.018,-23734.964,-61249.608,2479.434,2388.590,2152.055,-1611.848,-0.005,0.988,-0.111,0.824,-0.519,1.282,73.333,805.000,1.000
4277.222,2295.950,-23611.577,-60957.062,2462.151,2372.199,2134.080,-1647.635,-0.005,0.991,-0.112,0.824,-0.458,1.312,73.333,806.000,1.000
4260.758,2275.272,-23490.921,-60666.120,2442.844,2351.892,2113.251,-1684.875,-0.008,0.992,-0.110,0.702,-0.336,1.526,73.333,807.000,1.000
4243.577,2252.880,-23371.833,-60375.934,2421.842,2328.371,2089.840,-1723.887,-0.007,0.991,-0.112,0.519,-0.275,1.465,73.333,808.000,1.000
4226.647,2230.515,-23252.349,-60085.191,2400.519,2304.322,2066.086,-1763.568,-0.005,0.989,-0.113,0.397,-0.122,1.556,73.333,809.000,1.000
4210.902,2209.789,-23130.734,-59792.837,2380.516,2282.499,2044.393,-1802.253,-0.004,0.986,-0.113,0.397,-0.153,1.617,73.333,810.000,1.000
4196.777,2191.418,-23006.385,-59498.609,2362.806,2264.022,2025.927,-1838.678,-0.005,0.982,-0.111,0.427,-0.122,1.740,73.333,811.000,1.000
4184.204,2175.120,-22879.757,-59202.859,2347.480,2248.187,2010.397,-1872.274,-0.009,0.980,-0.112,0.488,-0.122,1.770,73.333,812.000,1.000
4172.810,2160.078,-22751.749,-58906.117,2333.939,2233.528,1996.417,-1903.460,-0.011,0.983,-0.109,0.641,-0.092,1.648,73.333,813.000,1.000
4161.945,2145.238,-22623.374,-58608.963,2321.072,2218.549,1981.844,-1933.852,-0.014,0.986,-0.107,0.580,-0.122,1.404,73.333,814.000,1.000
4150.787,2129.490,-22495.595,-58312.024,2307.545,2201.666,1964.630,-1965.394,-0.015,0.986,-0.108,0.519,-0.153,1.343,73.333,815.000,1.000
4138.723,2112.114,-22368.998,-58015.825,2292.305,2181.584,1944.253,-1999.100,-0.015,0.984,-0.111,0.488,-0.183,1.099,73.333,816.000,1.000
4125.868,2093.332,-22243.354,-57720.384,2275.266,2158.473,1922.152,-2034.568,-0.017,0.982,-0.114,0.458,-0.427,0.916,73.333,817.000,1.000
4113.013,2074.288,-22117.749,-57425.091,2257.409,2134.213,1900.719,-2070.362,-0.015,0.981,-0.108,0.488,-0.397,0.854,73.333,818.000,1.000
4100.816,2055.984,-21991.486,-57129.258,2239.882,2110.909,1881.649,-2105.043,-0.013,0.982,-0.112,0.488,-0.519,0.702,73.333,819.000,1.000
4089.109,2038.448,-21864.732,-56832.807,2223.085,2089.710,1865.096,-2138.141,-0.013,0.981,-0.110,0.549,-0.641,0.732,73.333,820.000,1.000
4077.001,2020.943,-21738.362,-56536.476,2206.406,2070.733,1849.826,-2170.477,-0.012,0.980,-0.112,0.671,-0.610,0.702,73.333,821.000,1.000
4063.728,2002.716,-21613.213,-56241.265,2188.797,2053.176,1833.542,-2203.623,-0.012,0.983,-0.111,0.671,-0.702,0.732,73.333,822.000,1.000
4049.279,1983.735,-21489.375,-55947.630,2169.739,2035.735,1814.153,-2238.773,-0.012,0.983,-0.111,0.732,-0.671,0.641,73.333,823.000,1.000
4034.156,1964.632,-21366.200,-55655.134,2149.762,2017.401,1791.566,-2275.904,-0.014,0.983,-0.110,0.854,-0.702,0.549,73.333,824.000,1.000
4018.952,1946.075,-21242.800,-55362.666,2130.077,1997.901,1767.999,-2313.631,-0.014,0.985,-0.112,0.946,-0.854,0.641,73.333,825.000,1.000
4004.210,1928.343,-21118.547,-55068.997,2111.679,1977.481,1746.287,-2349.882,-0.011,0.986,-0.112,0.824,-0.916,0.732,73.333,826.000,1.000
3990.357,1911.339,-20993.265,-54773.356,2094.805,1956.693,1727.659,-2383.175,-0.009,0.984,-0.110,0.763,-0.916,0.763,73.333,827.000,1.000
3977.251,1894.669,-20867.451,-54476.059,2078.683,1936.067,1710.969,-2413.884,-0.010,0.983,-0.112,0.732,-1.007,0.946,73.333,828.000,1.000
3963.732,1877.289,-20742.519,-54178.881,2061.416,1915.317,1693.214,-2444.686,-0.010,0.983,-0.112,0.885,-1.007,0.854,73.333,829.000,1.000
3948.296,1857.842,-20620.030,-53884.092,2040.964,1893.481,1671.343,-2478.984,-0.011,0.983,-0.109,0.793,-1.068,1.038,73.333,830.000,1.000
3930.548,1836.047,-20500.138,-53592.432,2017.106,1870.410,1645.164,-2517.766,-0.013,0.978,-0.113,0.702,-1.068,1.038,73.333,831.000,1.000
3911.825,1813.334,-20380.999,-53302.134,1992.311,1847.622,1618.291,-2558.086,-0.012,0.970,-0.115,0.671,-1.129,1.129,73.333,832.000,1.000
3894.137,1791.818,-20260.086,-53010.357,1969.983,1827.136,1595.568,-2595.315,-0.012,0.973,-0.115,1.190,-1.038,1.221,73.333,833.000,1.000
3878.572,1772.647,-20136.067,-52715.474,1951.914,1809.684,1579.323,-2626.769,-0.013,0.984,-0.114,1.678,-1.068,1.221,73.333,834.000,1.000
3864.741,1755.451,-20009.439,-52417.961,1937.433,1794.247,1567.843,-2653.234,-0.014,0.991,-0.111,1.587,-1.251,1.343,73.333,835.000,1.000
3851.261,1738.904,-19881.938,-52119.724,1924.205,1778.863,1556.873,-2678.014,-0.015,0.989,-0.110,1.373,-1.373,1.434,73.333,836.000,1.000
3836.799,1721.655,-19755.324,-51822.677,1909.834,1761.813,1542.543,-2704.647,-0.015,0.992,-0.107,1.190,-1.404,1.404,73.333,837.000,1.000
3820.851,1703.148,-19630.396,-51527.637,1893.220,1742.484,1523.699,-2734.845,-0.013,0.991,-0.109,1.068,-1.526,1.434,73.333,838.000,1.000
3803.718,1683.640,-19506.948,-51234.241,1874.767,1721.490,1501.801,-2768.293,-0.013,0.985,-0.112,0.824,-1.587,1.404,73.333,839.000,1.000
3786.213,1663.915,-19384.131,-50941.405,1855.803,1700.409,1479.175,-2803.576,-0.012,0.980,-0.111,0.763,-1.617,1.282,73.333,840.000,1.000
3769.420,1645.033,-19260.818,-50647.856,1837.757,1681.003,1457.839,-2838.880,-0.011,0.980,-0.115,0.824,-1.678,1.221,73.333,841.000,1.000
3754.365,1627.820,-19136.068,-50352.614,1821.470,1664.020,1439.051,-2872.500,-0.011,0.979,-0.115,0.916,-1.678,1.282,73.333,842.000,1.000
3741.418,1612.289,-19009.702,-50055.578,1806.667,1648.607,1422.792,-2903.722,-0.010,0.981,-0.114,1.068,-1.740,1.282,73.333,843.000,1.000
3729.906,1597.432,-18882.600,-49757.745,1791.968,1632.710,1407.275,-2933.477,-0.010,0.982,-0.109,1.007,-1.678,1.282,73.333,844.000,1.000
3718.570,1581.928,-18756.085,-49460.470,1775.943,1614.501,1390.099,-2963.424,-0.009,0.984,-0.113,1.068,-1.617,1.221,73.333,845.000,1.000
3706.345,1565.112,-18631.029,-49164.454,1758.285,1593.873,1370.598,-2994.249,-0.007,0.985,-0.112,1.129,-1.617,1.221,73.333,846.000,1.000
3692.932,1547.250,-18507.396,-48869.389,1739.979,1572.445,1350.331,-3025.140,-0.007,0.983,-0.111,0.977,-1.526,1.221,73.333,847.000,1.000
3678.731,1529.155,-18384.463,-48574.458,1722.300,1552.089,1331.470,-3054.838,-0.006,0.983,-0.112,1.068,-1.495,1.129,73.333,848.000,1.000
3664.189,1511.445,-18261.496,-48279.148,1705.750,1533.674,1315.229,-3082.874,-0.006,0.983,-0.115,1.068,-1.404,1.190,73.333,849.000,1.000
3649.444,1494.246,-18138.135,-47983.467,1689.964,1517.115,1301.374,-3109.732,-0.007,0.985,-0.115,1.038,-1.404,1.038,73.333,850.000,1.000
3634.360,1477.293,-18014.491,-47687.843,1674.063,1501.683,1288.254,-3136.665,-0.008,0.984,-0.117,1.068,-1.312,1.160,73.333,851.000,1.000
3618.745,1460.063,-17891.007,-47392.896,1657.061,1486.080,1273.221,-3165.441,-0.008,0.983,-0.115,1.190,-1.251,1.068,73.333,852.000,1.000
3602.688,1442.189,-17768.040,-47098.943,1638.392,1468.980,1254.123,-3197.351,-0.008,0.981,-0.115,1.282,-1.190,0.916,73.333,853.000,1.000
3586.717,1423.758,-17645.504,-46805.632,1618.329,1449.787,1230.845,-3231.990,-0.008,0.982,-0.113,1.160,-1.068,1.007,73.333,854.000,1.000
3571.609,1405.341,-17522.818,-46512.069,1598.002,1429.037,1205.647,-3267.138,-0.010,0.981,-0.111,1.221,-1.068,0.946,73.333,855.000,1.000
3557.766,1387.508,-17399.444,-46217.564,1578.545,1407.903,1181.857,-3300.420,-0.011,0.981,-0.111,1.312,-1.038,0.946,73.333,856.000,1.000
