EEG 1,EEG 2,EEG 3,EEG 4,EEG 5,EEG 6,EEG 7,EEG 8,Accelerometer X,Accelerometer Y,Accelerometer Z,Gyroscope X,Gyroscope Y,Gyroscope Z,Battery Level,Counter,Validation Indicator
2.701,-2.149,11.011,2.493,13.146,20.108,24.650,2.318,0.000,0.987,-0.117,-0.610,-0.397,0.488,73.333,227897.000,1.000
2.852,-1.141,11.598,2.923,13.782,21.617,26.260,4.078,0.001,0.986,-0.117,-0.671,-0.458,0.336,73.333,227898.000,1.000
3.377,-0.712,12.319,4.149,14.584,21.955,26.976,5.655,0.001,0.985,-0.118,-0.702,-0.641,0.366,73.333,227899.000,1.000
4.425,-0.727,13.416,6.369,15.647,21.308,27.234,6.965,0.001,0.984,-0.119,-0.732,-0.580,0.366,73.333,227900.000,1.000
5.852,-0.934,14.772,9.096,16.703,20.059,26.452,7.007,0.001,0.984,-0.116,-0.916,-0.610,0.397,73.333,227901.000,1.000
7.241,-1.152,15.964,11.439,17.246,18.558,23.887,4.970,0.002,0.984,-0.116,-0.916,-0.732,0.519,73.333,227902.000,1.000
8.292,-1.183,16.775,12.960,17.256,17.409,20.256,1.656,0.001,0.982,-0.117,-0.946,-0.793,0.702,73.333,227903.000,1.000
8.729,-1.016,17.085,13.629,16.951,17.006,17.094,-1.432,0.001,0.982,-0.116,-0.916,-0.702,0.732,73.333,227904.000,1.000
8.406,-0.875,16.852,13.580,16.473,17.111,15.102,-3.433,0.000,0.981,-0.116,-0.916,-0.793,0.885,73.333,227905.000,1.000
7.536,-0.974,16.261,13.086,15.978,17.269,14.351,-4.055,-0.001,0.981,-0.115,-0.885,-0.854,0.977,73.333,227906.000,1.000
6.573,-1.405,15.594,12.427,15.647,17.237,15.116,-3.195,0.001,0.980,-0.114,-0.946,-0.916,0.977,73.333,227907.000,1.000
6.161,-1.937,15.241,11.878,15.699,16.983,17.436,-1.121,0.002,0.981,-0.113,-0.946,-0.977,1.160,73.333,227908.000,1.000
6.767,-2.189,15.453,11.502,16.041,16.291,20.175,1.045,0.001,0.982,-0.113,-1.129,-0.916,1.251,73.333,227909.000,1.000
8.362,-2.053,16.126,11.109,16.211,14.763,21.280,1.920,0.002,0.981,-0.112,-1.099,-0.916,1.373,73.333,227910.000,1.000
10.403,-1.813,16.832,10.409,15.745,12.305,19.507,0.984,0.002,0.980,-0.113,-1.068,-0.885,1.434,73.333,227911.000,1.000
12.212,-1.828,17.138,9.219,14.527,9.550,15.461,-1.319,0.003,0.979,-0.113,-1.007,-0.946,1.526,73.333,227912.000,1.000
13.600,-2.079,17.091,7.817,13.046,7.786,11.038,-4.015,0.004,0.980,-0.114,-0.885,-1.007,1.526,73.333,227913.000,1.000
14.710,-2.357,16.985,6.752,11.942,7.784,8.234,-6.005,0.003,0.982,-0.113,-0.946,-0.946,1.617,73.333,227914.000,1.000
15.617,-2.637,16.990,6.448,11.539,8.930,7.936,-6.393,0.004,0.981,-0.112,-0.977,-0.946,1.617,73.333,227915.000,1.000
16.076,-3.133,16.984,6.873,11.622,9.893,9.643,-5.032,0.007,0.980,-0.115,-0.977,-0.916,1.648,73.333,227916.000,1.000
15.564,-4.102,16.576,7.479,11.542,9.935,12.120,-2.667,0.005,0.980,-0.117,-0.946,-0.885,1.648,73.333,227917.000,1.000
13.826,-5.525,15.505,7.635,10.820,9.417,14.133,-0.303,0.005,0.978,-0.115,-0.854,-0.916,1.587,73.333,227918.000,1.000
11.020,-7.235,13.708,6.885,9.358,8.928,14.841,1.076,0.005,0.978,-0.113,-0.732,-0.885,1.526,73.333,227919.000,1.000
7.726,-9.120,11.343,5.231,7.494,8.524,14.071,0.930,0.006,0.976,-0.112,-0.702,-0.793,1.526,73.333,227920.000,1.000
4.765,-11.065,8.773,3.190,5.833,7.849,12.602,-0.219,0.008,0.974,-0.115,-0.641,-0.763,1.434,73.333,227921.000,1.000
2.719,-12.993,6.305,1.289,4.748,6.401,11.526,-1.306,0.006,0.972,-0.116,-0.458,-0.610,1.312,73.333,227922.000,1.000
1.717,-14.899,4.117,-0.302,4.241,3.956,11.291,-1.690,0.008,0.972,-0.115,-0.366,-0.549,1.312,73.333,227923.000,1.000
1.486,-16.775,2.226,-1.752,4.034,0.994,11.859,-1.362,0.007,0.971,-0.116,-0.092,-0.488,1.343,73.333,227924.000,1.000
1.855,-18.336,0.762,-3.058,3.961,-1.279,13.091,-0.548,0.008,0.972,-0.115,0.031,-0.488,1.312,73.333,227925.000,1.000
2.815,-19.137,-0.092,-3.959,3.975,-1.778,14.657,0.267,0.006,0.975,-0.113,0.122,-0.366,1.312,73.333,227926.000,1.000
4.022,-19.187,-0.516,-4.391,3.836,-0.499,15.873,0.304,0.008,0.976,-0.115,0.244,-0.305,1.373,73.333,227927.000,1.000
4.886,-19.037,-0.833,-4.491,3.283,1.611,15.700,-0.960,0.008,0.977,-0.115,0.458,-0.183,1.312,73.333,227928.000,1.000
4.909,-19.348,-1.197,-4.435,2.199,3.358,13.382,-3.330,0.007,0.978,-0.114,0.458,-0.031,1.373,73.333,227929.000,1.000
3.953,-20.377,-1.498,-4.224,0.831,4.005,9.403,-5.655,0.008,0.981,-0.116,0.519,0.061,1.404,73.333,227930.000,1.000
2.214,-21.855,-1.651,-3.744,-0.331,3.575,5.555,-6.402,0.005,0.983,-0.118,0.458,0.031,1.373,73.333,227931.000,1.000
0.082,-23.317,-1.815,-2.982,-0.940,2.656,3.693,-4.772,0.003,0.985,-0.117,0.519,0.183,1.312,73.333,227932.000,1.000
-1.803,-24.343,-2.084,-1.958,-0.821,2.070,4.451,-1.133,0.003,0.986,-0.116,0.397,0.061,1.312,73.333,227933.000,1.000
-2.912,-24.777,-2.474,-0.850,-0.118,2.314,6.975,3.177,0.002,0.988,-0.117,0.183,0.092,1.373,73.333,227934.000,1.000
-2.966,-24.602,-2.838,0.174,0.955,3.341,9.802,6.965,0.000,0.986,-0.114,0.031,-0.031,1.312,73.333,227935.000,1.000
-1.832,-23.621,-2.728,1.293,2.490,4.779,12.107,10.189,0.001,0.984,-0.115,-0.031,-0.092,1.282,73.333,227936.000,1.000
0.364,-21.611,-1.724,2.852,4.695,6.130,13.749,13.435,0.002,0.982,-0.115,-0.183,-0.122,1.312,73.333,227937.000,1.000
3.138,-18.729,0.149,4.918,7.527,6.940,14.694,16.749,0.004,0.986,-0.121,-0.061,0.000,1.373,73.333,227938.000,1.000
5.578,-15.703,2.183,6.910,10.307,6.916,14.985,19.243,0.003,0.987,-0.117,0.000,-0.031,1.282,73.333,227939.000,1.000
6.785,-13.470,3.463,7.992,12.090,6.200,14.723,19.914,0.003,0.989,-0.115,-0.153,-0.153,1.343,73.333,227940.000,1.000
6.342,-12.675,3.440,7.637,12.222,5.268,13.901,18.431,0.003,0.988,-0.118,-0.122,-0.153,1.373,73.333,227941.000,1.000
4.568,-13.351,2.183,5.918,10.636,4.464,12.384,15.148,0.004,0.988,-0.115,-0.336,-0.122,1.404,73.333,227942.000,1.000
2.642,-14.703,0.552,3.666,8.144,4.067,10.303,11.031,0.007,0.987,-0.117,-0.458,-0.153,1.465,73.333,227943.000,1.000
1.790,-15.619,-0.416,1.953,5.966,4.351,8.504,7.433,0.010,0.987,-0.119,-0.549,-0.214,1.556,73.333,227944.000,1.000
2.527,-15.436,-0.117,1.509,5.085,5.342,8.202,5.710,0.009,0.983,-0.117,-0.610,-0.153,1.709,73.333,227945.000,1.000
4.553,-14.204,1.444,2.462,5.818,6.591,10.329,6.638,0.008,0.981,-0.119,-0.458,-0.214,1.831,73.333,227946.000,1.000
6.987,-12.573,3.665,4.336,7.630,7.324,14.831,9.864,0.004,0.981,-0.118,-0.366,-0.122,1.801,73.333,227947.000,1.000
8.930,-11.368,5.728,6.398,9.387,6.780,19.643,13.728,0.002,0.982,-0.117,-0.488,-0.092,1.709,73.333,227948.000,1.000
9.824,-11.223,6.894,7.848,9.707,4.213,20.973,15.638,-0.001,0.980,-0.115,-0.458,-0.183,1.587,73.333,227949.000,1.000
9.717,-12.255,6.936,8.191,7.934,-0.493,16.317,13.850,-0.002,0.979,-0.118,-0.427,-0.244,1.373,73.333,227950.000,1.000
9.091,-13.990,6.230,7.516,4.778,-5.994,7.173,8.949,0.001,0.978,-0.118,-0.336,-0.397,1.373,73.333,227951.000,1.000
8.390,-15.693,5.366,6.386,1.751,-10.221,-2.402,3.167,-0.001,0.979,-0.119,-0.275,-0.488,1.221,73.333,227952.000,1.000
7.869,-16.703,4.841,5.589,0.253,-11.887,-8.996,-1.076,0.000,0.979,-0.118,-0.275,-0.702,1.129,73.333,227953.000,1.000
7.422,-16.761,4.769,5.628,0.822,-11.025,-10.942,-2.148,0.002,0.980,-0.119,-0.031,-0.854,1.068,73.333,227954.000,1.000
6.817,-16.009,5.083,6.565,3.142,-8.326,-8.247,0.351,0.002,0.979,-0.118,0.031,-0.885,0.977,73.333,227955.000,1.000
5.926,-14.889,5.650,8.022,6.172,-4.763,-2.673,5.289,0.000,0.981,-0.117,0.153,-0.793,1.007,73.333,227956.000,1.000
4.626,-14.097,6.080,9.262,8.419,-1.663,2.932,10.490,0.003,0.981,-0.120,0.092,-0.854,0.977,73.333,227957.000,1.000
2.999,-14.073,6.021,9.741,8.949,-0.018,6.526,14.223,0.005,0.982,-0.116,0.183,-0.946,0.854,73.333,227958.000,1.000
1.347,-14.651,5.436,9.367,7.905,0.238,8.106,15.940,0.005,0.983,-0.114,0.183,-1.007,0.885,73.333,227959.000,1.000
0.126,-15.255,4.663,8.466,6.270,0.119,8.813,16.029,0.005,0.984,-0.117,0.214,-0.916,0.946,73.333,227960.000,1.000
-0.310,-15.360,4.148,7.507,5.155,0.751,9.561,15.236,0.008,0.984,-0.117,0.183,-0.885,1.007,73.333,227961.000,1.000
-0.016,-14.831,4.089,6.801,5.145,2.545,10.626,14.246,0.007,0.985,-0.117,0.153,-1.007,1.099,73.333,227962.000,1.000
0.655,-13.820,4.470,6.534,6.291,5.218,12.087,13.822,0.008,0.984,-0.115,0.122,-0.977,1.099,73.333,227963.000,1.000
1.149,-12.601,5.002,6.711,8.221,8.251,14.382,14.791,0.007,0.984,-0.113,0.183,-0.885,1.190,73.333,227964.000,1.000
1.086,-11.447,5.315,7.207,10.379,11.197,17.769,17.438,0.007,0.984,-0.116,0.153,-0.763,1.221,73.333,227965.000,1.000
0.331,-10.742,4.992,7.570,11.845,13.289,21.084,20.410,0.007,0.985,-0.118,0.061,-0.885,1.312,73.333,227966.000,1.000
-1.281,-11.089,3.487,6.932,11.341,13.256,21.884,21.032,0.006,0.984,-0.118,-0.122,-0.824,1.343,73.333,227967.000,1.000
-3.660,-12.805,0.690,4.822,8.463,10.444,18.971,18.063,0.002,0.982,-0.117,-0.031,-0.824,1.282,73.333,227968.000,1.000
-6.214,-15.532,-2.726,1.820,4.410,5.703,14.181,13.353,0.002,0.981,-0.119,0.031,-0.946,1.282,73.333,227969.000,1.000
-7.959,-18.351,-5.540,-0.694,1.202,0.884,10.379,9.962,0.002,0.979,-0.115,0.000,-0.824,1.190,73.333,227970.000,1.000
-8.237,-20.343,-6.858,-1.652,0.024,-2.325,8.567,9.123,0.001,0.979,-0.114,0.122,-0.824,1.068,73.333,227971.000,1.000
-7.428,-21.233,-6.858,-1.175,0.420,-3.144,7.903,9.836,0.002,0.979,-0.115,0.214,-0.824,1.068,73.333,227972.000,1.000
-6.514,-21.363,-6.378,-0.193,1.171,-1.756,7.514,10.818,0.004,0.980,-0.118,0.183,-0.946,1.099,73.333,227973.000,1.000
-6.217,-21.273,-6.207,0.307,1.257,0.701,7.070,11.347,0.004,0.979,-0.116,0.275,-0.854,1.038,73.333,227974.000,1.000
-6.434,-21.254,-6.548,-0.058,0.463,2.606,6.301,11.098,0.003,0.980,-0.120,0.305,-0.916,0.946,73.333,227975.000,1.000
-6.602,-21.189,-7.089,-0.979,-0.616,2.876,5.339,10.357,0.004,0.980,-0.115,0.427,-0.946,0.885,73.333,227976.000,1.000
-6.442,-20.822,-7.486,-1.917,-1.194,1.663,4.826,9.960,0.005,0.980,-0.117,0.366,-0.977,0.916,73.333,227977.000,1.000
-6.043,-20.045,-7.585,-2.484,-0.934,-0.038,4.831,10.382,0.006,0.981,-0.118,0.366,-1.007,0.946,73.333,227978.000,1.000
-5.674,-19.081,-7.478,-2.634,-0.241,-1.490,4.500,11.054,0.006,0.980,-0.117,0.427,-1.007,0.977,73.333,227979.000,1.000
-5.240,-18.086,-7.017,-2.263,0.582,-2.225,3.377,11.383,0.005,0.980,-0.116,0.580,-1.099,0.885,73.333,227980.000,1.000
-4.156,-16.787,-5.677,-1.066,1.851,-1.612,2.349,11.616,0.007,0.979,-0.115,0.671,-1.068,0.946,73.333,227981.000,1.000
-2.001,-14.948,-3.237,0.893,3.668,0.474,2.440,11.961,0.008,0.979,-0.117,0.610,-1.068,1.007,73.333,227982.000,1.000
1.123,-12.783,-0.054,3.071,5.453,3.131,3.594,12.080,0.008,0.980,-0.119,0.732,-1.038,1.038,73.333,227983.000,1.000
4.620,-10.825,3.178,4.849,6.400,5.097,5.343,11.838,0.007,0.980,-0.120,0.885,-0.977,0.946,73.333,227984.000,1.000
7.839,-9.540,5.861,6.011,6.219,5.746,7.298,11.738,0.006,0.981,-0.119,0.854,-0.916,1.007,73.333,227985.000,1.000
10.317,-9.098,7.584,6.644,5.140,5.241,8.909,12.172,0.005,0.983,-0.119,0.854,-0.977,1.007,73.333,227986.000,1.000
11.798,-9.316,8.164,6.873,3.679,4.294,10.003,13.026,0.005,0.983,-0.119,0.854,-1.007,0.885,73.333,227987.000,1.000
12.372,-9.716,7.917,6.972,2.676,3.917,11.356,14.297,0.004,0.984,-0.118,0.885,-1.038,0.946,73.333,227988.000,1.000
12.176,-10.019,7.265,7.096,2.548,4.493,13.614,15.981,0.005,0.983,-0.120,0.854,-1.068,0.854,73.333,227989.000,1.000
11.349,-10.336,6.415,7.174,2.875,5.439,15.962,17.609,0.003,0.983,-0.115,0.793,-0.946,0.793,73.333,227990.000,1.000
10.160,-10.826,5.460,7.134,2.958,6.109,17.116,18.643,0.004,0.983,-0.115,0.641,-1.068,0.916,73.333,227991.000,1.000
8.852,-11.586,4.410,6.983,2.443,6.336,16.892,19.138,0.003,0.984,-0.117,0.641,-1.068,0.854,73.333,227992.000,1.000
7.628,-12.688,3.284,6.820,1.466,6.030,15.682,19.511,0.002,0.985,-0.118,0.549,-1.068,0.946,73.333,227993.000,1.000
6.524,-14.121,2.061,6.658,0.255,4.941,13.419,19.655,0.001,0.983,-0.118,0.580,-1.068,0.885,73.333,227994.000,1.000
5.498,-15.558,0.876,6.520,-0.771,3.340,10.282,19.275,0.002,0.982,-0.119,0.458,-1.160,0.793,73.333,227995.000,1.000
4.475,-16.464,0.061,6.511,-0.991,2.179,7.564,18.803,0.002,0.981,-0.119,0.427,-1.221,0.824,73.333,227996.000,1.000
3.331,-16.654,-0.212,6.610,-0.251,2.094,6.398,18.871,0.002,0.982,-0.119,0.427,-1.190,0.763,73.333,227997.000,1.000
2.173,-16.392,-0.036,6.648,0.822,2.842,6.250,19.033,0.002,0.984,-0.118,0.275,-1.251,0.763,73.333,227998.000,1.000
1.333,-16.038,0.298,6.402,1.182,3.653,5.709,17.822,0.002,0.982,-0.118,0.275,-1.312,0.854,73.333,227999.000,1.000
1.130,-15.774,0.592,5.924,0.330,3.876,4.057,14.604,0.001,0.982,-0.118,0.244,-1.312,0.793,73.333,228000.000,1.000
1.435,-15.752,0.759,5.454,-1.453,3.066,1.463,10.366,0.002,0.982,-0.117,0.153,-1.373,0.793,73.333,228001.000,1.000
1.672,-16.124,0.719,5.093,-3.535,1.038,-1.621,6.626,0.003,0.981,-0.121,0.244,-1.495,0.916,73.333,228002.000,1.000
1.625,-16.492,0.778,5.074,-4.931,-1.357,-4.153,4.777,0.002,0.980,-0.120,0.153,-1.434,0.854,73.333,228003.000,1.000
1.588,-15.968,1.497,5.779,-4.703,-2.352,-4.294,5.832,0.002,0.980,-0.120,0.214,-1.495,0.732,73.333,228004.000,1.000
2.047,-13.941,3.254,7.418,-2.646,-0.786,-0.994,9.773,0.005,0.982,-0.117,0.214,-1.495,0.641,73.333,228005.000,1.000
3.439,-10.503,6.038,9.802,0.523,2.800,4.826,15.214,0.002,0.983,-0.114,0.183,-1.587,0.793,73.333,228006.000,1.000
6.097,-6.125,9.644,12.592,3.953,6.958,11.479,20.441,0.002,0.981,-0.116,0.244,-1.556,0.702,73.333,228007.000,1.000
10.219,-1.102,14.019,15.736,7.624,10.908,18.008,24.820,0.000,0.980,-0.114,0.092,-1.587,0.671,73.333,228008.000,1.000
15.266,4.211,18.792,19.029,11.704,14.565,23.845,28.472,0.001,0.980,-0.115,0.092,-1.648,0.793,73.333,228009.000,1.000
19.894,8.984,22.956,21.736,15.631,17.729,28.041,31.297,0.002,0.980,-0.115,0.031,-1.740,0.763,73.333,228010.000,1.000
22.665,12.167,25.328,22.943,18.260,19.881,29.780,32.799,0.001,0.979,-0.115,0.061,-1.770,0.793,73.333,228011.000,1.000
22.740,13.056,25.231,22.167,18.630,20.481,28.711,32.265,0.003,0.979,-0.113,0.031,-1.770,0.793,73.333,228012.000,1.000
20.177,11.629,22.844,19.699,16.649,19.442,24.776,29.249,0.002,0.979,-0.116,0.092,-1.801,0.641,73.333,228013.000,1.000
15.565,8.396,18.835,16.221,13.044,17.200,18.740,24.177,0.000,0.981,-0.117,0.153,-1.831,0.732,73.333,228014.000,1.000
9.918,4.300,14.223,12.611,9.222,14.602,12.541,18.724,0.001,0.979,-0.119,0.122,-1.831,0.580,73.333,228015.000,1.000
4.648,0.608,10.273,9.843,6.782,12.665,8.599,15.136,0.002,0.980,-0.119,0.183,-1.923,0.641,73.333,228016.000,1.000
1.057,-1.671,7.914,8.527,6.503,11.939,8.279,14.718,0.002,0.979,-0.117,0.153,-1.892,0.732,73.333,228017.000,1.000
-0.142,-2.200,7.369,8.667,7.973,12.188,11.015,17.105,0.002,0.981,-0.117,0.214,-1.923,0.732,73.333,228018.000,1.000
0.779,-1.374,8.081,9.716,9.972,12.830,15.088,20.744,0.002,0.981,-0.118,0.153,-1.892,0.763,73.333,228019.000,1.000
2.793,-0.034,9.190,11.014,11.371,13.499,18.656,23.939,0.002,0.980,-0.116,0.153,-1.801,0.763,73.333,228020.000,1.000
4.705,0.910,10.001,12.054,11.582,13.928,20.320,25.398,0.004,0.983,-0.118,0.122,-1.984,0.824,73.333,228021.000,1.000
5.657,0.740,10.072,12.499,10.411,13.633,19.415,24.614,0.004,0.983,-0.116,0.092,-1.953,0.854,73.333,228022.000,1.000
5.503,-0.776,9.282,12.295,8.093,12.209,16.219,22.314,0.005,0.980,-0.118,0.000,-1.770,0.885,73.333,228023.000,1.000
4.514,-3.334,7.671,11.498,5.192,9.719,12.162,19.965,0.007,0.980,-0.115,0.122,-1.801,0.885,73.333,228024.000,1.000
3.106,-6.173,5.544,10.266,2.619,6.919,9.375,18.950,0.007,0.981,-0.115,0.153,-1.709,0.824,73.333,228025.000,1.000
1.649,-8.439,3.419,8.846,1.229,4.841,9.462,19.837,0.004,0.982,-0.114,0.244,-1.648,0.885,73.333,228026.000,1.000
0.274,-9.823,1.580,7.321,1.042,3.768,12.103,21.836,0.003,0.983,-0.117,0.244,-1.587,1.007,73.333,228027.000,1.000
-0.921,-10.593,0.083,5.657,1.321,3.096,15.191,23.329,0.003,0.981,-0.119,0.214,-1.678,1.038,73.333,228028.000,1.000
-1.910,-11.127,-1.128,3.788,1.190,2.214,16.832,23.037,0.004,0.981,-0.118,0.244,-1.617,0.946,73.333,228029.000,1.000
-2.706,-11.482,-1.999,1.900,0.339,1.287,16.621,20.917,0.004,0.982,-0.116,0.214,-1.617,1.007,73.333,228030.000,1.000
-3.301,-11.468,-2.413,0.466,-0.967,0.966,15.149,18.021,0.005,0.981,-0.115,0.244,-1.678,1.038,73.333,228031.000,1.000
-3.731,-11.046,-2.414,-0.117,-2.260,1.689,13.305,15.714,0.005,0.981,-0.119,0.183,-1.526,1.007,73.333,228032.000,1.000
-3.932,-10.339,-2.043,0.300,-2.922,3.640,12.277,15.107,0.006,0.981,-0.118,0.214,-1.465,0.946,73.333,228033.000,1.000
-3.908,-9.656,-1.493,1.339,-2.826,6.473,12.843,16.213,0.005,0.980,-0.117,0.122,-1.465,0.946,73.333,228034.000,1.000
-3.853,-9.513,-1.269,2.158,-2.720,8.971,14.063,17.731,0.004,0.983,-0.118,0.092,-1.404,0.946,73.333,228035.000,1.000
-4.085,-10.371,-1.929,1.946,-3.560,9.723,14.159,18.226,0.004,0.982,-0.118,0.122,-1.343,0.854,73.333,228036.000,1.000
-4.880,-12.274,-3.614,0.452,-5.591,8.242,12.556,17.408,0.002,0.981,-0.118,0.183,-1.434,0.854,73.333,228037.000,1.000
-6.176,-14.720,-5.803,-1.779,-8.184,5.239,10.045,16.121,0.001,0.983,-0.112,0.214,-1.312,0.824,73.333,228038.000,1.000
-7.796,-17.027,-7.817,-3.916,-10.628,1.874,7.748,15.288,0.001,0.983,-0.112,0.153,-1.190,0.885,73.333,228039.000,1.000
-9.511,-18.565,-9.111,-5.269,-12.365,-0.723,6.677,15.557,0.001,0.983,-0.113,0.183,-1.221,0.916,73.333,228040.000,1.000
-10.949,-18.834,-9.298,-5.458,-12.911,-1.688,7.504,17.261,0.001,0.983,-0.114,0.153,-1.190,0.854,73.333,228041.000,1.000
-11.728,-17.703,-8.300,-4.542,-12.156,-0.836,9.657,19.766,0.002,0.983,-0.115,0.092,-1.190,0.732,73.333,228042.000,1.000
-11.616,-15.439,-6.307,-2.862,-10.362,1.370,11.425,21.651,0.001,0.986,-0.116,0.183,-1.221,0.763,73.333,228043.000,1.000
-10.849,-12.728,-3.857,-1.009,-8.075,4.023,11.765,21.977,0.002,0.986,-0.117,0.092,-1.251,0.702,73.333,228044.000,1.000
-9.932,-10.535,-1.659,0.343,-5.936,5.987,11.047,20.985,0.002,0.984,-0.112,-0.092,-1.160,0.885,73.333,228045.000,1.000
-9.275,-9.642,-0.338,0.687,-4.538,6.408,10.132,19.547,0.004,0.985,-0.114,0.000,-1.190,0.885,73.333,228046.000,1.000
-9.008,-10.089,-0.115,-0.003,-4.081,5.466,9.626,18.622,0.005,0.985,-0.115,-0.092,-1.129,0.824,73.333,228047.000,1.000
-8.768,-10.972,-0.444,-1.030,-3.985,4.448,9.750,19.008,0.005,0.984,-0.113,-0.122,-1.038,0.916,73.333,228048.000,1.000
-8.100,-11.277,-0.587,-1.659,-3.688,4.352,9.962,20.335,0.004,0.983,-0.114,-0.122,-1.038,1.068,73.333,228049.000,1.000
-6.804,-10.717,-0.253,-1.664,-3.285,4.885,8.876,20.969,0.004,0.982,-0.118,-0.092,-1.068,1.160,73.333,228050.000,1.000
-5.003,-9.631,0.381,-1.168,-3.163,5.090,5.777,19.653,0.005,0.982,-0.114,-0.092,-1.038,1.160,73.333,228051.000,1.000
-3.066,-8.493,0.977,-0.323,-3.409,4.415,1.887,16.907,0.005,0.982,-0.115,-0.122,-1.007,1.190,73.333,228052.000,1.000
-1.240,-7.530,1.498,0.932,-3.489,3.237,-0.383,14.804,0.005,0.985,-0.118,-0.122,-0.946,1.343,73.333,228053.000,1.000
0.383,-6.749,2.074,2.601,-2.818,2.452,0.680,15.182,0.005,0.986,-0.115,-0.183,-0.977,1.373,73.333,228054.000,1.000
1.740,-6.152,2.646,4.399,-1.399,2.615,4.452,18.060,0.004,0.986,-0.116,-0.214,-0.916,1.434,73.333,228055.000,1.000
2.561,-5.960,2.725,5.635,-0.041,3.247,8.234,21.633,0.002,0.986,-0.115,-0.305,-0.671,1.404,73.333,228056.000,1.000
2.298,-6.636,1.501,5.448,0.111,3.094,9.477,23.858,0.001,0.983,-0.116,-0.366,-0.641,1.373,73.333,228057.000,1.000
0.618,-8.484,-1.482,3.507,-1.449,1.400,7.847,24.205,0.001,0.980,-0.118,-0.397,-0.702,1.465,73.333,228058.000,1.000
-2.329,-11.387,-5.999,0.198,-4.442,-1.468,4.916,23.347,0.001,0.979,-0.119,-0.305,-0.763,1.343,73.333,228059.000,1.000
-5.828,-14.753,-11.047,-3.552,-8.030,-4.328,2.106,21.804,0.001,0.979,-0.117,-0.214,-0.793,1.282,73.333,228060.000,1.000
-8.827,-17.606,-15.121,-6.567,-11.003,-5.786,0.114,19.787,0.000,0.977,-0.118,-0.153,-0.885,1.160,73.333,228061.000,1.000
-10.437,-19.029,-16.910,-7.784,-12.161,-4.960,-0.279,18.097,0.001,0.978,-0.117,-0.031,-0.854,1.160,73.333,228062.000,1.000
-10.241,-18.651,-15.891,-6.647,-10.844,-2.030,1.738,18.244,0.002,0.980,-0.115,0.092,-0.885,1.160,73.333,228063.000,1.000
-8.720,-16.994,-12.850,-3.706,-7.628,1.695,6.273,21.104,0.004,0.977,-0.118,0.153,-0.916,1.160,73.333,228064.000,1.000
-7.040,-15.180,-9.528,-0.450,-4.101,4.617,12.289,25.924,0.006,0.977,-0.117,0.122,-0.793,1.221,73.333,228065.000,1.000
-6.330,-14.241,-7.655,1.508,-2.031,5.702,17.586,30.422,0.007,0.974,-0.117,0.214,-0.732,1.312,73.333,228066.000,1.000
-7.025,-14.620,-8.092,1.231,-2.581,4.603,19.452,31.797,0.009,0.970,-0.118,0.305,-0.671,1.373,73.333,228067.000,1.000
-8.574,-15.982,-10.373,-1.009,-5.606,1.627,16.440,28.603,0.007,0.967,-0.120,0.488,-0.610,1.465,73.333,228068.000,1.000
-10.172,-17.662,-13.350,-4.171,-9.921,-2.487,9.938,21.884,0.007,0.969,-0.122,0.641,-0.458,1.465,73.333,228069.000,1.000
-11.390,-19.166,-15.934,-7.026,-13.912,-6.660,3.491,14.713,0.009,0.972,-0.120,0.793,-0.275,1.434,73.333,228070.000,1.000
-12.226,-20.264,-17.448,-8.627,-16.276,-9.620,0.439,10.201,0.007,0.979,-0.116,0.916,-0.244,1.465,73.333,228071.000,1.000
-12.939,-21.011,-17.816,-8.771,-16.795,-10.570,1.568,9.363,0.005,0.982,-0.118,0.977,-0.244,1.434,73.333,228072.000,1.000
-13.696,-21.639,-17.401,-7.947,-16.299,-9.736,4.673,10.864,0.004,0.984,-0.119,0.824,-0.244,1.587,73.333,228073.000,1.000
-14.614,-22.526,-16.930,-7.088,-16.169,-8.465,6.452,12.376,0.005,0.986,-0.121,0.671,-0.275,1.648,73.333,228074.000,1.000
-15.620,-23.990,-17.052,-6.950,-17.399,-8.453,4.859,12.327,0.005,0.986,-0.121,0.641,-0.275,1.678,73.333,228075.000,1.000
-16.277,-25.862,-17.798,-7.611,-19.844,-10.400,0.514,10.814,0.005,0.986,-0.121,0.610,-0.214,1.556,73.333,228076.000,1.000
-16.046,-27.468,-18.619,-8.597,-22.387,-13.375,-3.792,9.192,0.004,0.987,-0.120,0.641,-0.336,1.465,73.333,228077.000,1.000
-14.623,-27.994,-18.802,-9.265,-23.648,-15.466,-5.211,9.012,0.001,0.989,-0.120,0.549,-0.275,1.465,73.333,228078.000,1.000
-12.317,-27.089,-18.156,-9.392,-23.101,-15.319,-2.809,10.805,0.000,0.988,-0.119,0.488,-0.305,1.282,73.333,228079.000,1.000
-9.826,-25.119,-17.052,-9.245,-21.327,-12.989,2.142,13.836,-0.002,0.990,-0.120,0.336,-0.488,1.068,73.333,228080.000,1.000
-7.723,-22.829,-15.932,-9.124,-19.283,-9.551,7.667,16.987,-0.004,0.992,-0.115,0.153,-0.488,0.977,73.333,228081.000,1.000
-6.246,-20.826,-14.996,-9.018,-17.550,-6.306,12.342,19.481,-0.005,0.993,-0.116,-0.092,-0.732,0.763,73.333,228082.000,1.000
-5.265,-19.237,-14.115,-8.576,-16.036,-4.113,15.360,20.986,-0.003,0.991,-0.115,-0.305,-0.854,0.732,73.333,228083.000,1.000
-4.567,-17.860,-13.074,-7.467,-14.338,-3.185,16.462,21.539,0.000,0.994,-0.116,-0.458,-0.946,0.671,73.333,228084.000,1.000
-3.903,-16.467,-11.640,-5.539,-12.094,-3.146,15.715,21.506,0.000,0.993,-0.114,-0.580,-1.129,0.610,73.333,228085.000,1.000
-3.113,-14.992,-9.787,-3.019,-9.354,-3.285,13.444,21.163,0.001,0.992,-0.113,-0.763,-1.190,0.580,73.333,228086.000,1.000
-2.303,-13.474,-7.820,-0.513,-6.516,-2.754,10.728,20.697,0.003,0.988,-0.117,-0.824,-1.160,0.519,73.333,228087.000,1.000
-1.623,-11.843,-5.990,1.564,-3.699,-0.676,9.405,20.808,0.003,0.989,-0.119,-0.977,-1.160,0.671,73.333,228088.000,1.000
-1.375,-10.275,-4.643,2.980,-1.077,2.946,10.610,22.083,0.005,0.990,-0.117,-1.160,-1.129,0.671,73.333,228089.000,1.000
-1.778,-9.337,-4.228,3.508,0.702,6.587,13.298,24.052,0.005,0.988,-0.115,-1.190,-1.099,0.702,73.333,228090.000,1.000
-2.551,-9.354,-4.808,3.145,1.024,8.191,15.347,25.678,0.004,0.986,-0.115,-1.190,-1.129,0.824,73.333,228091.000,1.000
-3.047,-10.013,-5.811,2.325,-0.023,6.874,15.701,26.446,0.005,0.985,-0.114,-1.160,-1.099,0.763,73.333,228092.000,1.000
-2.668,-10.632,-6.334,1.745,-1.634,3.472,14.496,26.462,0.003,0.983,-0.116,-1.190,-0.977,0.946,73.333,228093.000,1.000
-1.346,-10.694,-5.874,1.734,-3.033,-0.434,12.226,25.831,0.003,0.981,-0.113,-1.160,-1.007,1.099,73.333,228094.000,1.000
0.580,-9.975,-4.485,2.216,-3.679,-3.345,9.698,24.932,0.004,0.978,-0.112,-1.099,-0.916,1.099,73.333,228095.000,1.000
2.628,-8.542,-2.608,2.989,-3.341,-4.332,7.830,24.467,0.004,0.977,-0.111,-1.099,-0.916,1.099,73.333,228096.000,1.000
4.178,-6.877,-1.003,3.687,-2.432,-3.517,6.757,24.576,0.005,0.975,-0.115,-1.007,-0.916,1.068,73.333,228097.000,1.000
4.749,-5.629,-0.293,3.945,-1.653,-1.724,5.860,24.673,0.006,0.977,-0.114,-0.916,-0.854,1.190,73.333,228098.000,1.000
4.175,-5.229,-0.651,3.598,-1.508,0.181,4.705,24.112,0.003,0.975,-0.114,-0.763,-0.885,1.251,73.333,228099.000,1.000
2.803,-5.622,-1.672,2.908,-1.894,1.759,3.552,22.998,0.004,0.973,-0.112,-0.641,-0.824,1.190,73.333,228100.000,1.000
1.286,-6.423,-2.748,2.308,-2.294,3.027,3.371,22.279,0.003,0.972,-0.111,-0.427,-0.824,1.068,73.333,228101.000,1.000
0.008,-7.470,-3.724,1.837,-2.499,3.964,4.951,22.877,0.004,0.974,-0.111,-0.275,-0.793,1.038,73.333,228102.000,1.000
-1.027,-8.908,-4.891,1.185,-2.803,4.316,7.715,24.885,0.004,0.973,-0.110,-0.214,-0.702,0.946,73.333,228103.000,1.000
-2.067,-10.765,-6.571,0.019,-3.702,3.914,10.084,27.290,0.004,0.973,-0.112,-0.061,-0.641,0.854,73.333,228104.000,1.000
-3.215,-12.558,-8.528,-1.515,-5.121,3.165,10.998,28.806,0.003,0.975,-0.112,0.092,-0.610,0.793,73.333,228105.000,1.000
-4.288,-13.555,-10.038,-2.783,-6.287,2.848,10.746,29.008,0.002,0.976,-0.111,0.153,-0.580,0.763,73.333,228106.000,1.000
-5.013,-13.481,-10.597,-3.290,-6.569,3.268,10.064,28.235,0.002,0.974,-0.109,0.366,-0.458,0.763,73.333,228107.000,1.000
-4.935,-12.607,-10.052,-2.864,-5.858,4.066,9.178,26.931,0.002,0.973,-0.109,0.427,-0.397,0.763,73.333,228108.000,1.000
-3.598,-11.394,-8.505,-1.549,-4.422,4.745,8.273,25.567,0.002,0.976,-0.112,0.549,-0.458,0.763,73.333,228109.000,1.000
-0.949,-10.261,-6.270,0.504,-2.564,5.137,7.820,24.854,0.002,0.978,-0.111,0.641,-0.427,0.763,73.333,228110.000,1.000
2.252,-9.626,-4.061,2.809,-0.692,5.232,8.155,25.314,0.003,0.977,-0.113,0.793,-0.397,0.763,73.333,228111.000,1.000
4.620,-9.884,-2.819,4.603,0.700,5.006,9.432,26.943,0.004,0.977,-0.114,0.854,-0.458,0.671,73.333,228112.000,1.000
5.241,-10.988,-2.903,5.527,1.605,4.792,12.014,29.702,0.005,0.978,-0.115,0.885,-0.458,0.732,73.333,228113.000,1.000
4.213,-12.371,-3.947,5.692,2.354,5.167,16.148,33.448,0.004,0.979,-0.115,0.946,-0.549,0.793,73.333,228114.000,1.000
2.505,-13.265,-5.203,5.380,3.113,6.438,20.737,37.321,0.004,0.979,-0.114,0.977,-0.397,0.793,73.333,228115.000,1.000
1.330,-13.108,-5.965,4.851,3.667,8.418,23.492,39.765,0.004,0.983,-0.113,1.007,-0.305,0.763,73.333,228116.000,1.000
1.398,-11.863,-5.875,4.269,3.696,10.636,22.951,39.674,0.003,0.983,-0.113,0.946,-0.305,0.763,73.333,228117.000,1.000
2.847,-9.871,-4.747,3.905,3.383,12.694,19.662,37.506,0.003,0.985,-0.114,0.977,-0.305,0.824,73.333,228118.000,1.000
5.356,-7.542,-2.568,4.099,3.305,14.237,15.372,34.813,0.004,0.987,-0.115,0.916,-0.183,0.885,73.333,228119.000,1.000
8.442,-5.083,0.570,5.296,4.250,15.219,12.044,33.424,0.001,0.990,-0.115,0.824,-0.183,0.977,73.333,228120.000,1.000
11.606,-2.458,4.452,7.856,6.883,16.194,11.590,34.912,0.000,0.990,-0.113,0.824,-0.183,0.946,73.333,228121.000,1.000
14.222,0.227,8.454,11.423,10.970,17.678,14.662,39.449,-0.001,0.989,-0.112,0.671,-0.275,0.977,73.333,228122.000,1.000
15.722,2.571,11.651,14.804,15.171,19.448,19.554,45.189,0.001,0.987,-0.111,0.580,-0.366,0.946,73.333,228123.000,1.000
15.820,4.151,13.279,16.652,17.835,20.847,23.690,49.570,0.000,0.985,-0.112,0.580,-0.427,0.916,73.333,228124.000,1.000
14.893,5.026,13.468,16.660,18.452,21.823,25.969,51.471,0.003,0.983,-0.115,0.458,-0.275,0.854,73.333,228125.000,1.000
13.908,5.788,13.251,15.759,17.967,23.119,27.262,51.522,0.004,0.983,-0.116,0.549,-0.336,0.885,73.333,228126.000,1.000
13.720,6.976,13.668,15.128,17.669,25.246,28.897,50.714,0.005,0.987,-0.118,0.580,-0.305,0.946,73.333,228127.000,1.000
14.638,8.708,15.146,15.443,18.344,27.795,31.158,49.604,0.003,0.990,-0.118,0.519,-0.275,1.007,73.333,228128.000,1.000
16.167,10.591,17.211,16.502,19.824,29.562,33.102,48.302,0.001,0.990,-0.115,0.305,-0.397,0.977,73.333,228129.000,1.000
17.337,11.857,18.772,17.379,21.139,29.146,33.048,46.649,0.003,0.990,-0.115,0.153,-0.336,1.068,73.333,228130.000,1.000
17.317,11.771,18.757,17.002,21.065,25.683,29.556,44.284,0.007,0.990,-0.117,0.031,-0.244,1.068,73.333,228131.000,1.000
15.886,10.099,16.796,14.974,18.917,19.463,22.611,41.008,0.007,0.989,-0.118,-0.122,-0.214,1.129,73.333,228132.000,1.000
13.676,7.420,13.672,12.130,15.312,12.156,14.141,37.440,0.008,0.985,-0.118,0.000,-0.153,1.221,73.333,228133.000,1.000
11.651,4.827,10.735,9.845,11.774,6.140,7.333,34.742,0.005,0.982,-0.116,0.061,-0.153,1.160,73.333,228134.000,1.000
10.592,3.342,9.115,9.084,9.834,3.476,4.909,33.858,0.001,0.982,-0.114,-0.031,0.000,1.068,73.333,228135.000,1.000
10.813,3.471,9.275,9.991,10.210,4.939,7.597,35.023,0.000,0.985,-0.114,-0.183,0.061,0.946,73.333,228136.000,1.000
12.035,4.998,10.853,11.906,12.364,9.422,13.562,37.495,-0.001,0.986,-0.114,-0.244,0.031,0.824,73.333,228137.000,1.000
13.630,7.138,12.915,13.815,14.962,14.395,19.438,39.886,0.000,0.983,-0.115,-0.305,-0.122,0.580,73.333,228138.000,1.000
14.792,8.932,14.352,14.841,16.678,17.458,22.855,41.038,-0.002,0.982,-0.114,-0.427,-0.305,0.549,73.333,228139.000,1.000
15.125,9.909,14.722,14.914,17.144,18.021,23.851,40.929,-0.002,0.979,-0.115,-0.397,-0.336,0.458,73.333,228140.000,1.000
14.962,10.295,14.473,14.722,16.858,17.115,23.533,40.244,0.000,0.977,-0.112,-0.397,-0.488,0.305,73.333,228141.000,1.000
14.855,10.441,14.209,14.870,16.261,15.757,22.167,39.171,0.002,0.977,-0.115,-0.305,-0.488,0.061,73.333,228142.000,1.000
15.228,10.579,14.344,15.617,15.646,14.510,19.524,37.564,0.002,0.977,-0.115,-0.275,-0.458,-0.031,73.333,228143.000,1.000
16.174,10.846,14.981,16.873,15.234,13.821,16.084,35.571,0.002,0.979,-0.116,-0.183,-0.458,0.061,73.333,228144.000,1.000
17.513,11.205,15.930,18.281,15.062,13.835,12.680,33.510,0.002,0.979,-0.115,-0.092,-0.549,-0.031,73.333,228145.000,1.000
18.888,11.488,16.879,19.412,14.997,14.168,10.152,31.730,0.003,0.979,-0.114,-0.061,-0.458,-0.061,73.333,228146.000,1.000
19.849,11.573,17.620,20.061,14.960,14.263,9.577,30.845,0.002,0.981,-0.114,-0.031,-0.519,-0.061,73.333,228147.000,1.000
20.126,11.464,18.165,20.383,15.058,13.931,11.463,31.377,0.001,0.980,-0.113,-0.061,-0.519,-0.092,73.333,228148.000,1.000
19.464,10.994,18.300,20.386,15.049,13.206,14.553,32.718,0.002,0.982,-0.113,0.031,-0.427,-0.092,73.333,228149.000,1.000
17.598,9.700,17.522,19.791,14.328,12.104,16.325,33.382,0.003,0.983,-0.113,-0.061,-0.458,0.031,73.333,228150.000,1.000
14.513,7.241,15.489,18.391,12.499,10.725,15.346,32.401,0.003,0.982,-0.111,0.061,-0.397,0.214,73.333,228151.000,1.000
10.678,3.865,12.386,16.335,9.769,9.394,12.519,30.068,0.002,0.983,-0.112,0.061,-0.488,0.122,73.333,228152.000,1.000
7.059,0.440,8.991,14.228,6.969,8.667,9.891,27.718,0.001,0.982,-0.109,0.061,-0.427,0.153,73.333,228153.000,1.000
4.394,-2.161,6.078,12.684,4.851,8.862,9.028,26.769,0.001,0.983,-0.109,0.061,-0.458,0.183,73.333,228154.000,1.000
2.815,-3.525,4.091,12.056,3.711,9.678,10.096,27.861,0.002,0.983,-0.112,0.092,-0.549,0.244,73.333,228155.000,1.000
2.033,-3.761,3.115,12.330,3.388,10.282,11.885,30.477,0.000,0.981,-0.110,0.092,-0.427,0.336,73.333,228156.000,1.000
1.603,-3.436,2.867,13.074,3.423,9.862,12.878,33.351,0.001,0.983,-0.110,0.061,-0.488,0.336,73.333,228157.000,1.000
1.307,-3.183,3.041,13.826,3.567,8.302,12.565,35.524,0.001,0.982,-0.112,0.031,-0.519,0.336,73.333,228158.000,1.000
1.059,-3.375,3.383,14.283,3.704,6.034,11.431,36.519,0.000,0.981,-0.113,0.031,-0.549,0.244,73.333,228159.000,1.000
0.842,-4.086,3.701,14.371,3.701,3.550,9.872,36.091,-0.002,0.980,-0.112,0.000,-0.610,0.275,73.333,228160.000,1.000
0.659,-5.230,3.810,14.183,3.443,1.183,8.063,34.415,0.000,0.982,-0.111,0.031,-0.610,0.305,73.333,228161.000,1.000
0.444,-6.712,3.481,13.771,2.755,-1.021,6.026,32.072,0.000,0.982,-0.113,0.092,-0.641,0.305,73.333,228162.000,1.000
0.253,-8.290,2.720,13.165,1.496,-3.212,3.366,29.641,-0.001,0.982,-0.112,0.122,-0.610,0.275,73.333,228163.000,1.000
0.156,-9.568,1.731,12.307,-0.404,-5.456,0.044,27.494,0.000,0.980,-0.113,0.153,-0.641,0.458,73.333,228164.000,1.000
0.175,-10.185,0.847,11.259,-2.591,-7.394,-2.841,26.204,-0.001,0.980,-0.114,0.275,-0.732,0.519,73.333,228165.000,1.000
0.209,-10.038,0.373,10.307,-4.240,-8.408,-3.696,26.611,0.000,0.981,-0.110,0.305,-0.732,0.366,73.333,228166.000,1.000
0.047,-9.351,0.389,9.761,-4.619,-8.186,-1.865,29.095,0.000,0.983,-0.109,0.244,-0.702,0.397,73.333,228167.000,1.000
-0.240,-8.394,0.890,9.832,-3.505,-6.890,1.635,32.867,-0.001,0.981,-0.112,0.214,-0.732,0.305,73.333,228168.000,1.000
-0.355,-7.401,1.738,10.363,-1.503,-5.175,4.709,35.885,0.000,0.979,-0.115,0.275,-0.763,0.397,73.333,228169.000,1.000
0.050,-6.551,2.766,11.003,0.415,-3.869,5.475,36.194,-0.001,0.979,-0.115,0.183,-0.763,0.336,73.333,228170.000,1.000
1.096,-5.852,3.823,11.514,1.643,-3.377,3.662,33.520,0.000,0.979,-0.115,0.397,-0.885,0.397,73.333,228171.000,1.000
2.388,-5.205,4.618,11.736,2.136,-3.452,0.724,29.351,-0.003,0.980,-0.115,0.427,-0.916,0.336,73.333,228172.000,1.000
3.300,-4.517,4.906,11.623,2.322,-3.418,-1.407,25.904,-0.003,0.983,-0.115,0.427,-0.977,0.244,73.333,228173.000,1.000
3.351,-3.879,4.606,11.176,2.636,-2.715,-1.303,24.906,-0.004,0.984,-0.114,0.458,-1.038,0.214,73.333,228174.000,1.000
2.581,-3.517,3.894,10.538,3.322,-1.213,1.490,26.908,-0.004,0.984,-0.114,0.458,-1.129,0.122,73.333,228175.000,1.000
1.435,-3.614,3.019,9.894,4.262,0.718,6.148,30.991,-0.001,0.983,-0.113,0.580,-1.160,0.031,73.333,228176.000,1.000
0.261,-4.255,1.955,9.199,4.863,2.389,10.612,35.076,-0.002,0.984,-0.114,0.580,-1.221,-0.092,73.333,228177.000,1.000
-0.702,-5.310,0.614,8.422,4.675,3.383,12.710,37.353,-0.002,0.984,-0.115,0.488,-1.251,0.031,73.333,228178.000,1.000
-1.325,-6.477,-0.959,7.729,3.814,3.669,11.961,37.561,0.000,0.986,-0.116,0.641,-1.373,0.061,73.333,228179.000,1.000
-1.560,-7.453,-2.504,7.395,2.847,3.357,9.722,36.835,-0.003,0.986,-0.115,0.641,-1.404,0.031,73.333,228180.000,1.000
-1.568,-8.143,-3.794,7.318,2.031,2.587,7.475,36.016,-0.004,0.988,-0.113,0.549,-1.465,0.092,73.333,228181.000,1.000
-1.773,-8.771,-4.952,6.844,0.888,1.563,5.615,34.653,-0.004,0.987,-0.113,0.488,-1.587,0.031,73.333,228182.000,1.000
-2.430,-9.587,-6.142,5.493,-1.008,0.677,4.044,32.281,-0.004,0.985,-0.112,0.458,-1.770,0.000,73.333,228183.000,1.000
-3.523,-10.647,-7.395,3.364,-3.561,0.142,2.833,29.340,-0.004,0.985,-0.116,0.549,-1.801,-0.122,73.333,228184.000,1.000
-4.727,-11.752,-8.517,1.057,-6.289,-0.267,1.621,26.465,-0.005,0.984,-0.113,0.549,-1.953,-0.183,73.333,228185.000,1.000
-5.444,-12.447,-9.089,-0.629,-8.616,-0.851,-0.218,23.913,-0.007,0.983,-0.113,0.549,-2.106,-0.153,73.333,228186.000,1.000
-5.080,-12.244,-8.696,-1.049,-9.993,-1.393,-2.219,22.144,-0.006,0.982,-0.112,0.641,-2.106,-0.244,73.333,228187.000,1.000
-3.287,-10.890,-7.081,0.135,-9.817,-1.075,-2.589,22.318,-0.005,0.981,-0.114,0.641,-2.197,-0.183,73.333,228188.000,1.000
-0.407,-8.733,-4.568,2.617,-7.990,0.602,-0.077,25.139,-0.003,0.981,-0.115,0.641,-2.289,-0.244,73.333,228189.000,1.000
2.625,-6.712,-2.031,5.457,-5.233,3.070,4.111,29.569,-0.004,0.981,-0.114,0.793,-2.289,-0.092,73.333,228190.000,1.000
4.916,-5.760,-0.322,7.567,-2.765,4.917,7.095,33.348,-0.005,0.980,-0.112,0.824,-2.441,-0.122,73.333,228191.000,1.000
6.165,-6.226,0.283,8.321,-1.728,4.632,6.527,34.636,-0.005,0.980,-0.113,0.885,-2.441,-0.122,73.333,228192.000,1.000
6.838,-7.674,0.287,7.970,-2.566,1.563,1.888,33.021,-0.005,0.980,-0.115,0.916,-2.502,-0.214,73.333,228193.000,1.000
7.439,-9.241,0.376,7.206,-4.947,-3.437,-5.188,29.361,-0.004,0.980,-0.116,1.007,-2.563,-0.092,73.333,228194.000,1.000
8.072,-10.018,0.987,6.741,-7.707,-8.073,-11.529,25.551,-0.004,0.979,-0.118,1.038,-2.563,-0.122,73.333,228195.000,1.000
8.700,-9.268,2.314,7.104,-9.201,-9.732,-13.883,23.931,-0.003,0.979,-0.115,1.068,-2.563,-0.061,73.333,228196.000,1.000
9.436,-6.816,4.308,8.405,-8.359,-7.240,-10.979,25.833,-0.002,0.980,-0.113,1.038,-2.563,-0.031,73.333,228197.000,1.000
10.584,-3.262,6.712,10.319,-5.426,-1.690,-4.726,30.487,-0.004,0.980,-0.114,1.129,-2.686,-0.031,73.333,228198.000,1.000
12.144,0.285,8.987,12.191,-1.883,4.391,1.282,35.459,-0.004,0.980,-0.113,1.160,-2.625,0.000,73.333,228199.000,1.000
13.781,2.934,10.684,13.554,0.800,8.975,4.585,38.649,-0.004,0.982,-0.113,1.068,-2.594,0.000,73.333,228200.000,1.000
15.009,4.365,11.662,14.299,2.042,11.484,5.119,39.656,-0.004,0.980,-0.116,1.007,-2.533,-0.031,73.333,228201.000,1.000
15.201,4.477,11.759,14.299,1.836,12.096,4.048,39.223,-0.003,0.979,-0.116,1.068,-2.563,0.000,73.333,228202.000,1.000
14.013,3.322,10.852,13.506,0.532,11.152,2.354,38.345,-0.002,0.980,-0.114,1.129,-2.441,-0.092,73.333,228203.000,1.000
11.690,1.289,9.110,12.171,-1.313,9.121,0.728,37.819,-0.001,0.980,-0.113,1.099,-2.350,-0.031,73.333,228204.000,1.000
9.097,-0.912,7.199,10.938,-2.946,6.635,-0.211,38.274,0.000,0.982,-0.113,1.038,-2.350,0.061,73.333,228205.000,1.000
7.219,-2.567,5.961,10.502,-3.663,4.336,0.100,40.099,0.002,0.982,-0.114,1.038,-2.197,0.092,73.333,228206.000,1.000
6.531,-3.373,5.795,11.097,-3.252,2.622,1.666,43.015,0.003,0.984,-0.115,0.885,-2.045,0.153,73.333,228207.000,1.000
7.018,-3.432,6.611,12.469,-1.938,1.745,3.708,46.180,0.001,0.986,-0.114,1.007,-2.014,0.031,73.333,228208.000,1.000
8.271,-3.092,7.907,13.919,-0.317,1.826,5.443,48.687,0.000,0.986,-0.115,0.885,-1.892,0.092,73.333,228209.000,1.000
9.735,-2.790,8.983,14.577,0.809,2.683,6.156,49.726,0.001,0.986,-0.116,0.854,-1.831,0.092,73.333,228210.000,1.000
10.936,-2.870,9.249,13.863,0.765,3.771,4.975,48.611,-0.001,0.986,-0.115,0.763,-1.709,0.153,73.333,228211.000,1.000
11.599,-3.333,8.575,11.914,-0.482,4.474,1.863,45.471,0.001,0.987,-0.113,0.702,-1.495,0.244,73.333,228212.000,1.000
11.921,-3.656,7.623,9.753,-2.003,4.596,-1.709,41.725,0.002,0.984,-0.114,0.580,-1.434,0.122,73.333,228213.000,1.000
12.337,-3.182,7.331,8.531,-2.730,4.259,-3.966,39.055,0.002,0.981,-0.117,0.519,-1.251,0.122,73.333,228214.000,1.000
13.310,-1.602,8.361,8.895,-2.183,3.689,-4.463,38.375,0.001,0.983,-0.114,0.580,-1.160,0.244,73.333,228215.000,1.000
15.175,0.974,10.875,10.931,-0.450,3.319,-3.547,39.919,0.001,0.982,-0.115,0.580,-0.977,0.061,73.333,228216.000,1.000
17.817,4.036,14.381,14.222,2.103,3.688,-0.965,43.715,-0.001,0.980,-0.116,0.671,-0.824,0.092,73.333,228217.000,1.000
20.677,6.762,17.829,17.954,4.947,4.926,3.441,49.305,0.000,0.981,-0.117,0.671,-0.793,0.122,73.333,228218.000,1.000
22.850,8.246,19.836,20.871,7.024,6.291,8.150,54.786,-0.002,0.982,-0.117,0.671,-0.763,0.092,73.333,228219.000,1.000
23.670,8.021,19.473,21.864,7.259,6.804,10.605,57.603,-0.004,0.981,-0.117,0.732,-0.702,-0.061,73.333,228220.000,1.000
23.140,6.444,16.897,20.703,5.486,6.174,9.637,56.654,-0.004,0.981,-0.117,0.763,-0.580,-0.061,73.333,228221.000,1.000
21.705,4.392,13.109,18.044,2.455,4.702,6.108,52.904,-0.002,0.979,-0.114,0.793,-0.519,-0.122,73.333,228222.000,1.000
20.007,2.687,9.376,14.962,-0.782,2.695,1.444,48.232,-0.003,0.979,-0.115,0.732,-0.458,-0.122,73.333,228223.000,1.000
18.576,1.587,6.428,12.223,-3.667,0.108,-3.243,44.074,-0.005,0.979,-0.115,0.763,-0.488,-0.031,73.333,228224.000,1.000
17.864,0.889,4.361,10.215,-6.044,-3.087,-6.948,41.254,-0.006,0.980,-0.115,0.885,-0.427,-0.061,73.333,228225.000,1.000
18.209,0.413,3.049,9.152,-7.770,-6.434,-8.846,40.112,-0.005,0.983,-0.112,0.977,-0.336,-0.061,73.333,228226.000,1.000
19.470,0.131,2.322,8.985,-8.790,-9.069,-9.059,40.132,-0.006,0.984,-0.114,0.977,-0.366,0.031,73.333,228227.000,1.000
21.117,0.186,2.124,9.507,-8.996,-9.968,-8.359,40.454,-0.007,0.984,-0.113,1.007,-0.458,0.031,73.333,228228.000,1.000
22.466,0.787,2.422,10.424,-8.229,-8.465,-6.760,40.899,-0.007,0.983,-0.113,0.977,-0.397,0.031,73.333,228229.000,1.000
22.966,1.898,3.068,11.444,-6.423,-4.865,-3.639,42.185,-0.007,0.982,-0.117,1.068,-0.336,0.092,73.333,228230.000,1.000
22.248,2.963,3.558,12.200,-3.965,-0.544,0.941,45.002,-0.005,0.983,-0.116,1.068,-0.244,0.122,73.333,228231.000,1.000
20.092,3.105,3.091,12.219,-1.769,2.818,5.704,49.081,-0.006,0.983,-0.114,1.068,-0.397,0.214,73.333,228232.000,1.000
16.667,1.827,1.262,11.292,-0.604,4.360,8.874,53.181,-0.006,0.982,-0.114,0.977,-0.397,0.275,73.333,228233.000,1.000
12.331,-0.735,-1.704,9.505,-0.812,4.126,9.349,55.695,-0.007,0.983,-0.111,0.977,-0.458,0.275,73.333,228234.000,1.000
7.579,-3.974,-5.055,7.220,-2.194,2.577,7.210,55.745,-0.006,0.983,-0.116,1.038,-0.519,0.366,73.333,228235.000,1.000
3.062,-7.043,-7.855,4.967,-4.132,0.373,3.567,53.685,-0.005,0.982,-0.116,0.977,-0.488,0.458,73.333,228236.000,1.000
-0.640,-9.158,-9.479,3.205,-5.981,-1.658,-0.018,50.592,-0.006,0.981,-0.115,0.885,-0.519,0.488,73.333,228237.000,1.000
-3.077,-9.796,-9.701,2.335,-7.106,-2.590,-2.069,47.898,-0.006,0.980,-0.115,0.916,-0.580,0.580,73.333,228238.000,1.000
-4.243,-9.053,-8.903,2.346,-7.266,-2.018,-1.812,46.783,-0.006,0.981,-0.116,0.916,-0.519,0.641,73.333,228239.000,1.000
-4.589,-7.794,-7.999,2.684,-6.848,-0.514,-0.054,47.328,-0.006,0.982,-0.116,1.007,-0.519,0.763,73.333,228240.000,1.000
-4.712,-7.158,-7.917,2.631,-6.603,0.767,1.338,48.379,-0.005,0.983,-0.117,0.977,-0.519,0.824,73.333,228241.000,1.000
-5.051,-7.809,-9.004,1.846,-7.067,0.841,1.109,48.519,-0.004,0.983,-0.115,0.854,-0.488,0.854,73.333,228242.000,1.000
-5.579,-9.512,-10.668,0.681,-8.019,-0.423,-0.549,47.273,-0.006,0.979,-0.113,0.793,-0.519,0.946,73.333,228243.000,1.000
-6.074,-11.524,-12.000,-0.308,-8.890,-2.276,-2.196,45.206,-0.008,0.977,-0.116,0.763,-0.519,0.977,73.333,228244.000,1.000
-6.378,-13.198,-12.394,-0.734,-9.234,-3.690,-2.130,43.496,-0.009,0.978,-0.117,0.824,-0.610,1.007,73.333,228245.000,1.000
-6.479,-14.202,-11.717,-0.461,-8.930,-4.197,0.324,43.237,-0.007,0.980,-0.118,0.946,-0.641,1.068,73.333,228246.000,1.000
-6.571,-14.585,-10.378,0.203,-8.363,-4.301,3.800,44.393,-0.006,0.980,-0.115,0.946,-0.763,0.977,73.333,228247.000,1.000
-6.807,-14.674,-9.086,0.596,-8.229,-4.922,5.497,45.509,-0.009,0.982,-0.116,0.946,-0.732,1.007,73.333,228248.000,1.000
-7.240,-14.868,-8.539,0.011,-9.185,-6.556,3.472,44.619,-0.007,0.982,-0.116,1.038,-0.793,1.007,73.333,228249.000,1.000
-7.635,-15.262,-8.864,-1.629,-11.221,-8.877,-2.098,40.800,-0.005,0.981,-0.116,0.946,-0.824,1.038,73.333,228250.000,1.000
-7.467,-15.515,-9.484,-3.592,-13.601,-11.014,-9.303,34.906,-0.003,0.980,-0.117,0.946,-0.824,1.129,73.333,228251.000,1.000
-6.339,-15.252,-9.681,-4.949,-15.474,-12.162,-15.432,29.006,-0.001,0.976,-0.122,0.916,-0.793,1.221,73.333,228252.000,1.000
-4.146,-14.388,-8.970,-5.024,-16.168,-11.906,-18.059,25.531,0.000,0.975,-0.120,0.977,-0.854,1.343,73.333,228253.000,1.000
-1.206,-13.158,-7.340,-3.690,-15.482,-10.517,-16.218,26.086,-0.003,0.973,-0.120,1.038,-0.732,1.221,73.333,228254.000,1.000
1.972,-11.861,-5.074,-1.303,-13.696,-8.829,-11.231,30.361,-0.002,0.972,-0.122,1.129,-0.702,1.373,73.333,228255.000,1.000
4.913,-10.550,-2.488,1.523,-11.314,-7.545,-5.724,36.195,-0.002,0.975,-0.124,1.282,-0.671,1.404,73.333,228256.000,1.000
7.145,-9.060,0.088,4.136,-8.822,-6.720,-1.693,41.020,-0.002,0.979,-0.122,1.373,-0.671,1.526,73.333,228257.000,1.000
8.462,-7.168,2.430,6.216,-6.440,-5.836,0.344,43.497,-0.002,0.984,-0.120,1.343,-0.671,1.587,73.333,228258.000,1.000
8.962,-4.834,4.310,7.670,-4.381,-4.352,1.158,43.820,-0.003,0.986,-0.121,1.312,-0.549,1.678,73.333,228259.000,1.000
9.053,-2.289,5.569,8.509,-2.923,-2.160,1.776,43.059,-0.003,0.986,-0.117,1.129,-0.519,1.678,73.333,228260.000,1.000
9.274,0.033,6.171,8.793,-2.356,0.138,2.413,42.235,-0.005,0.987,-0.118,1.068,-0.610,1.801,73.333,228261.000,1.000
9.940,1.605,6.086,8.530,-2.880,1.543,2.728,41.901,-0.004,0.987,-0.118,0.885,-0.488,1.892,73.333,228262.000,1.000
11.115,2.153,5.496,7.870,-4.129,1.597,2.904,42.567,-0.004,0.986,-0.120,0.732,-0.519,1.831,73.333,228263.000,1.000
12.545,1.787,4.776,7.093,-5.401,0.515,3.548,44.484,-0.005,0.985,-0.120,0.641,-0.458,1.801,73.333,228264.000,1.000
13.863,0.858,4.313,6.498,-6.201,-1.224,4.492,46.985,-0.010,0.987,-0.118,0.488,-0.641,1.587,73.333,228265.000,1.000
14.753,-0.286,4.176,6.121,-6.624,-3.020,4.801,48.566,-0.010,0.988,-0.117,0.397,-0.702,1.404,73.333,228266.000,1.000
14.960,-1.500,3.998,5.615,-7.244,-4.269,3.784,47.840,-0.010,0.988,-0.115,0.244,-0.916,1.251,73.333,228267.000,1.000
14.613,-2.709,3.474,4.722,-8.434,-4.666,1.392,44.647,-0.008,0.987,-0.119,0.092,-0.946,0.946,73.333,228268.000,1.000
14.090,-3.842,2.536,3.453,-10.180,-4.604,-1.972,40.172,-0.006,0.988,-0.117,0.000,-1.099,0.916,73.333,228269.000,1.000
13.660,-4.888,1.260,1.970,-12.171,-4.845,-5.745,36.099,-0.005,0.987,-0.117,0.000,-1.160,0.946,73.333,228270.000,1.000
13.116,-6.007,-0.397,0.301,-14.079,-5.845,-9.254,33.506,-0.005,0.985,-0.119,-0.153,-1.160,0.824,73.333,228271.000,1.000
11.781,-7.556,-2.725,-1.710,-15.816,-7.586,-11.827,32.487,-0.004,0.984,-0.116,-0.244,-1.068,0.641,73.333,228272.000,1.000
9.352,-9.578,-5.642,-3.856,-17.132,-9.414,-12.907,32.795,-0.003,0.984,-0.116,-0.305,-1.190,0.641,73.333,228273.000,1.000
6.383,-11.358,-8.301,-5.422,-17.464,-10.059,-11.995,34.324,-0.003,0.982,-0.118,-0.214,-1.251,0.580,73.333,228274.000,1.000
4.119,-11.687,-9.399,-5.547,-16.164,-8.250,-8.948,37.112,-0.002,0.984,-0.119,-0.305,-1.251,0.671,73.333,228275.000,1.000
3.633,-9.736,-8.143,-3.929,-13.104,-3.750,-4.316,40.899,0.000,0.984,-0.119,-0.214,-1.282,0.793,73.333,228276.000,1.000
4.964,-5.791,-4.952,-1.261,-9.033,2.197,0.803,44.864,0.000,0.983,-0.116,-0.183,-1.190,0.885,73.333,228277.000,1.000
7.257,-1.114,-1.041,1.349,-4.985,7.655,5.304,48.160,-0.001,0.983,-0.115,-0.183,-1.099,0.885,73.333,228278.000,1.000
9.206,2.682,2.134,2.986,-1.864,10.892,8.462,50.238,-0.001,0.983,-0.117,-0.336,-1.038,0.916,73.333,228279.000,1.000
9.835,4.460,3.525,3.338,-0.094,11.071,9.812,50.978,-0.003,0.981,-0.115,-0.275,-1.099,1.038,73.333,228280.000,1.000
9.114,4.185,3.015,2.789,0.546,8.773,9.479,50.909,-0.003,0.981,-0.115,-0.336,-1.129,1.099,73.333,228281.000,1.000
7.846,2.808,1.336,2.073,0.664,5.808,8.591,51.052,-0.002,0.983,-0.114,-0.275,-1.129,1.099,73.333,228282.000,1.000
7.121,1.656,-0.316,1.928,1.027,4.292,8.683,52.382,-0.002,0.983,-0.114,-0.275,-1.068,1.038,73.333,228283.000,1.000
7.445,1.655,-1.061,2.575,2.070,5.330,10.551,55.103,-0.002,0.984,-0.113,-0.275,-0.977,1.099,73.333,228284.000,1.000
8.552,2.946,-0.684,3.694,3.746,8.440,13.599,58.570,-0.002,0.982,-0.115,-0.244,-0.977,1.068,73.333,228285.000,1.000
9.775,5.029,0.552,4.800,5.758,12.203,16.742,61.956,-0.004,0.981,-0.115,-0.275,-0.977,0.946,73.333,228286.000,1.000
10.399,7.089,2.102,5.506,7.748,15.326,19.695,64.856,-0.005,0.981,-0.114,-0.244,-0.977,0.946,73.333,228287.000,1.000
10.115,8.481,3.447,5.719,9.487,17.248,22.766,67.375,-0.004,0.980,-0.113,-0.183,-1.038,0.916,73.333,228288.000,1.000
9.126,9.005,4.197,5.527,10.703,18.000,25.906,69.663,-0.005,0.980,-0.112,-0.122,-1.099,0.916,73.333,228289.000,1.000
8.134,8.921,4.340,5.198,11.155,18.019,28.296,71.594,-0.004,0.978,-0.111,-0.153,-1.190,0.885,73.333,228290.000,1.000
7.937,8.689,4.209,4.934,10.634,17.842,28.611,72.271,-0.004,0.977,-0.116,-0.031,-1.160,0.763,73.333,228291.000,1.000
8.803,8.573,4.097,4.537,8.836,17.563,25.414,69.978,-0.005,0.973,-0.115,0.092,-1.068,0.671,73.333,228292.000,1.000
10.504,8.636,4.261,3.802,5.877,16.926,18.207,63.861,-0.006,0.973,-0.115,0.183,-1.129,0.671,73.333,228293.000,1.000
12.524,8.859,4.897,2.835,2.577,15.883,8.970,55.512,-0.004,0.973,-0.116,0.397,-1.038,0.549,73.333,228294.000,1.000
14.351,9.176,6.145,2.068,0.182,14.762,1.548,48.424,-0.004,0.973,-0.115,0.641,-0.977,0.610,73.333,228295.000,1.000
15.564,9.459,7.945,1.879,-0.542,13.660,-1.276,45.478,-0.004,0.973,-0.115,0.732,-1.007,0.519,73.333,228296.000,1.000
15.870,9.581,9.939,2.255,0.108,12.171,0.152,46.829,-0.005,0.973,-0.119,0.854,-0.977,0.427,73.333,228297.000,1.000
15.363,9.562,11.735,2.964,1.260,9.995,3.078,50.255,-0.005,0.972,-0.119,0.977,-1.099,0.458,73.333,228298.000,1.000
14.189,9.276,12.759,3.510,1.820,7.047,4.407,52.853,-0.005,0.975,-0.121,1.190,-1.129,0.580,73.333,228299.000,1.000
12.468,8.423,12.486,3.394,1.034,3.445,2.385,52.854,-0.005,0.975,-0.119,1.312,-1.190,0.519,73.333,228300.000,1.000
10.721,7.123,11.130,2.761,-0.762,-0.061,-2.058,50.823,-0.005,0.975,-0.119,1.587,-1.190,0.519,73.333,228301.000,1.000
9.934,6.114,9.730,2.541,-2.271,-2.254,-5.801,49.141,-0.005,0.974,-0.120,1.678,-1.251,0.671,73.333,228302.000,1.000
11.017,6.182,9.455,3.773,-2.215,-2.332,-6.433,49.827,-0.004,0.977,-0.118,1.831,-1.221,0.641,73.333,228303.000,1.000
13.879,7.444,10.615,6.593,-0.443,-0.507,-4.120,52.724,-0.005,0.979,-0.120,1.923,-1.251,0.732,73.333,228304.000,1.000
17.443,9.367,12.659,10.246,2.254,2.409,-0.554,56.333,-0.007,0.982,-0.119,1.923,-1.251,0.732,73.333,228305.000,1.000
20.318,11.168,14.704,13.662,4.874,5.475,3.069,59.586,-0.008,0.982,-0.120,1.892,-1.251,0.732,73.333,228306.000,1.000
21.402,12.109,15.907,15.847,6.495,7.663,6.368,61.962,-0.007,0.984,-0.118,1.892,-1.251,0.763,73.333,228307.000,1.000
20.473,11.843,15.897,16.343,6.587,8.204,8.705,62.804,-0.011,0.985,-0.115,1.831,-1.343,0.824,73.333,228308.000,1.000
18.074,10.519,14.733,15.280,5.115,6.977,9.071,61.457,-0.013,0.985,-0.116,1.801,-1.556,0.793,73.333,228309.000,1.000
15.135,8.661,12.822,13.314,2.784,4.789,7.252,58.308,-0.013,0.982,-0.115,1.587,-1.526,0.824,73.333,228310.000,1.000
12.606,6.954,10.809,11.436,0.842,3.056,4.406,54.939,-0.010,0.981,-0.115,1.495,-1.770,0.824,73.333,228311.000,1.000
11.107,5.872,9.231,10.488,0.231,2.754,2.047,53.077,-0.007,0.981,-0.118,1.373,-1.831,0.763,73.333,228312.000,1.000
10.836,5.498,8.369,10.796,1.118,3.820,1.052,53.636,-0.008,0.984,-0.119,1.373,-1.862,0.854,73.333,228313.000,1.000
11.341,5.443,7.964,11.838,2.708,5.349,1.587,55.939,-0.007,0.986,-0.120,1.343,-1.953,0.854,73.333,228314.000,1.000
11.808,4.985,7.364,12.515,3.752,6.336,2.916,57.827,-0.006,0.987,-0.122,1.282,-1.953,0.793,73.333,228315.000,1.000
11.641,3.500,6.014,11.853,3.340,6.277,3.576,57.114,-0.006,0.987,-0.122,1.129,-2.045,0.916,73.333,228316.000,1.000
10.765,0.937,3.868,9.595,1.353,5.226,2.410,53.300,-0.003,0.988,-0.122,0.916,-2.045,0.977,73.333,228317.000,1.000
9.737,-1.892,1.666,6.573,-1.316,3.657,-0.337,48.154,-0.001,0.986,-0.124,0.916,-1.862,0.946,73.333,228318.000,1.000
9.171,-3.784,0.374,4.117,-3.405,2.104,-3.016,44.283,-0.001,0.983,-0.124,0.885,-1.862,1.190,73.333,228319.000,1.000
9.254,-3.999,0.518,3.212,-4.056,0.995,-3.994,43.247,-0.002,0.981,-0.126,0.824,-1.770,1.190,73.333,228320.000,1.000
9.771,-2.640,1.980,4.059,-3.201,0.704,-2.829,44.897,-0.004,0.981,-0.125,0.702,-1.801,1.251,73.333,228321.000,1.000
10.342,-0.502,4.139,6.079,-1.557,1.310,-0.485,47.812,-0.006,0.982,-0.123,0.610,-1.648,1.190,73.333,228322.000,1.000
10.762,1.353,6.207,8.261,-0.150,2.320,1.129,50.155,-0.010,0.982,-0.123,0.519,-1.648,1.099,73.333,228323.000,1.000
10.903,2.027,7.323,9.453,0.066,2.795,0.571,50.494,-0.013,0.981,-0.121,0.397,-1.648,1.099,73.333,228324.000,1.000
10.818,1.346,7.035,9.083,-1.081,2.168,-1.835,48.842,-0.011,0.982,-0.121,0.305,-1.740,0.702,73.333,228325.000,1.000
10.739,0.011,5.649,7.555,-2.755,0.780,-4.114,46.824,-0.010,0.979,-0.119,0.275,-1.801,0.702,73.333,228326.000,1.000
10.758,-1.062,3.849,5.680,-3.926,-0.537,-4.371,46.185,-0.009,0.979,-0.121,0.244,-1.862,0.549,73.333,228327.000,1.000
10.929,-1.244,2.435,4.230,-3.936,-0.901,-2.206,47.477,-0.007,0.980,-0.122,0.366,-1.953,0.427,73.333,228328.000,1.000
11.423,-0.200,2.119,3.795,-2.639,0.280,1.578,50.120,-0.008,0.979,-0.121,0.244,-2.045,0.275,73.333,228329.000,1.000
12.508,2.050,3.237,4.711,-0.321,2.774,5.463,53.186,-0.008,0.978,-0.119,0.275,-2.075,0.275,73.333,228330.000,1.000
14.077,4.818,5.286,6.677,2.199,5.284,7.649,55.714,-0.006,0.980,-0.118,0.244,-2.045,0.305,73.333,228331.000,1.000
15.350,6.805,6.956,8.661,3.747,6.235,7.042,56.802,-0.007,0.982,-0.121,0.183,-1.923,0.305,73.333,228332.000,1.000
15.506,6.964,7.100,9.646,3.606,5.063,4.086,56.108,-0.006,0.983,-0.123,0.305,-1.831,0.336,73.333,228333.000,1.000
14.192,5.148,5.379,9.122,1.751,2.399,0.496,53.968,-0.005,0.981,-0.124,0.305,-1.862,0.305,73.333,228334.000,1.000
11.789,2.045,2.401,7.274,-1.223,-0.660,-2.101,50.975,-0.006,0.980,-0.119,0.214,-1.831,0.366,73.333,228335.000,1.000
9.149,-1.312,-0.731,4.775,-4.422,-3.291,-3.207,47.515,-0.006,0.982,-0.118,0.061,-1.770,0.427,73.333,228336.000,1.000
6.969,-4.093,-3.148,2.355,-7.089,-5.190,-3.455,43.854,-0.007,0.980,-0.119,0.061,-1.801,0.488,73.333,228337.000,1.000
5.673,-5.718,-4.386,0.683,-8.553,-6.134,-3.673,40.761,-0.007,0.981,-0.122,-0.031,-1.770,0.610,73.333,228338.000,1.000
5.250,-5.889,-4.470,0.054,-8.492,-5.836,-3.927,39.227,-0.007,0.982,-0.122,-0.092,-1.678,0.763,73.333,228339.000,1.000
5.252,-4.745,-3.791,0.247,-7.151,-4.284,-3.896,39.624,-0.008,0.984,-0.120,-0.122,-1.587,0.793,73.333,228340.000,1.000
4.985,-2.860,-2.926,0.681,-5.286,-1.934,-3.559,41.389,-0.009,0.982,-0.121,-0.183,-1.556,0.854,73.333,228341.000,1.000
3.786,-1.120,-2.589,0.651,-3.941,0.381,-3.384,43.385,-0.010,0.983,-0.118,-0.122,-1.587,1.007,73.333,228342.000,1.000
1.605,-0.310,-3.226,-0.186,-3.842,1.873,-3.966,44.725,-0.009,0.984,-0.120,-0.183,-1.556,1.099,73.333,228343.000,1.000
-0.937,-0.736,-4.777,-1.692,-5.154,2.210,-5.219,45.180,-0.009,0.984,-0.120,-0.244,-1.648,1.221,73.333,228344.000,1.000
-2.906,-2.153,-6.718,-3.377,-7.482,1.638,-6.403,45.018,-0.009,0.983,-0.119,-0.336,-1.556,1.251,73.333,228345.000,1.000
-3.649,-4.008,-8.389,-4.706,-10.129,0.581,-6.753,44.646,-0.008,0.980,-0.120,-0.275,-1.495,1.129,73.333,228346.000,1.000
-3.227,-5.816,-9.389,-5.415,-12.457,-0.866,-5.920,44.426,-0.010,0.981,-0.120,-0.336,-1.495,1.343,73.333,228347.000,1.000
-2.179,-7.380,-9.611,-5.523,-14.024,-2.852,-4.310,44.574,-0.008,0.980,-0.122,-0.366,-1.556,1.373,73.333,228348.000,1.000
-1.240,-8.816,-9.336,-5.426,-14.935,-5.425,-3.208,44.556,-0.008,0.981,-0.121,-0.366,-1.495,1.312,73.333,228349.000,1.000
-0.781,-10.214,-8.931,-5.542,-15.593,-8.192,-4.283,43.220,-0.006,0.981,-0.120,-0.366,-1.526,1.465,73.333,228350.000,1.000
-0.527,-11.321,-8.476,-5.808,-16.182,-10.510,-8.109,40.070,-0.006,0.981,-0.120,-0.336,-1.404,1.526,73.333,228351.000,1.000
0.068,-11.768,-7.854,-5.741,-16.612,-12.161,-13.467,35.942,-0.007,0.980,-0.123,-0.427,-1.282,1.465,73.333,228352.000,1.000
1.522,-11.341,-6.834,-4.773,-16.540,-13.325,-18.305,32.459,-0.004,0.979,-0.122,-0.336,-1.251,1.587,73.333,228353.000,1.000
4.045,-10.027,-5.279,-2.715,-15.584,-13.973,-20.653,31.081,-0.003,0.979,-0.122,-0.366,-1.221,1.587,73.333,228354.000,1.000
7.559,-7.899,-3.082,0.325,-13.318,-13.522,-19.139,32.763,-0.002,0.978,-0.121,-0.366,-1.068,1.526,73.333,228355.000,1.000
11.663,-5.101,-0.259,3.989,-9.674,-11.523,-13.904,37.413,-0.003,0.981,-0.122,-0.275,-0.977,1.678,73.333,228356.000,1.000
15.430,-2.151,2.623,7.311,-5.699,-8.755,-7.532,43.022,-0.002,0.982,-0.121,-0.305,-0.977,1.678,73.333,228357.000,1.000
17.784,0.123,4.628,9.027,-3.113,-6.902,-3.807,46.590,-0.002,0.980,-0.120,-0.305,-0.793,1.678,73.333,228358.000,1.000
18.013,1.048,5.052,8.404,-3.035,-7.094,-4.654,46.415,-0.003,0.979,-0.119,-0.305,-0.671,1.709,73.333,228359.000,1.000
16.290,0.641,4.057,5.909,-5.053,-8.896,-9.045,43.142,-0.004,0.979,-0.121,-0.275,-0.549,1.648,73.333,228360.000,1.000
13.662,-0.257,2.599,2.977,-7.539,-10.641,-14.184,38.839,-0.003,0.979,-0.123,-0.275,-0.519,1.587,73.333,228361.000,1.000
11.469,-0.478,1.764,1.113,-8.745,-10.510,-17.067,35.672,-0.003,0.980,-0.122,-0.244,-0.427,1.587,73.333,228362.000,1.000
10.795,0.746,2.270,1.249,-7.632,-7.628,-15.980,35.085,-0.004,0.980,-0.123,-0.336,-0.427,1.495,73.333,228363.000,1.000
11.750,3.158,3.963,3.201,-4.628,-3.001,-11.683,36.960,-0.007,0.979,-0.122,-0.458,-0.244,1.495,73.333,228364.000,1.000
13.390,5.494,5.835,5.744,-1.498,0.796,-7.368,39.391,-0.005,0.980,-0.122,-0.580,-0.214,1.495,73.333,228365.000,1.000
14.435,6.326,6.665,7.312,-0.187,1.464,-6.217,39.890,-0.005,0.983,-0.124,-0.549,-0.214,1.312,73.333,228366.000,1.000
14.149,5.164,5.873,6.948,-1.404,-1.219,-8.676,37.434,-0.006,0.984,-0.121,-0.549,-0.122,1.373,73.333,228367.000,1.000
12.935,3.017,4.195,5.080,-3.906,-5.149,-12.568,33.454,-0.008,0.983,-0.125,-0.488,-0.153,1.312,73.333,228368.000,1.000
11.837,1.667,3.119,3.124,-5.529,-7.493,-15.006,30.627,-0.008,0.985,-0.124,-0.549,-0.122,1.190,73.333,228369.000,1.000
11.779,2.384,3.795,2.482,-4.674,-6.423,-13.916,31.124,-0.007,0.984,-0.121,-0.610,-0.122,1.160,73.333,228370.000,1.000
13.018,5.163,6.277,3.627,-1.228,-1.838,-8.816,35.376,-0.007,0.983,-0.121,-0.793,-0.122,1.190,73.333,228371.000,1.000
15.006,8.874,9.565,5.842,3.457,4.758,-1.224,41.751,-0.008,0.985,-0.120,-0.793,-0.092,1.129,73.333,228372.000,1.000
16.950,12.158,12.481,7.983,7.640,11.086,5.975,47.635,-0.009,0.985,-0.120,-0.916,-0.061,1.099,73.333,228373.000,1.000
18.200,14.138,14.203,9.203,10.056,15.120,10.424,51.041,-0.011,0.985,-0.119,-0.977,-0.122,1.129,73.333,228374.000,1.000
18.514,14.618,14.490,9.321,10.416,16.015,11.426,51.660,-0.010,0.986,-0.119,-1.099,-0.092,1.099,73.333,228375.000,1.000
18.005,13.942,13.588,8.616,9.240,14.308,9.592,50.516,-0.011,0.984,-0.116,-1.099,-0.244,1.129,73.333,228376.000,1.000
16.806,12.599,11.827,7.341,7.198,11.233,6.058,48.684,-0.010,0.985,-0.117,-1.068,-0.244,1.129,73.333,228377.000,1.000
15.006,10.906,9.456,5.635,4.840,7.958,2.069,46.593,-0.010,0.985,-0.121,-1.221,-0.214,1.251,73.333,228378.000,1.000
12.708,9.002,6.632,3.564,2.486,5.173,-1.127,44.224,-0.011,0.983,-0.121,-1.221,-0.305,1.221,73.333,228379.000,1.000
10.498,7.268,3.851,1.484,0.536,3.320,-2.761,41.780,-0.011,0.982,-0.119,-1.251,-0.427,1.312,73.333,228380.000,1.000
9.421,6.507,2.048,0.110,-0.438,2.820,-2.763,39.855,-0.013,0.981,-0.117,-1.312,-0.427,1.251,73.333,228381.000,1.000
10.216,7.436,1.990,0.056,-0.040,3.840,-1.398,39.146,-0.012,0.982,-0.117,-1.404,-0.427,1.343,73.333,228382.000,1.000
12.902,10.185,3.843,1.521,1.813,6.229,0.957,40.188,-0.013,0.983,-0.116,-1.434,-0.397,1.343,73.333,228383.000,1.000
16.606,14.033,6.842,3.910,4.537,9.370,3.496,42.614,-0.013,0.982,-0.115,-1.404,-0.488,1.434,73.333,228384.000,1.000
19.958,17.566,9.622,6.065,7.044,12.043,4.909,45.153,-0.011,0.980,-0.115,-1.373,-0.580,1.434,73.333,228385.000,1.000
21.821,19.383,11.033,7.060,8.448,12.951,4.744,46.989,-0.010,0.980,-0.115,-1.404,-0.549,1.434,73.333,228386.000,1.000
21.840,18.880,10.716,6.749,8.524,11.702,4.141,48.451,-0.012,0.979,-0.117,-1.343,-0.671,1.495,73.333,228387.000,1.000
20.771,16.641,9.329,5.768,7.703,9.137,4.068,49.888,-0.010,0.980,-0.116,-1.312,-0.641,1.678,73.333,228388.000,1.000
19.979,14.083,7.989,4.855,6.480,6.472,4.006,50.451,-0.010,0.978,-0.117,-1.312,-0.671,1.740,73.333,228389.000,1.000
20.737,12.665,7.668,4.497,5.285,4.550,3.098,49.027,-0.010,0.978,-0.116,-1.221,-0.671,1.831,73.333,228390.000,1.000
23.611,13.141,8.793,4.977,4.506,3.712,1.498,45.730,-0.010,0.980,-0.113,-1.160,-0.763,1.953,73.333,228391.000,1.000
28.150,15.167,11.060,6.311,4.204,3.895,-0.116,41.726,-0.008,0.980,-0.115,-1.068,-0.793,1.923,73.333,228392.000,1.000
33.312,17.695,13.799,8.319,4.255,4.891,-1.338,38.397,-0.008,0.981,-0.113,-1.068,-0.824,1.923,73.333,228393.000,1.000
38.061,19.840,16.416,10.736,4.626,6.479,-1.676,36.907,-0.008,0.981,-0.113,-1.190,-0.793,2.045,73.333,228394.000,1.000
41.979,21.495,18.813,13.455,5.610,8.432,-0.644,37.940,-0.005,0.981,-0.112,-1.068,-0.854,2.014,73.333,228395.000,1.000
45.193,23.055,21.144,16.274,7.362,10.346,1.391,40.983,-0.005,0.981,-0.113,-1.099,-0.763,2.106,73.333,228396.000,1.000
47.896,24.694,23.305,18.629,9.393,11.661,3.242,44.368,-0.006,0.981,-0.113,-1.099,-0.702,2.014,73.333,228397.000,1.000
50.363,26.255,25.138,20.231,11.128,12.214,4.222,46.879,-0.006,0.980,-0.118,-0.977,-0.763,2.167,73.333,228398.000,1.000
52.589,27.314,26.386,21.186,12.107,12.121,4.823,48.467,-0.004,0.978,-0.114,-1.007,-0.793,2.167,73.333,228399.000,1.000
54.186,27.300,26.654,21.600,11.923,11.237,5.398,49.379,-0.003,0.980,-0.114,-0.885,-0.671,2.075,73.333,228400.000,1.000
55.113,26.208,25.971,21.637,10.671,9.636,5.707,49.718,-0.003,0.980,-0.114,-0.824,-0.580,2.136,73.333,228401.000,1.000
56.130,25.039,25.206,21.809,9.381,8.466,6.139,49.986,-0.004,0.979,-0.113,-0.793,-0.641,2.258,73.333,228402.000,1.000
58.210,25.028,25.570,22.779,9.369,9.015,7.496,50.981,-0.004,0.979,-0.113,-0.793,-0.610,2.075,73.333,228403.000,1.000
61.456,26.455,27.480,24.628,10.846,10.901,9.534,52.748,-0.004,0.982,-0.114,-0.763,-0.671,1.984,73.333,228404.000,1.000
65.097,28.581,30.388,26.891,12.995,12.508,11.061,54.733,-0.004,0.982,-0.113,-0.732,-0.702,2.197,73.333,228405.000,1.000
68.035,30.386,33.237,28.912,14.887,12.740,11.420,56.662,-0.004,0.982,-0.112,-0.671,-0.671,2.045,73.333,228406.000,1.000
69.215,30.998,34.760,29.891,15.777,11.428,10.717,58.315,-0.004,0.983,-0.110,-0.671,-0.641,2.045,73.333,228407.000,1.000
68.304,30.029,34.215,29.286,15.430,9.074,9.162,59.073,-0.004,0.984,-0.113,-0.702,-0.641,1.923,73.333,228408.000,1.000
65.994,27.957,32.010,27.280,14.309,6.839,7.193,58.366,-0.004,0.983,-0.113,-0.519,-0.732,1.862,73.333,228409.000,1.000
63.740,26.041,29.562,24.894,13.399,6.248,5.446,56.409,-0.004,0.981,-0.111,-0.519,-0.793,1.801,73.333,228410.000,1.000
63.037,25.666,28.351,23.411,13.543,8.254,4.375,54.033,-0.004,0.982,-0.116,-0.549,-0.763,1.831,73.333,228411.000,1.000
64.727,27.678,29.158,23.750,15.071,12.713,4.369,52.206,-0.003,0.980,-0.115,-0.458,-0.702,1.648,73.333,228412.000,1.000
68.726,32.072,32.044,26.258,18.025,18.806,5.968,51.967,-0.004,0.978,-0.115,-0.336,-0.854,1.617,73.333,228413.000,1.000
73.746,37.706,36.128,30.300,21.807,25.103,9.380,53.828,-0.004,0.980,-0.112,-0.214,-0.793,1.434,73.333,228414.000,1.000
77.932,42.612,39.912,34.493,25.206,29.710,13.642,57.281,-0.006,0.976,-0.113,0.000,-0.946,1.434,73.333,228415.000,1.000
80.056,45.143,42.216,37.561,27.140,31.200,17.019,60.991,-0.003,0.977,-0.112,0.214,-1.038,1.343,73.333,228416.000,1.000
79.985,44.810,42.665,38.813,27.161,29.329,18.128,63.217,-0.003,0.977,-0.112,0.366,-1.068,1.190,73.333,228417.000,1.000
78.571,42.436,41.702,38.343,25.674,25.205,16.715,62.855,-0.005,0.975,-0.113,0.458,-1.068,1.190,73.333,228418.000,1.000
77.131,39.694,40.209,36.831,23.554,20.803,13.857,60.339,-0.006,0.976,-0.115,0.671,-1.221,1.068,73.333,228419.000,1.000
77.089,38.346,39.311,35.379,21.845,18.148,11.238,57.443,-0.007,0.974,-0.115,0.824,-1.312,1.007,73.333,228420.000,1.000
79.429,39.508,40.032,35.133,21.478,18.531,10.352,56.119,-0.006,0.975,-0.115,1.007,-1.312,1.038,73.333,228421.000,1.000
83.834,42.991,42.472,36.493,22.637,21.811,11.779,57.216,-0.006,0.976,-0.114,1.160,-1.373,0.977,73.333,228422.000,1.000
88.824,47.396,45.650,38.911,24.680,26.447,14.806,60.259,-0.006,0.977,-0.113,1.495,-1.526,0.916,73.333,228423.000,1.000
92.738,50.973,48.141,41.290,26.512,30.176,17.842,63.849,-0.007,0.978,-0.113,1.617,-1.770,0.977,73.333,228424.000,1.000
94.652,52.456,48.950,42.591,27.115,30.945,18.801,66.052,-0.006,0.979,-0.110,1.740,-1.953,0.916,73.333,228425.000,1.000
94.541,51.464,47.901,42.227,25.883,27.849,16.006,65.159,-0.006,0.979,-0.107,1.862,-1.923,0.732,73.333,228426.000,1.000
93.103,48.571,45.663,40.432,22.964,21.644,9.526,60.902,-0.005,0.981,-0.110,1.984,-1.953,0.641,73.333,228427.000,1.000
91.545,44.975,43.468,38.252,19.346,14.378,1.288,54.813,-0.003,0.982,-0.109,1.984,-2.014,0.702,73.333,228428.000,1.000
90.527,41.594,42.024,36.446,15.924,8.174,-5.982,48.964,-0.004,0.983,-0.109,1.953,-2.075,0.702,73.333,228429.000,1.000
89.816,38.790,41.227,35.043,13.164,4.585,-9.892,44.941,-0.003,0.984,-0.110,1.892,-2.106,0.824,73.333,228430.000,1.000
88.997,36.888,40.850,33.921,11.462,4.560,-9.092,43.596,-0.005,0.986,-0.111,1.862,-1.984,0.916,73.333,228431.000,1.000
87.935,36.190,40.775,33.028,10.921,7.817,-4.174,44.691,-0.002,0.987,-0.110,1.862,-1.923,0.977,73.333,228432.000,1.000
86.949,36.681,40.972,32.377,11.203,12.312,2.092,47.104,-0.001,0.989,-0.113,1.831,-1.984,1.038,73.333,228433.000,1.000
86.635,38.082,41.483,32.060,11.801,15.317,6.505,49.603,0.000,0.989,-0.113,1.740,-1.923,1.221,73.333,228434.000,1.000
87.497,40.057,42.433,32.311,12.570,15.657,7.511,51.439,-0.002,0.987,-0.111,1.678,-1.984,1.343,73.333,228435.000,1.000
89.208,42.043,43.645,33.088,13.506,14.198,5.710,52.238,-0.002,0.989,-0.108,1.648,-2.045,1.373,73.333,228436.000,1.000
90.452,43.161,44.412,33.740,14.199,12.309,2.841,51.734,-0.005,0.986,-0.112,1.587,-1.984,1.373,73.333,228437.000,1.000
90.072,42.908,44.235,33.643,14.205,11.004,0.641,50.008,-0.007,0.985,-0.113,1.434,-1.953,1.312,73.333,228438.000,1.000
87.968,41.645,43.259,32.782,13.408,10.901,0.318,47.638,-0.009,0.981,-0.112,1.373,-1.984,1.282,73.333,228439.000,1.000
85.260,40.401,42.249,31.934,12.208,12.185,1.982,45.702,-0.007,0.982,-0.111,1.343,-2.136,1.221,73.333,228440.000,1.000
83.571,40.226,42.121,32.155,11.221,14.296,4.452,45.192,-0.007,0.980,-0.113,1.373,-2.197,1.312,73.333,228441.000,1.000
83.697,41.287,43.028,33.701,10.519,15.757,5.745,45.879,-0.008,0.982,-0.114,1.434,-2.258,1.160,73.333,228442.000,1.000
85.022,42.571,44.034,35.595,9.537,15.122,4.325,46.258,-0.006,0.984,-0.114,1.343,-2.319,1.099,73.333,228443.000,1.000
86.100,42.801,43.854,36.347,7.798,12.391,0.905,45.002,-0.005,0.981,-0.111,1.404,-2.350,1.251,73.333,228444.000,1.000
86.242,41.838,42.376,35.478,5.981,9.386,-1.587,42.485,-0.006,0.978,-0.114,1.373,-2.319,1.160,73.333,228445.000,1.000
86.030,40.745,40.772,33.846,5.451,8.043,-0.805,40.368,-0.006,0.977,-0.115,1.343,-2.380,1.099,73.333,228446.000,1.000
86.364,40.581,40.151,32.629,6.815,8.587,3.049,40.403,-0.004,0.974,-0.120,1.312,-2.441,1.099,73.333,228447.000,1.000
87.846,41.870,41.037,32.746,9.873,10.277,8.376,43.856,-0.003,0.969,-0.120,1.373,-2.472,1.251,73.333,228448.000,1.000
90.242,44.367,43.125,34.243,13.686,12.570,13.416,50.145,-0.001,0.965,-0.123,1.526,-2.441,1.251,73.333,228449.000,1.000
92.384,46.820,45.273,36.119,16.636,14.825,16.075,56.267,0.000,0.965,-0.120,1.709,-2.441,1.221,73.333,228450.000,1.000
93.071,47.750,46.326,37.230,17.326,15.997,14.709,58.765,-0.001,0.964,-0.125,1.801,-2.380,1.251,73.333,228451.000,1.000
91.875,46.412,45.801,37.051,15.338,15.048,9.020,55.843,-0.002,0.967,-0.126,2.136,-2.289,1.251,73.333,228452.000,1.000
89.282,43.008,43.938,35.736,11.293,11.731,-0.002,48.113,-0.001,0.969,-0.125,2.380,-2.319,1.251,73.333,228453.000,1.000
86.332,38.530,41.440,33.919,6.460,7.009,-9.913,38.296,0.000,0.976,-0.124,2.594,-2.258,1.221,73.333,228454.000,1.000
84.172,34.391,39.275,32.562,2.442,2.652,-17.233,30.167,0.000,0.984,-0.122,2.533,-2.258,1.251,73.333,228455.000,1.000
83.507,31.860,38.277,32.468,0.629,0.382,-18.804,26.933,-0.001,0.990,-0.122,2.319,-2.045,1.221,73.333,228456.000,1.000
84.386,31.662,38.804,33.757,1.536,1.065,-13.679,29.636,-0.001,0.993,-0.121,2.197,-1.953,1.312,73.333,228457.000,1.000
86.383,33.812,40.660,35.819,4.535,4.294,-4.444,36.318,-0.004,0.994,-0.120,1.892,-1.862,1.404,73.333,228458.000,1.000
88.408,37.401,42.859,37.393,7.882,8.474,4.048,42.784,-0.007,0.993,-0.118,1.556,-1.862,1.373,73.333,228459.000,1.000
89.174,40.990,44.148,37.298,9.740,11.721,7.669,45.263,-0.010,0.994,-0.119,1.190,-1.923,1.312,73.333,228460.000,1.000
88.166,43.554,43.983,35.295,9.424,13.050,5.439,42.803,-0.011,0.994,-0.120,1.007,-2.075,1.068,73.333,228461.000,1.000
85.836,44.867,42.712,32.175,7.666,12.925,0.086,37.546,-0.011,0.995,-0.121,0.671,-2.167,0.977,73.333,228462.000,1.000
83.199,45.167,41.100,29.309,6.034,12.812,-3.723,33.306,-0.010,0.995,-0.120,0.427,-2.350,0.793,73.333,228463.000,1.000
81.108,44.635,39.615,27.721,5.574,13.650,-3.011,32.838,-0.010,0.993,-0.119,0.153,-2.319,0.580,73.333,228464.000,1.000
79.824,43.109,38.147,27.387,5.918,14.574,0.547,35.621,-0.010,0.990,-0.117,-0.031,-2.594,0.458,73.333,228465.000,1.000
78.818,40.201,36.110,27.216,5.617,13.568,2.281,38.397,-0.007,0.988,-0.116,-0.275,-2.655,0.427,73.333,228466.000,1.000
77.185,35.931,33.020,25.971,3.579,9.697,-0.761,38.160,-0.008,0.989,-0.116,-0.427,-2.686,0.427,73.333,228467.000,1.000
74.877,31.488,29.482,23.634,0.477,4.515,-7.514,34.786,-0.008,0.988,-0.116,-0.641,-2.686,0.397,73.333,228468.000,1.000
72.846,28.724,26.852,21.284,-1.928,0.682,-14.363,30.580,-0.008,0.984,-0.120,-0.763,-2.686,0.427,73.333,228469.000,1.000
72.115,28.774,26.085,19.998,-2.299,-0.034,-17.732,28.204,-0.008,0.983,-0.118,-0.732,-2.686,0.458,73.333,228470.000,1.000
72.952,31.417,27.144,20.170,-0.393,2.713,-15.567,29.239,-0.007,0.984,-0.115,-0.732,-2.655,0.336,73.333,228471.000,1.000
74.667,35.355,29.116,21.392,2.886,7.716,-8.693,33.216,-0.006,0.985,-0.116,-0.732,-2.655,0.458,73.333,228472.000,1.000
76.163,38.908,30.853,22.926,6.058,12.449,-1.191,37.686,-0.008,0.986,-0.117,-0.854,-2.716,0.458,73.333,228473.000,1.000
76.334,40.601,31.332,24.122,7.789,14.419,2.561,40.044,-0.007,0.985,-0.114,-1.007,-2.777,0.549,73.333,228474.000,1.000
74.534,39.633,30.016,24.715,7.619,12.793,1.361,39.659,-0.007,0.983,-0.113,-1.007,-2.716,0.580,73.333,228475.000,1.000
71.183,36.418,27.329,24.963,6.141,8.735,-2.601,37.924,-0.007,0.983,-0.113,-1.068,-2.625,0.732,73.333,228476.000,1.000
67.617,32.449,24.496,25.344,4.372,4.256,-6.385,36.487,-0.006,0.985,-0.111,-1.190,-2.655,0.732,73.333,228477.000,1.000
65.076,29.244,22.673,26.069,3.095,0.897,-8.425,36.039,-0.007,0.982,-0.113,-1.343,-2.655,0.793,73.333,228478.000,1.000
63.643,27.398,22.068,26.739,2.553,-0.723,-8.296,36.455,-0.007,0.981,-0.112,-1.343,-2.563,0.916,73.333,228479.000,1.000
62.701,26.811,22.311,26.878,3.003,-0.164,-5.874,37.527,-0.007,0.978,-0.116,-1.465,-2.594,0.793,73.333,228480.000,1.000
62.001,27.360,23.230,26.525,4.946,3.207,-1.155,39.156,-0.008,0.973,-0.117,-1.434,-2.502,0.885,73.333,228481.000,1.000
61.732,28.704,24.705,25.948,8.223,8.922,4.976,40.886,-0.007,0.970,-0.118,-1.282,-2.502,0.854,73.333,228482.000,1.000
62.202,30.033,26.451,25.301,11.649,14.689,10.302,41.903,-0.006,0.970,-0.117,-0.916,-2.533,0.885,73.333,228483.000,1.000
63.603,30.652,28.218,24.612,13.781,17.893,12.605,41.568,-0.005,0.971,-0.116,-0.610,-2.533,0.824,73.333,228484.000,1.000
65.812,30.407,29.960,23.917,13.858,17.269,10.924,39.748,-0.005,0.972,-0.115,-0.427,-2.441,0.702,73.333,228485.000,1.000
67.991,29.221,31.325,22.966,11.667,12.858,5.674,36.510,-0.005,0.975,-0.115,-0.336,-2.319,0.671,73.333,228486.000,1.000
68.822,26.764,31.513,21.213,7.223,5.344,-1.771,32.002,-0.004,0.974,-0.118,-0.336,-2.258,0.885,73.333,228487.000,1.000
67.754,23.175,30.291,18.672,1.359,-3.821,-9.693,26.893,-0.005,0.971,-0.122,-0.275,-2.136,0.824,73.333,228488.000,1.000
65.639,19.783,28.618,16.371,-4.071,-12.196,-16.233,22.435,-0.006,0.965,-0.123,-0.153,-2.045,0.946,73.333,228489.000,1.000
64.212,18.604,28.118,15.831,-6.854,-17.032,-19.620,20.067,-0.005,0.963,-0.122,0.092,-1.923,0.977,73.333,228490.000,1.000
64.453,20.611,29.514,17.695,-5.921,-16.999,-18.945,20.521,-0.005,0.968,-0.120,0.580,-1.953,0.916,73.333,228491.000,1.000
65.515,24.638,31.737,20.946,-2.270,-13.095,-14.931,23.054,-0.005,0.976,-0.120,0.763,-1.831,0.946,73.333,228492.000,1.000
65.828,28.471,33.135,23.953,2.153,-7.484,-9.499,26.085,-0.007,0.981,-0.114,0.854,-1.770,0.977,73.333,228493.000,1.000
64.425,30.382,32.710,25.585,5.663,-2.491,-4.567,28.401,-0.004,0.984,-0.114,0.793,-1.709,1.007,73.333,228494.000,1.000
61.500,29.738,30.546,25.704,7.431,-0.371,-1.766,29.845,-0.002,0.984,-0.114,0.488,-1.556,1.099,73.333,228495.000,1.000
58.420,27.200,27.835,25.238,7.813,-2.212,-2.005,31.070,-0.001,0.985,-0.117,0.427,-1.434,1.129,73.333,228496.000,1.000
56.831,24.276,26.218,25.489,8.057,-6.597,-4.477,32.755,0.000,0.983,-0.120,0.305,-1.312,1.282,73.333,228497.000,1.000
57.535,22.314,26.729,27.205,9.464,-10.207,-6.890,35.182,-0.002,0.983,-0.120,0.305,-1.221,1.221,73.333,228498.000,1.000
59.869,21.554,28.913,29.903,12.159,-10.571,-7.412,37.936,-0.004,0.984,-0.122,0.397,-1.221,1.221,73.333,228499.000,1.000
62.129,20.898,30.997,32.067,14.711,-8.045,-6.472,39.845,-0.005,0.985,-0.118,0.366,-1.099,1.190,73.333,228500.000,1.000
62.617,18.910,31.147,32.220,15.162,-4.836,-5.904,39.626,-0.006,0.989,-0.117,0.305,-0.977,1.068,73.333,228501.000,1.000
60.719,15.392,28.939,30.114,12.614,-2.620,-6.784,36.786,-0.006,0.990,-0.116,0.092,-0.946,1.129,73.333,228502.000,1.000
57.295,11.800,25.751,26.975,7.975,-1.583,-8.782,32.077,-0.007,0.991,-0.115,0.000,-0.854,0.977,73.333,228503.000,1.000
53.790,10.007,23.490,24.349,2.985,-1.379,-10.797,27.088,-0.008,0.988,-0.116,-0.183,-0.702,1.007,73.333,228504.000,1.000
51.213,10.706,23.066,22.923,-1.087,-2.224,-12.138,23.216,-0.007,0.985,-0.121,-0.397,-0.763,0.793,73.333,228505.000,1.000
49.385,12.674,23.573,21.894,-4.384,-5.072,-13.299,20.322,-0.007,0.984,-0.117,-0.427,-0.732,0.610,73.333,228506.000,1.000
47.167,13.729,23.022,19.619,-8.097,-10.643,-15.429,16.805,-0.007,0.985,-0.120,-0.580,-0.610,0.610,73.333,228507.000,1.000
43.902,12.716,20.418,15.422,-12.732,-18.220,-19.040,11.691,-0.007,0.986,-0.116,-0.519,-0.610,0.580,73.333,228508.000,1.000
39.909,10.151,16.483,10.087,-17.596,-26.022,-23.436,5.609,-0.005,0.990,-0.120,-0.610,-0.488,0.641,73.333,228509.000,1.000
35.912,7.225,12.688,4.882,-21.631,-32.562,-27.614,-0.159,-0.005,0.991,-0.116,-0.641,-0.488,0.732,73.333,228510.000,1.000
32.327,4.639,9.934,0.490,-24.403,-37.537,-31.385,-4.871,-0.007,0.992,-0.117,-0.732,-0.397,0.671,73.333,228511.000,1.000
28.966,2.106,7.954,-3.281,-26.373,-41.669,-35.509,-8.643,-0.006,0.992,-0.118,-0.946,-0.275,0.793,73.333,228512.000,1.000
25.600,-1.041,6.061,-6.664,-27.924,-45.423,-40.358,-11.491,-0.003,0.990,-0.120,-1.160,-0.153,0.916,73.333,228513.000,1.000
22.404,-4.874,4.005,-9.254,-28.728,-48.128,-44.612,-12.640,-0.001,0.989,-0.118,-1.190,-0.122,1.007,73.333,228514.000,1.000
19.650,-8.800,1.892,-10.381,-28.289,-48.603,-46.449,-11.417,-0.003,0.985,-0.116,-1.190,-0.122,1.221,73.333,228515.000,1.000
16.600,-12.635,-0.853,-10.453,-27.247,-46.822,-45.758,-8.736,-0.007,0.984,-0.119,-1.190,0.000,1.373,73.333,228516.000,1.000
11.457,-17.089,-5.581,-11.214,-27.354,-44.506,-44.316,-6.668,-0.010,0.982,-0.117,-1.251,0.031,1.434,73.333,228517.000,1.000
3.568,-22.188,-12.438,-13.679,-29.219,-43.127,-43.543,-6.046,-0.012,0.982,-0.114,-1.221,0.061,1.434,73.333,228518.000,1.000
-5.362,-26.087,-19.408,-16.846,-31.224,-41.948,-42.646,-5.639,-0.014,0.979,-0.119,-1.190,0.092,1.373,73.333,228519.000,1.000
-12.868,-26.538,-24.012,-18.940,-31.114,-38.578,-39.632,-3.730,-0.017,0.980,-0.117,-1.160,-0.122,1.343,73.333,228520.000,1.000
-18.052,-23.146,-25.512,-19.310,-28.148,-31.237,-33.270,0.383,-0.019,0.980,-0.118,-1.251,-0.244,1.343,73.333,228521.000,1.000
-21.973,-17.827,-25.207,-18.750,-23.564,-20.634,-23.996,6.322,-0.018,0.979,-0.118,-1.129,-0.427,1.343,73.333,228522.000,1.000
-26.280,-13.606,-25.142,-18.639,-19.652,-10.195,-14.296,12.737,-0.017,0.979,-0.117,-1.038,-0.580,1.434,73.333,228523.000,1.000
-32.404,-13.425,-27.286,-20.671,-19.209,-4.802,-8.470,16.729,-0.016,0.979,-0.116,-1.038,-0.702,1.465,73.333,228524.000,1.000
-40.784,-18.818,-32.589,-26.062,-24.175,-8.050,-10.494,15.161,-0.018,0.977,-0.119,-1.068,-0.854,1.495,73.333,228525.000,1.000
-49.778,-28.302,-39.639,-33.855,-33.550,-19.459,-20.420,7.871,-0.015,0.975,-0.120,-1.190,-0.977,1.556,73.333,228526.000,1.000
-56.170,-37.809,-45.116,-40.970,-43.614,-34.645,-33.929,-1.864,-0.017,0.978,-0.118,-1.038,-1.129,1.678,73.333,228527.000,1.000
-57.696,-43.731,-46.408,-44.713,-50.787,-48.289,-45.903,-10.531,-0.020,0.978,-0.119,-0.977,-1.282,1.709,73.333,228528.000,1.000
-54.914,-45.198,-43.518,-44.730,-53.864,-56.802,-53.135,-16.831,-0.020,0.980,-0.117,-0.824,-1.495,1.740,73.333,228529.000,1.000
-49.941,-43.217,-37.958,-42.012,-53.239,-59.093,-54.754,-20.696,-0.018,0.985,-0.119,-0.824,-1.678,1.678,73.333,228530.000,1.000
-44.347,-38.864,-30.950,-37.395,-49.608,-56.534,-52.061,-21.877,-0.017,0.984,-0.122,-1.038,-1.862,1.953,73.333,228531.000,1.000
-38.817,-33.007,-23.370,-31.730,-44.174,-52.435,-48.239,-20.689,-0.016,0.982,-0.121,-1.190,-2.014,2.014,73.333,228532.000,1.000
-33.985,-26.894,-16.465,-26.502,-38.927,-50.351,-46.959,-18.817,-0.013,0.981,-0.117,-1.190,-2.197,2.167,73.333,228533.000,1.000
-31.267,-22.315,-12.202,-23.795,-36.103,-52.128,-49.951,-18.484,-0.011,0.983,-0.117,-1.099,-2.319,2.197,73.333,228534.000,1.000
-32.319,-20.844,-12.314,-25.134,-36.798,-56.928,-56.030,-20.833,-0.010,0.987,-0.115,-1.129,-2.319,2.380,73.333,228535.000,1.000
-37.389,-22.562,-16.724,-30.019,-39.966,-61.657,-61.974,-24.873,-0.010,0.992,-0.110,-1.251,-2.441,2.563,73.333,228536.000,1.000
-44.506,-25.714,-23.180,-35.802,-42.945,-62.727,-64.195,-27.766,-0.010,0.992,-0.108,-1.587,-2.472,2.472,73.333,228537.000,1.000
-50.726,-28.195,-28.799,-39.493,-43.344,-58.497,-60.869,-26.763,-0.010,0.992,-0.106,-1.892,-2.563,2.533,73.333,228538.000,1.000
-54.396,-29.316,-32.128,-40.014,-40.917,-50.649,-53.202,-21.572,-0.011,0.989,-0.110,-2.228,-2.533,2.594,73.333,228539.000,1.000
-55.616,-29.596,-33.180,-38.191,-37.004,-42.404,-44.512,-14.269,-0.009,0.986,-0.112,-2.533,-2.563,2.625,73.333,228540.000,1.000
-55.315,-29.418,-32.376,-35.325,-32.727,-35.470,-37.566,-7.199,-0.009,0.982,-0.111,-2.594,-2.502,2.350,73.333,228541.000,1.000
-54.601,-28.613,-30.287,-32.477,-28.403,-29.468,-32.939,-1.537,-0.009,0.984,-0.108,-2.594,-2.502,2.167,73.333,228542.000,1.000
-54.517,-26.998,-27.842,-30.426,-24.044,-23.454,-29.556,2.696,-0.007,0.985,-0.109,-2.594,-2.472,2.075,73.333,228543.000,1.000
-56.190,-25.095,-26.520,-29.946,-20.235,-17.345,-26.147,5.639,-0.007,0.984,-0.109,-2.655,-2.441,2.075,73.333,228544.000,1.000
-60.242,-24.062,-27.613,-31.424,-17.997,-12.345,-22.687,7.083,-0.004,0.981,-0.112,-2.808,-2.380,1.892,73.333,228545.000,1.000
-66.020,-24.834,-31.263,-34.370,-17.999,-10.317,-20.504,6.805,-0.001,0.978,-0.116,-2.716,-2.228,1.770,73.333,228546.000,1.000
-71.937,-27.488,-36.458,-37.755,-20.095,-12.140,-20.898,4.899,0.002,0.975,-0.115,-2.655,-2.167,1.648,73.333,228547.000,1.000
-76.236,-31.041,-41.393,-40.357,-22.962,-16.322,-23.483,2.287,0.001,0.976,-0.114,-2.502,-2.106,1.556,73.333,228548.000,1.000
-77.785,-33.945,-44.274,-41.215,-24.750,-20.034,-26.036,0.511,0.002,0.978,-0.115,-2.441,-1.923,1.465,73.333,228549.000,1.000
-76.483,-35.199,-44.229,-40.164,-24.409,-21.542,-26.653,0.216,0.002,0.981,-0.113,-2.167,-1.801,1.343,73.333,228550.000,1.000
-73.201,-35.026,-41.769,-38.099,-22.575,-21.550,-25.566,0.135,0.000,0.983,-0.115,-2.106,-1.648,1.251,73.333,228551.000,1.000
-69.330,-34.567,-38.478,-36.555,-21.166,-22.401,-24.800,-1.762,0.000,0.984,-0.113,-2.045,-1.373,1.160,73.333,228552.000,1.000
-65.893,-34.844,-35.856,-36.589,-21.757,-25.827,-26.380,-6.149,0.000,0.984,-0.113,-1.953,-1.282,1.038,73.333,228553.000,1.000
-63.223,-36.092,-34.577,-38.194,-24.534,-31.687,-30.530,-11.684,0.000,0.983,-0.111,-1.953,-1.160,0.763,73.333,228554.000,1.000
-61.161,-37.828,-34.411,-40.448,-28.269,-38.254,-35.625,-15.864,0.002,0.984,-0.108,-1.892,-0.977,0.549,73.333,228555.000,1.000
-59.427,-39.143,-34.580,-42.093,-31.070,-42.983,-39.259,-16.445,0.003,0.985,-0.106,-1.740,-0.793,0.336,73.333,228556.000,1.000
-57.726,-38.966,-34.124,-42.059,-31.353,-43.682,-39.365,-12.643,0.003,0.986,-0.107,-1.892,-0.610,0.153,73.333,228557.000,1.000
-55.516,-36.419,-32.093,-39.669,-28.442,-39.625,-35.432,-5.390,0.005,0.988,-0.109,-1.953,-0.366,0.000,73.333,228558.000,1.000
-52.513,-31.536,-28.334,-35.225,-23.228,-32.082,-29.123,2.976,0.004,0.988,-0.108,-2.136,-0.122,-0.122,73.333,228559.000,1.000
-49.262,-25.723,-23.963,-30.231,-17.893,-23.840,-23.635,9.537,0.004,0.986,-0.108,-2.319,0.214,-0.305,73.333,228560.000,1.000
-47.022,-21.113,-20.806,-26.706,-14.553,-17.630,-21.314,12.128,0.003,0.985,-0.106,-2.350,0.488,-0.336,73.333,228561.000,1.000
-47.086,-19.414,-20.302,-26.058,-14.109,-14.801,-21.935,10.561,0.004,0.987,-0.108,-2.533,0.793,-0.458,73.333,228562.000,1.000
-49.774,-21.115,-22.623,-28.210,-16.073,-15.484,-24.089,6.611,0.001,0.985,-0.103,-2.563,0.885,-0.610,73.333,228563.000,1.000
-54.222,-25.365,-26.838,-31.895,-19.448,-19.223,-27.367,2.314,0.002,0.985,-0.105,-2.747,1.160,-0.671,73.333,228564.000,1.000
-58.939,-30.486,-31.582,-35.591,-23.270,-24.789,-32.350,-1.350,0.001,0.986,-0.107,-2.808,1.465,-0.854,73.333,228565.000,1.000
-62.763,-34.936,-35.808,-38.433,-26.815,-30.358,-38.873,-4.327,0.000,0.983,-0.113,-2.869,1.678,-0.916,73.333,228566.000,1.000
-65.366,-37.990,-39.125,-40.466,-29.713,-34.421,-45.413,-6.943,-0.002,0.981,-0.109,-2.930,1.923,-0.977,73.333,228567.000,1.000
-66.788,-39.404,-41.297,-41.965,-31.546,-36.084,-50.082,-9.359,-0.001,0.978,-0.111,-2.838,2.167,-1.221,73.333,228568.000,1.000
-67.112,-38.918,-41.970,-42.915,-31.770,-34.972,-51.297,-11.054,-0.002,0.978,-0.110,-2.625,2.350,-1.282,73.333,228569.000,1.000
-66.300,-36.351,-40.716,-42.754,-29.860,-31.366,-48.211,-10.723,-0.002,0.981,-0.108,-2.472,2.563,-1.312,73.333,228570.000,1.000
-64.429,-32.050,-37.563,-40.883,-25.895,-26.301,-41.447,-7.546,-0.005,0.984,-0.106,-2.380,2.899,-1.282,73.333,228571.000,1.000
-62.339,-27.283,-33.738,-37.739,-21.205,-21.319,-33.682,-2.760,-0.005,0.987,-0.105,-2.350,2.930,-1.312,73.333,228572.000,1.000
-61.316,-23.724,-31.124,-34.774,-17.633,-17.828,-28.620,1.022,-0.004,0.988,-0.103,-2.411,3.052,-1.373,73.333,228573.000,1.000
-62.055,-22.298,-30.907,-33.370,-16.240,-16.550,-28.347,1.877,-0.004,0.985,-0.098,-2.350,3.235,-1.373,73.333,228574.000,1.000
-63.993,-22.684,-32.777,-33.897,-16.754,-17.459,-32.222,-0.209,-0.004,0.983,-0.102,-2.502,3.510,-1.251,73.333,228575.000,1.000
-66.008,-23.996,-35.552,-35.893,-18.313,-20.166,-37.951,-3.682,-0.005,0.985,-0.104,-2.380,3.571,-1.129,73.333,228576.000,1.000
-67.527,-25.620,-38.221,-38.741,-20.338,-24.019,-43.205,-6.788,-0.006,0.982,-0.109,-2.350,3.784,-0.916,73.333,228577.000,1.000
-68.328,-27.046,-39.972,-41.590,-22.234,-27.678,-46.535,-8.660,-0.008,0.979,-0.102,-2.197,3.876,-0.671,73.333,228578.000,1.000
-68.088,-27.524,-40.122,-43.307,-23.147,-29.190,-46.997,-9.203,-0.009,0.976,-0.104,-2.075,3.906,-0.580,73.333,228579.000,1.000
-66.670,-26.650,-38.571,-43.079,-22.515,-27.205,-44.246,-8.466,-0.012,0.974,-0.102,-1.892,3.967,-0.427,73.333,228580.000,1.000
-64.801,-25.161,-36.343,-41.285,-20.929,-22.671,-39.342,-6.807,-0.013,0.970,-0.103,-1.678,3.998,-0.305,73.333,228581.000,1.000
-64.018,-24.662,-35.238,-39.482,-19.961,-18.683,-34.279,-5.090,-0.013,0.961,-0.110,-1.526,4.089,-0.031,73.333,228582.000,1.000
-65.639,-26.384,-36.604,-39.304,-20.880,-17.979,-30.550,-4.089,-0.018,0.955,-0.106,-1.007,3.998,0.214,73.333,228583.000,1.000
-70.011,-30.298,-40.660,-41.626,-24.087,-21.019,-28.783,-4.433,-0.017,0.948,-0.116,-0.702,3.998,0.397,73.333,228584.000,1.000
-76.046,-35.006,-46.292,-46.045,-28.941,-25.847,-29.298,-6.682,-0.020,0.956,-0.111,0.336,3.815,0.427,73.333,228585.000,1.000
-81.455,-38.355,-51.422,-50.928,-33.865,-29.457,-31.969,-10.775,-0.019,0.967,-0.110,0.977,3.571,0.549,73.333,228586.000,1.000
-84.200,-38.975,-54.322,-54.519,-37.409,-30.345,-36.306,-15.909,-0.020,0.976,-0.100,1.648,3.387,0.671,73.333,228587.000,1.000
-83.858,-37.456,-54.783,-56.084,-39.210,-29.629,-41.700,-20.965,-0.016,0.979,-0.104,1.465,3.326,0.946,73.333,228588.000,1.000
-81.743,-35.728,-54.062,-56.101,-39.931,-29.486,-46.725,-24.779,-0.019,0.986,-0.096,1.831,3.265,1.190,73.333,228589.000,1.000
-79.451,-35.164,-53.372,-55.287,-40.083,-30.763,-49.204,-26.160,-0.017,0.987,-0.099,1.617,2.991,1.434,73.333,228590.000,1.000
-77.520,-35.334,-52.644,-53.716,-39.263,-32.014,-47.368,-24.280,-0.020,0.991,-0.096,1.617,2.838,1.862,73.333,228591.000,1.000
-75.515,-34.663,-50.918,-51.005,-36.729,-30.762,-41.122,-19.400,-0.017,0.991,-0.094,1.556,2.594,2.075,73.333,228592.000,1.000
-72.763,-31.955,-47.428,-46.926,-32.286,-25.708,-32.435,-12.925,-0.019,0.987,-0.097,1.312,2.502,2.319,73.333,228593.000,1.000
-69.116,-27.323,-42.443,-41.996,-26.829,-17.965,-24.226,-6.754,-0.019,0.982,-0.095,1.404,2.197,2.441,73.333,228594.000,1.000
-65.065,-22.039,-37.171,-37.364,-21.909,-10.311,-19.013,-2.412,-0.019,0.977,-0.103,1.251,2.228,2.472,73.333,228595.000,1.000
-61.456,-17.649,-33.061,-34.228,-18.857,-5.201,-17.821,-0.605,-0.020,0.975,-0.103,1.587,2.014,2.594,73.333,228596.000,1.000
-59.120,-15.173,-31.139,-33.318,-18.300,-3.614,-20.133,-1.498,-0.016,0.977,-0.104,1.587,1.709,2.472,73.333,228597.000,1.000
-58.426,-14.963,-31.629,-34.595,-20.171,-5.547,-25.112,-5.060,-0.014,0.982,-0.101,1.953,1.587,2.380,73.333,228598.000,1.000
-59.322,-16.927,-34.219,-37.492,-24.110,-10.622,-31.922,-10.848,-0.010,0.984,-0.100,1.953,1.434,2.411,73.333,228599.000,1.000
-61.332,-20.522,-38.118,-41.069,-29.283,-17.705,-39.160,-17.446,-0.009,0.989,-0.097,2.136,1.465,2.319,73.333,228600.000,1.000
-63.584,-24.608,-42.031,-44.196,-34.231,-24.775,-44.823,-22.774,-0.007,0.990,-0.095,2.136,1.373,2.441,73.333,228601.000,1.000
-65.003,-27.517,-44.404,-45.811,-37.225,-29.390,-46.952,-25.020,-0.006,0.994,-0.094,2.014,1.373,2.411,73.333,228602.000,1.000
-64.433,-27.587,-43.850,-44.997,-36.768,-29.489,-44.561,-23.173,-0.004,0.995,-0.094,1.923,1.251,2.380,73.333,228603.000,1.000
-61.663,-24.566,-40.353,-41.857,-32.883,-25.065,-38.588,-17.863,-0.002,0.996,-0.097,1.678,1.343,2.411,73.333,228604.000,1.000
-58.055,-20.334,-35.814,-38.074,-27.697,-18.929,-32.225,-11.733,-0.003,0.996,-0.099,1.648,1.434,2.289,73.333,228605.000,1.000
-55.569,-17.462,-32.761,-35.820,-24.051,-14.715,-28.928,-7.828,-0.003,0.995,-0.098,1.373,1.465,2.197,73.333,228606.000,1.000
-55.240,-17.137,-32.518,-35.982,-23.293,-13.906,-29.251,-6.983,-0.002,0.991,-0.097,1.251,1.465,2.258,73.333,228607.000,1.000
-56.489,-18.632,-34.466,-37.567,-24.387,-15.068,-30.394,-7.159,-0.002,0.989,-0.102,1.007,1.587,2.167,73.333,228608.000,1.000
-57.973,-20.516,-37.034,-39.050,-25.601,-16.246,-29.710,-6.253,-0.004,0.990,-0.100,0.977,1.556,2.167,73.333,228609.000,1.000
-58.466,-21.759,-38.769,-39.619,-26.217,-17.001,-28.072,-4.716,-0.002,0.989,-0.102,0.885,1.617,2.045,73.333,228610.000,1.000
-57.154,-21.700,-38.663,-39.140,-26.343,-17.517,-28.111,-4.496,-0.002,0.992,-0.097,0.793,1.617,2.045,73.333,228611.000,1.000
-53.837,-19.863,-36.317,-37.683,-25.961,-17.168,-30.347,-6.302,-0.003,0.990,-0.100,0.580,1.678,2.075,73.333,228612.000,1.000
-49.106,-16.324,-32.111,-35.291,-24.601,-14.927,-32.568,-8.709,-0.004,0.991,-0.097,0.366,1.678,2.014,73.333,228613.000,1.000
-44.542,-12.116,-27.435,-32.362,-22.098,-10.675,-31.976,-9.653,-0.003,0.989,-0.101,0.214,1.678,1.953,73.333,228614.000,1.000
-41.918,-8.813,-24.018,-29.602,-18.975,-5.432,-27.659,-8.027,-0.005,0.989,-0.097,0.336,1.587,1.984,73.333,228615.000,1.000
-41.964,-7.550,-22.862,-27.605,-16.284,-0.880,-21.453,-4.305,-0.006,0.986,-0.099,0.183,1.495,2.075,73.333,228616.000,1.000
-44.152,-8.602,-24.042,-26.790,-15.406,1.165,-16.763,-0.541,-0.007,0.984,-0.103,0.214,1.404,1.892,73.333,228617.000,1.000
-47.222,-11.538,-26.962,-27.301,-17.211,-0.177,-16.228,0.862,-0.006,0.980,-0.102,0.000,1.404,1.862,73.333,228618.000,1.000
-50.047,-15.573,-30.766,-28.927,-21.375,-4.393,-19.892,-1.032,-0.009,0.981,-0.098,0.153,1.282,1.892,73.333,228619.000,1.000
-51.985,-19.814,-34.478,-31.094,-26.408,-10.242,-25.633,-5.095,-0.009,0.978,-0.100,0.061,1.190,1.923,73.333,228620.000,1.000
-52.869,-23.365,-37.265,-33.230,-30.588,-16.408,-30.858,-9.288,-0.007,0.981,-0.098,0.244,0.977,1.953,73.333,228621.000,1.000
-53.079,-25.738,-38.968,-35.306,-33.182,-21.878,-34.204,-12.348,-0.005,0.981,-0.101,0.214,0.916,1.892,73.333,228622.000,1.000
-53.163,-27.049,-40.019,-37.665,-34.610,-26.048,-36.254,-14.490,-0.006,0.984,-0.101,0.427,0.854,2.167,73.333,228623.000,1.000
-53.310,-27.454,-40.810,-40.363,-35.606,-28.411,-38.023,-16.603,-0.005,0.980,-0.104,0.275,0.793,2.228,73.333,228624.000,1.000
-52.988,-26.561,-40.993,-42.518,-35.988,-28.046,-38.953,-18.516,-0.005,0.982,-0.101,0.397,0.702,2.289,73.333,228625.000,1.000
-51.458,-23.825,-39.763,-42.733,-34.749,-24.136,-37.240,-18.728,-0.003,0.981,-0.103,0.458,0.519,2.228,73.333,228626.000,1.000
-48.719,-19.617,-36.924,-40.397,-31.589,-17.632,-32.600,-16.417,-0.002,0.979,-0.100,0.610,0.610,2.350,73.333,228627.000,1.000
-45.703,-15.463,-33.328,-36.341,-27.679,-11.603,-27.793,-12.918,-0.004,0.975,-0.104,0.793,0.488,2.350,73.333,228628.000,1.000
-43.929,-13.114,-30.502,-32.447,-24.972,-9.172,-26.226,-10.786,-0.004,0.973,-0.104,0.977,0.458,2.289,73.333,228629.000,1.000
-44.445,-13.323,-29.569,-30.263,-24.541,-11.033,-28.744,-11.323,-0.004,0.972,-0.102,1.343,0.366,2.441,73.333,228630.000,1.000
-46.980,-15.446,-30.578,-30.036,-25.846,-15.353,-33.109,-13.455,-0.003,0.974,-0.105,1.526,0.275,2.472,73.333,228631.000,1.000
-50.241,-18.155,-32.809,-31.058,-27.579,-19.746,-36.110,-15.098,-0.003,0.979,-0.104,1.831,0.092,2.533,73.333,228632.000,1.000
-52.796,-20.313,-35.278,-32.442,-28.667,-22.588,-35.984,-15.049,-0.001,0.981,-0.107,1.862,0.092,2.625,73.333,228633.000,1.000
-54.055,-21.436,-37.358,-33.806,-28.979,-23.202,-33.131,-13.772,-0.001,0.988,-0.104,2.014,0.122,2.625,73.333,228634.000,1.000
-54.343,-21.661,-38.912,-35.197,-29.081,-21.832,-29.438,-12.564,0.000,0.985,-0.104,1.801,0.061,2.930,73.333,228635.000,1.000
-54.339,-21.438,-40.046,-36.625,-29.433,-19.480,-26.768,-12.124,0.000,0.984,-0.103,1.953,-0.031,3.052,73.333,228636.000,1.000
-54.596,-21.186,-40.871,-37.846,-29.955,-17.231,-25.720,-12.055,0.002,0.978,-0.100,1.892,0.000,3.174,73.333,228637.000,1.000
-55.231,-21.036,-41.332,-38.467,-30.114,-15.619,-25.871,-11.612,0.001,0.974,-0.102,1.923,0.000,3.265,73.333,228638.000,1.000
-56.228,-21.000,-41.493,-38.446,-29.728,-14.929,-26.757,-10.801,0.002,0.973,-0.104,2.258,-0.122,3.204,73.333,228639.000,1.000
-57.471,-21.143,-41.512,-37.999,-29.110,-15.376,-28.432,-10.400,0.003,0.974,-0.104,2.380,-0.153,3.082,73.333,228640.000,1.000
-58.724,-21.522,-41.495,-37.357,-28.702,-16.803,-31.102,-11.387,0.001,0.978,-0.102,2.686,-0.183,2.869,73.333,228641.000,1.000
-59.820,-22.114,-41.520,-36.788,-28.803,-18.690,-34.380,-14.156,0.003,0.984,-0.108,2.686,-0.153,2.899,73.333,228642.000,1.000
-60.384,-22.541,-41.287,-36.190,-29.007,-20.100,-36.740,-17.391,0.002,0.991,-0.103,2.838,-0.183,2.777,73.333,228643.000,1.000
-60.010,-22.269,-40.409,-35.278,-28.593,-20.022,-36.026,-18.701,0.004,0.991,-0.107,2.625,-0.153,2.930,73.333,228644.000,1.000
-58.753,-21.369,-39.142,-34.262,-27.550,-18.316,-31.656,-16.989,0.006,0.993,-0.105,2.594,-0.061,2.899,73.333,228645.000,1.000
-57.140,-20.548,-38.385,-33.890,-26.808,-16.023,-25.741,-13.524,0.006,0.994,-0.107,2.289,-0.214,3.021,73.333,228646.000,1.000
-55.853,-20.490,-38.952,-34.831,-27.440,-14.556,-21.602,-10.699,0.006,0.995,-0.108,2.197,-0.153,3.113,73.333,228647.000,1.000
-55.365,-21.377,-40.893,-37.083,-29.616,-14.652,-21.497,-10.146,0.004,0.992,-0.107,1.984,-0.153,3.204,73.333,228648.000,1.000
-55.863,-22.857,-43.531,-40.056,-32.552,-16.041,-25.201,-11.955,0.002,0.992,-0.108,1.923,-0.122,3.052,73.333,228649.000,1.000
-56.935,-24.137,-45.664,-42.725,-34.887,-17.644,-30.197,-14.786,-0.002,0.994,-0.105,1.770,-0.153,2.899,73.333,228650.000,1.000
-57.678,-24.345,-46.109,-44.018,-35.394,-18.177,-33.044,-16.604,-0.006,0.997,-0.106,1.740,-0.214,2.594,73.333,228651.000,1.000
-57.485,-23.144,-44.516,-43.466,-33.764,-16.912,-31.337,-15.923,-0.008,0.995,-0.104,1.495,-0.366,2.380,73.333,228652.000,1.000
-56.249,-20.776,-41.283,-41.262,-30.507,-13.980,-25.248,-12.497,-0.009,0.996,-0.103,1.251,-0.610,2.319,73.333,228653.000,1.000
-54.127,-17.633,-37.041,-38.004,-26.463,-10.166,-17.037,-7.096,-0.009,0.996,-0.105,1.129,-0.793,2.289,73.333,228654.000,1.000
-51.347,-14.059,-32.331,-34.268,-22.253,-6.224,-9.309,-0.813,-0.009,0.996,-0.104,0.885,-0.977,2.167,73.333,228655.000,1.000
-48.519,-10.601,-27.876,-30.625,-18.435,-2.587,-3.866,4.857,-0.010,0.995,-0.101,0.732,-1.282,2.014,73.333,228656.000,1.000
-46.735,-8.180,-24.732,-27.836,-15.900,0.122,-1.650,7.909,-0.009,0.993,-0.106,0.519,-1.495,1.862,73.333,228657.000,1.000
-46.540,-7.363,-23.369,-26.230,-15.116,1.301,-2.590,7.358,-0.009,0.992,-0.104,0.427,-1.709,1.770,73.333,228658.000,1.000
-47.482,-7.779,-23.258,-25.439,-15.626,1.034,-5.457,4.199,-0.006,0.991,-0.107,0.214,-1.831,1.648,73.333,228659.000,1.000
-48.755,-8.608,-23.523,-24.947,-16.517,-0.121,-8.894,0.242,-0.005,0.990,-0.104,0.153,-1.984,1.587,73.333,228660.000,1.000
-49.824,-9.149,-23.526,-24.474,-16.973,-1.624,-11.991,-3.055,-0.004,0.989,-0.105,0.153,-2.075,1.587,73.333,228661.000,1.000
-50.499,-8.915,-22.947,-23.840,-16.433,-2.810,-13.745,-4.536,-0.003,0.988,-0.106,-0.031,-2.075,1.587,73.333,228662.000,1.000
-50.627,-7.559,-21.536,-22.684,-14.436,-2.632,-12.841,-3.100,-0.001,0.985,-0.106,-0.122,-2.136,1.526,73.333,228663.000,1.000
-49.984,-4.869,-19.148,-20.675,-10.877,-0.128,-8.314,1.664,-0.001,0.984,-0.104,-0.122,-2.228,1.678,73.333,228664.000,1.000
-48.324,-1.036,-15.963,-17.872,-6.297,4.674,-0.936,8.643,0.000,0.983,-0.105,-0.183,-2.258,1.709,73.333,228665.000,1.000
-45.800,2.908,-12.860,-15.071,-2.073,10.056,6.466,15.280,0.002,0.982,-0.105,-0.183,-2.197,1.678,73.333,228666.000,1.000
-43.309,5.220,-11.345,-13.698,-0.124,13.058,10.193,18.730,0.003,0.980,-0.103,-0.092,-2.228,1.678,73.333,228667.000,1.000
-41.887,4.595,-12.451,-14.786,-1.565,11.483,7.686,17.481,0.001,0.979,-0.109,-0.153,-2.197,1.801,73.333,228668.000,1.000
-41.897,1.353,-15.748,-18.001,-5.595,5.744,-0.217,12.446,0.000,0.976,-0.109,-0.031,-2.197,1.831,73.333,228669.000,1.000
-42.652,-2.612,-19.367,-21.550,-9.683,-1.171,-9.368,6.697,0.001,0.977,-0.111,0.061,-2.106,1.831,73.333,228670.000,1.000
-43.191,-5.266,-21.410,-23.531,-11.400,-5.642,-15.141,3.433,0.001,0.977,-0.108,0.153,-2.075,1.923,73.333,228671.000,1.000
-43.356,-5.850,-21.405,-23.404,-10.173,-5.570,-15.185,3.878,0.000,0.976,-0.104,0.214,-2.045,2.045,73.333,228672.000,1.000
-43.584,-4.898,-20.179,-21.857,-7.098,-1.102,-10.092,7.218,0.000,0.976,-0.106,0.427,-2.136,2.014,73.333,228673.000,1.000
-44.370,-3.607,-19.115,-20.029,-4.063,5.467,-2.519,11.618,0.001,0.973,-0.107,0.549,-2.075,2.136,73.333,228674.000,1.000
-45.931,-3.303,-19.358,-18.875,-2.737,10.725,4.038,15.198,0.003,0.974,-0.112,0.763,-2.014,2.106,73.333,228675.000,1.000
-48.133,-4.743,-21.211,-18.853,-3.672,12.297,7.165,16.793,0.002,0.975,-0.112,0.824,-1.953,2.167,73.333,228676.000,1.000
-50.557,-7.738,-24.117,-19.955,-6.255,10.011,6.561,16.201,0.003,0.975,-0.110,0.946,-1.984,2.106,73.333,228677.000,1.000
-52.390,-11.338,-26.973,-21.748,-9.329,5.138,2.900,13.788,0.002,0.974,-0.107,1.007,-2.014,2.197,73.333,228678.000,1.000
-52.808,-14.367,-28.783,-23.676,-11.998,-0.686,-2.906,10.022,0.003,0.977,-0.109,1.221,-1.984,2.136,73.333,228679.000,1.000
-51.536,-15.951,-29.071,-25.214,-13.685,-5.745,-9.174,5.834,0.003,0.977,-0.109,1.343,-1.953,2.136,73.333,228680.000,1.000
-49.172,-15.903,-28.054,-26.082,-14.064,-8.593,-13.417,2.805,0.001,0.973,-0.111,1.373,-1.984,2.258,73.333,228681.000,1.000
-46.946,-14.746,-26.556,-26.480,-13.288,-8.735,-13.743,2.189,0.001,0.974,-0.113,1.495,-2.045,2.228,73.333,228682.000,1.000
-45.776,-13.262,-25.412,-26.783,-11.873,-6.683,-10.451,3.767,0.002,0.974,-0.115,1.709,-1.923,2.106,73.333,228683.000,1.000
-45.925,-12.035,-25.124,-27.331,-10.607,-3.496,-5.818,5.748,0.002,0.977,-0.115,1.862,-1.862,2.045,73.333,228684.000,1.000
-47.019,-11.082,-25.448,-28.006,-9.806,-0.007,-2.023,6.715,0.003,0.975,-0.111,2.045,-1.953,1.953,73.333,228685.000,1.000
-48.121,-9.698,-25.256,-27.912,-8.718,3.625,0.730,7.317,0.004,0.974,-0.110,2.136,-1.923,1.953,73.333,228686.000,1.000
-48.391,-7.298,-23.610,-26.169,-6.569,7.141,3.224,8.867,0.004,0.976,-0.113,2.136,-1.801,1.953,73.333,228687.000,1.000
-47.845,-4.447,-20.938,-23.060,-3.867,9.444,5.022,11.116,0.004,0.978,-0.114,2.167,-1.862,1.892,73.333,228688.000,1.000
-47.414,-2.581,-18.877,-20.128,-2.255,9.194,4.891,12.433,0.004,0.977,-0.114,2.319,-1.801,1.892,73.333,228689.000,1.000
-47.786,-2.588,-18.618,-18.714,-2.850,6.128,2.537,11.750,0.004,0.979,-0.115,2.380,-1.801,1.953,73.333,228690.000,1.000
-48.768,-4.105,-19.953,-18.912,-5.351,1.493,-1.001,9.338,0.005,0.984,-0.116,2.625,-1.648,1.923,73.333,228691.000,1.000
-49.928,-6.231,-21.972,-20.051,-8.724,-2.772,-4.243,6.043,0.004,0.987,-0.115,2.502,-1.617,1.831,73.333,228692.000,1.000
-50.901,-8.231,-23.767,-21.380,-11.839,-5.007,-6.112,2.745,0.003,0.992,-0.114,2.472,-1.465,1.648,73.333,228693.000,1.000
-51.353,-9.698,-24.810,-22.509,-14.012,-4.682,-6.240,0.040,0.003,0.993,-0.114,2.197,-1.526,1.495,73.333,228694.000,1.000
-50.875,-10.504,-24.961,-23.390,-15.136,-2.742,-5.233,-1.876,0.002,0.991,-0.113,1.862,-1.404,1.404,73.333,228695.000,1.000
-49.171,-10.668,-24.323,-24.087,-15.489,-1.007,-4.303,-3.041,0.002,0.989,-0.113,1.678,-1.404,1.251,73.333,228696.000,1.000
-46.539,-10.429,-23.307,-24.743,-15.594,-1.099,-4.510,-3.692,0.002,0.984,-0.113,1.434,-1.434,1.068,73.333,228697.000,1.000
-43.641,-10.111,-22.271,-25.233,-15.683,-3.317,-6.136,-3.924,0.003,0.983,-0.118,1.343,-1.373,0.946,73.333,228698.000,1.000
-41.053,-9.795,-21.240,-25.149,-15.486,-6.285,-8.317,-3.551,0.003,0.984,-0.114,1.251,-1.373,0.916,73.333,228699.000,1.000
-39.114,-9.428,-20.085,-24.233,-14.598,-7.923,-9.808,-2.532,0.004,0.985,-0.118,1.373,-1.404,0.793,73.333,228700.000,1.000
-37.968,-8.982,-18.791,-22.648,-12.938,-6.994,-9.688,-1.030,0.005,0.988,-0.119,1.434,-1.221,0.732,73.333,228701.000,1.000
-37.474,-8.413,-17.483,-20.835,-10.953,-4.041,-7.763,0.688,0.007,0.992,-0.118,1.312,-1.068,0.763,73.333,228702.000,1.000
-37.055,-7.669,-16.232,-19.210,-9.340,-0.918,-5.097,2.052,0.007,0.993,-0.114,1.221,-1.068,0.732,73.333,228703.000,1.000
-36.072,-6.863,-15.119,-18.150,-8.767,0.478,-3.385,2.212,0.009,0.994,-0.114,0.977,-0.885,0.763,73.333,228704.000,1.000
-34.224,-6.422,-14.338,-17.974,-9.646,-0.901,-3.963,0.543,0.010,0.990,-0.115,0.885,-0.732,0.885,73.333,228705.000,1.000
-31.768,-6.916,-14.275,-19.014,-12.152,-4.970,-7.263,-3.088,0.008,0.987,-0.113,0.702,-0.702,0.977,73.333,228706.000,1.000
-29.251,-8.465,-15.177,-21.360,-15.980,-10.317,-12.227,-7.983,0.007,0.985,-0.111,0.854,-0.610,1.068,73.333,228707.000,1.000
-26.900,-10.331,-16.587,-24.285,-19.839,-14.570,-16.379,-12.266,0.006,0.982,-0.113,0.824,-0.458,1.007,73.333,228708.000,1.000
-24.885,-11.499,-17.821,-26.657,-22.200,-15.961,-17.329,-13.976,0.002,0.980,-0.112,0.854,-0.336,0.916,73.333,228709.000,1.000
-23.586,-11.455,-18.622,-27.748,-22.328,-14.438,-14.881,-12.814,-0.002,0.979,-0.112,0.916,-0.214,0.824,73.333,228710.000,1.000
-23.342,-10.264,-19.124,-27.542,-20.566,-11.255,-11.087,-10.317,-0.005,0.980,-0.116,0.977,-0.336,0.549,73.333,228711.000,1.000
-24.105,-8.311,-19.481,-26.461,-17.910,-7.880,-8.065,-8.190,-0.005,0.981,-0.115,1.068,-0.458,0.397,73.333,228712.000,1.000
-25.137,-5.953,-19.393,-24.709,-15.161,-5.148,-6.344,-6.798,-0.005,0.981,-0.110,1.129,-0.488,0.427,73.333,228713.000,1.000
-25.547,-3.537,-18.462,-22.344,-12.842,-3.393,-5.320,-5.678,-0.006,0.982,-0.108,1.190,-0.763,0.519,73.333,228714.000,1.000
-25.128,-1.737,-16.865,-19.734,-11.464,-3.066,-4.903,-4.737,-0.005,0.981,-0.110,1.312,-0.854,0.488,73.333,228715.000,1.000
-24.582,-1.453,-15.460,-17.674,-11.485,-4.674,-5.682,-4.419,-0.005,0.981,-0.114,1.251,-0.946,0.397,73.333,228716.000,1.000
-24.960,-3.204,-15.260,-17.039,-13.070,-8.064,-7.753,-5.078,-0.006,0.980,-0.112,1.373,-1.099,0.366,73.333,228717.000,1.000
-26.756,-6.591,-16.642,-18.082,-15.730,-12.016,-10.454,-6.410,-0.005,0.981,-0.115,1.465,-1.312,0.366,73.333,228718.000,1.000
-29.805,-10.497,-19.266,-20.313,-18.625,-14.967,-12.929,-7.685,-0.008,0.983,-0.112,1.556,-1.434,0.427,73.333,228719.000,1.000
-33.595,-13.887,-22.480,-22.927,-21.100,-16.146,-14.839,-8.400,-0.006,0.981,-0.108,1.678,-1.495,0.488,73.333,228720.000,1.000
-37.544,-16.413,-25.754,-25.382,-23.013,-15.996,-16.468,-8.715,-0.006,0.979,-0.112,1.617,-1.556,0.580,73.333,228721.000,1.000
-41.069,-18.248,-28.781,-27.545,-24.513,-15.483,-18.067,-9.168,-0.006,0.981,-0.113,1.831,-1.709,0.641,73.333,228722.000,1.000
-43.396,-19.435,-31.139,-29.242,-25.409,-15.035,-19.167,-9.842,-0.008,0.981,-0.111,1.862,-1.831,0.763,73.333,228723.000,1.000
-43.989,-19.788,-32.489,-30.324,-25.482,-14.538,-18.592,-10.321,-0.006,0.980,-0.110,1.923,-1.953,0.916,73.333,228724.000,1.000
-42.893,-19.257,-32.757,-30.783,-24.897,-13.749,-15.658,-10.289,-0.005,0.982,-0.112,1.923,-2.106,0.946,73.333,228725.000,1.000
-40.571,-17.932,-31.953,-30.549,-24.017,-12.412,-11.137,-9.861,-0.003,0.981,-0.111,1.923,-2.258,0.946,73.333,228726.000,1.000
-37.811,-16.080,-30.256,-29.585,-23.240,-10.668,-6.968,-9.504,-0.002,0.979,-0.115,1.862,-2.319,0.977,73.333,228727.000,1.000
-35.584,-14.345,-28.197,-28.170,-22.926,-9.323,-4.989,-9.590,-0.004,0.971,-0.114,1.953,-2.319,1.312,73.333,228728.000,1.000
-34.739,-13.481,-26.569,-26.959,-23.379,-9.294,-5.686,-10.195,-0.005,0.972,-0.114,2.350,-2.319,1.465,73.333,228729.000,1.000
-35.379,-13.597,-25.770,-26.350,-24.349,-10.553,-8.119,-10.998,-0.007,0.978,-0.116,2.655,-2.411,1.556,73.333,228730.000,1.000
-36.796,-13.898,-25.468,-26.029,-24.774,-11.780,-10.430,-11.206,-0.005,0.984,-0.114,2.686,-2.533,1.526,73.333,228731.000,1.000
-38.225,-13.498,-25.146,-25.418,-23.602,-11.434,-10.866,-10.080,-0.003,0.986,-0.114,2.686,-2.625,1.495,73.333,228732.000,1.000
-39.342,-12.315,-24.623,-24.251,-20.678,-9.134,-8.987,-7.547,-0.003,0.987,-0.110,2.563,-2.533,1.373,73.333,228733.000,1.000
-40.285,-11.009,-24.165,-22.846,-17.001,-5.924,-5.832,-4.415,-0.002,0.990,-0.114,2.350,-2.594,1.373,73.333,228734.000,1.000
-41.087,-10.234,-23.999,-21.745,-14.069,-3.383,-3.502,-2.130,0.000,0.989,-0.115,2.136,-2.533,1.434,73.333,228735.000,1.000
-41.234,-9.997,-23.940,-21.277,-12.974,-2.516,-3.771,-1.986,0.001,0.988,-0.117,1.923,-2.594,1.404,73.333,228736.000,1.000
-39.848,-9.600,-23.447,-21.338,-13.721,-3.125,-6.408,-4.012,0.002,0.984,-0.119,1.801,-2.563,1.434,73.333,228737.000,1.000
-36.151,-8.125,-21.882,-21.351,-15.109,-3.962,-9.458,-6.692,0.003,0.979,-0.118,1.801,-2.472,1.465,73.333,228738.000,1.000
-30.194,-5.197,-19.086,-20.742,-15.777,-3.713,-10.798,-8.192,0.002,0.978,-0.119,1.801,-2.350,1.404,73.333,228739.000,1.000
-22.718,-1.238,-15.377,-19.121,-15.010,-1.926,-9.406,-7.649,0.001,0.979,-0.120,1.801,-2.228,1.312,73.333,228740.000,1.000
-14.669,2.852,-11.243,-16.337,-12.905,0.643,-5.688,-5.510,0.002,0.979,-0.119,1.831,-2.258,1.221,73.333,228741.000,1.000
-7.232,5.943,-7.428,-12.802,-10.309,2.475,-1.186,-3.053,0.001,0.979,-0.120,1.831,-2.136,1.251,73.333,228742.000,1.000
-1.541,7.195,-4.662,-9.284,-8.066,2.647,2.247,-1.391,0.002,0.981,-0.119,1.587,-2.045,1.221,73.333,228743.000,1.000
1.816,6.587,-3.274,-6.430,-6.476,1.560,3.706,-0.807,0.001,0.980,-0.121,1.617,-1.984,1.160,73.333,228744.000,1.000
3.118,4.785,-3.022,-4.427,-5.375,0.037,3.327,-0.748,0.002,0.981,-0.116,1.617,-1.984,1.007,73.333,228745.000,1.000
3.323,2.623,-3.323,-3.128,-4.655,-1.803,1.332,-0.580,0.002,0.981,-0.120,1.495,-1.892,1.068,73.333,228746.000,1.000
3.581,0.795,-3.605,-2.371,-4.536,-4.333,-2.525,-0.529,0.002,0.980,-0.122,1.404,-1.740,0.977,73.333,228747.000,1.000
4.926,-0.164,-3.375,-1.964,-5.152,-7.512,-8.392,-1.457,0.001,0.980,-0.123,1.404,-1.648,0.854,73.333,228748.000,1.000
7.779,0.088,-2.454,-1.736,-6.364,-10.699,-15.140,-3.740,0.003,0.979,-0.124,1.556,-1.648,0.854,73.333,228749.000,1.000
11.890,1.662,-0.926,-1.485,-7.710,-12.879,-20.546,-6.573,0.001,0.979,-0.121,1.556,-1.556,0.793,73.333,228750.000,1.000
16.581,4.355,0.934,-1.069,-8.669,-13.076,-22.645,-8.587,0.001,0.980,-0.123,1.556,-1.343,0.702,73.333,228751.000,1.000
20.888,7.480,2.537,-0.623,-9.089,-11.036,-20.813,-8.967,0.001,0.981,-0.119,1.556,-1.221,0.702,73.333,228752.000,1.000
24.061,10.184,3.374,-0.211,-8.951,-7.363,-15.893,-7.642,0.002,0.982,-0.118,1.373,-1.160,0.702,73.333,228753.000,1.000
25.829,11.955,3.330,0.341,-8.235,-3.102,-9.477,-5.020,-0.001,0.982,-0.120,1.373,-1.129,0.641,73.333,228754.000,1.000
26.420,12.713,2.650,1.242,-7.017,0.794,-3.459,-1.870,-0.001,0.981,-0.119,1.282,-1.068,0.610,73.333,228755.000,1.000
26.297,12.602,1.589,2.337,-5.696,3.614,0.361,0.686,-0.002,0.981,-0.118,1.160,-1.007,0.610,73.333,228756.000,1.000
25.859,11.900,0.260,3.132,-4.857,4.894,1.099,1.786,-0.002,0.981,-0.119,1.160,-1.038,0.549,73.333,228757.000,1.000
25.583,11.268,-0.897,3.522,-4.446,4.823,-0.636,1.803,-0.003,0.983,-0.121,1.160,-1.038,0.488,73.333,228758.000,1.000
25.645,11.366,-1.485,3.586,-4.080,4.083,-3.397,1.464,-0.004,0.985,-0.119,1.160,-0.977,0.519,73.333,228759.000,1.000
25.626,12.087,-1.816,2.997,-3.794,3.275,-6.240,0.391,-0.004,0.985,-0.118,1.007,-0.946,0.580,73.333,228760.000,1.000
25.181,12.922,-2.391,1.537,-3.742,2.861,-8.631,-2.066,-0.004,0.987,-0.120,0.824,-1.038,0.610,73.333,228761.000,1.000
24.636,13.639,-3.116,-0.234,-3.749,2.861,-10.086,-5.439,-0.003,0.984,-0.121,0.763,-1.068,0.488,73.333,228762.000,1.000
24.711,14.159,-3.461,-1.319,-3.589,2.396,-10.888,-8.556,-0.005,0.981,-0.120,0.610,-1.099,0.427,73.333,228763.000,1.000
25.665,14.262,-3.219,-1.249,-3.442,0.308,-11.872,-10.569,-0.007,0.980,-0.121,0.549,-1.221,0.458,73.333,228764.000,1.000
27.288,13.953,-2.387,-0.082,-3.251,-3.146,-13.046,-10.746,-0.008,0.980,-0.121,0.549,-1.221,0.488,73.333,228765.000,1.000
29.440,13.945,-0.668,2.178,-2.181,-5.663,-12.878,-8.215,-0.006,0.981,-0.120,0.580,-1.282,0.580,73.333,228766.000,1.000
32.048,15.135,2.188,5.490,0.449,-4.828,-9.875,-3.014,-0.005,0.981,-0.119,0.488,-1.282,0.580,73.333,228767.000,1.000
34.860,17.587,5.832,9.386,4.069,-0.643,-4.893,3.047,-0.005,0.983,-0.120,0.458,-1.251,0.732,73.333,228768.000,1.000
37.278,20.389,9.310,12.939,7.008,4.310,-0.558,7.325,-0.004,0.984,-0.120,0.366,-1.282,0.763,73.333,228769.000,1.000
38.820,22.481,11.840,15.411,8.027,7.203,1.158,8.404,-0.003,0.983,-0.119,0.397,-1.251,0.793,73.333,228770.000,1.000
39.541,23.380,13.283,16.618,7.115,6.851,-0.286,6.536,-0.003,0.983,-0.119,0.275,-1.251,0.854,73.333,228771.000,1.000
39.802,23.167,13.854,16.601,4.843,3.797,-4.768,2.355,-0.003,0.981,-0.120,0.214,-1.312,0.885,73.333,228772.000,1.000
40.091,22.328,14.050,15.666,2.042,-0.202,-11.291,-3.355,-0.003,0.980,-0.118,0.153,-1.282,0.854,73.333,228773.000,1.000
40.779,21.445,14.396,14.382,-0.412,-3.115,-17.544,-9.181,-0.003,0.979,-0.120,0.153,-1.221,0.977,73.333,228774.000,1.000
41.917,20.556,14.964,13.281,-2.078,-4.030,-21.642,-13.520,-0.004,0.980,-0.121,0.122,-1.221,1.038,73.333,228775.000,1.000
43.119,19.032,15.182,12.567,-3.257,-3.727,-23.600,-15.454,-0.003,0.978,-0.121,0.153,-1.282,1.068,73.333,228776.000,1.000
43.761,16.342,14.374,12.181,-4.541,-3.726,-24.430,-14.962,-0.004,0.978,-0.121,0.214,-1.343,1.099,73.333,228777.000,1.000
43.579,12.768,12.564,12.094,-6.087,-4.966,-24.952,-12.759,-0.004,0.979,-0.120,0.305,-1.343,1.221,73.333,228778.000,1.000
42.755,9.242,10.371,12.186,-7.807,-7.498,-25.493,-10.228,-0.001,0.979,-0.119,0.336,-1.190,1.160,73.333,228779.000,1.000
41.892,6.837,8.640,12.397,-9.449,-10.604,-25.851,-8.528,-0.001,0.978,-0.119,0.366,-1.343,1.221,73.333,228780.000,1.000
41.711,6.225,7.959,12.752,-10.624,-13.152,-25.416,-7.914,0.000,0.980,-0.121,0.427,-1.373,1.312,73.333,228781.000,1.000
42.326,7.052,8.009,12.905,-11.349,-14.544,-24.281,-8.537,0.000,0.982,-0.122,0.549,-1.282,1.312,73.333,228782.000,1.000
43.270,8.153,7.900,12.334,-11.973,-15.149,-23.802,-10.704,0.000,0.982,-0.121,0.519,-1.160,1.373,73.333,228783.000,1.000
44.043,8.570,7.066,10.969,-12.661,-15.684,-25.049,-14.014,-0.001,0.982,-0.119,0.458,-1.160,1.404,73.333,228784.000,1.000
44.667,8.290,5.866,9.511,-13.021,-16.312,-27.466,-16.944,0.001,0.985,-0.118,0.397,-1.068,1.434,73.333,228785.000,1.000
45.533,8.026,5.208,8.931,-12.438,-16.629,-29.175,-17.694,0.002,0.984,-0.118,0.336,-0.946,1.373,73.333,228786.000,1.000
46.705,8.345,5.567,9.548,-10.836,-16.461,-28.529,-15.547,0.001,0.984,-0.118,0.244,-0.885,1.343,73.333,228787.000,1.000
47.938,9.300,6.819,11.019,-8.618,-15.965,-25.557,-11.384,0.000,0.983,-0.120,0.183,-0.793,1.343,73.333,228788.000,1.000
48.959,10.677,8.544,12.765,-6.379,-15.217,-21.809,-7.208,0.001,0.982,-0.119,0.153,-0.732,1.251,73.333,228789.000,1.000
49.518,12.020,10.146,14.119,-4.825,-14.280,-19.317,-5.161,0.000,0.981,-0.121,0.244,-0.732,1.282,73.333,228790.000,1.000
49.285,12.611,10.849,14.301,-4.734,-13.386,-19.153,-6.464,0.000,0.981,-0.120,0.275,-0.580,1.251,73.333,228791.000,1.000
48.057,11.997,10.127,12.874,-6.490,-12.727,-20.548,-10.595,0.001,0.984,-0.119,0.305,-0.519,1.343,73.333,228792.000,1.000
46.265,10.631,8.448,10.466,-9.413,-12.178,-21.723,-15.273,0.001,0.984,-0.119,0.397,-0.397,1.312,73.333,228793.000,1.000
44.675,9.543,6.881,8.296,-12.234,-11.559,-21.433,-18.075,0.000,0.984,-0.121,0.366,-0.397,1.312,73.333,228794.000,1.000
43.899,9.390,6.187,7.208,-14.063,-11.009,-20.090,-18.320,0.001,0.983,-0.119,0.397,-0.458,1.373,73.333,228795.000,1.000
44.165,10.073,6.486,7.344,-14.832,-10.911,-19.309,-17.236,0.002,0.981,-0.120,0.336,-0.366,1.434,73.333,228796.000,1.000
45.229,11.089,7.541,8.386,-15.041,-11.411,-20.214,-16.511,0.001,0.981,-0.118,0.397,-0.305,1.404,73.333,228797.000,1.000
46.650,12.035,9.185,9.964,-15.072,-12.130,-22.475,-16.860,0.001,0.983,-0.118,0.336,-0.153,1.282,73.333,228798.000,1.000
47.738,12.553,11.014,11.503,-15.282,-12.938,-25.004,-18.079,0.002,0.983,-0.120,0.336,-0.153,1.251,73.333,228799.000,1.000
47.641,12.117,12.204,12.247,-16.092,-14.553,-27.303,-19.694,0.000,0.984,-0.118,0.427,-0.122,1.221,73.333,228800.000,1.000
45.921,10.508,12.189,11.904,-17.393,-17.549,-29.289,-21.024,0.002,0.985,-0.117,0.427,-0.092,1.190,73.333,228801.000,1.000
42.942,8.301,11.180,10.983,-18.261,-21.171,-30.442,-21.229,-0.001,0.984,-0.116,0.427,-0.061,1.221,73.333,228802.000,1.000
39.715,6.547,9.943,10.387,-17.441,-23.476,-29.895,-19.583,-0.001,0.983,-0.119,0.427,-0.092,1.221,73.333,228803.000,1.000
37.081,6.024,8.991,10.592,-14.392,-22.691,-26.897,-15.835,-0.001,0.983,-0.119,0.305,0.000,1.068,73.333,228804.000,1.000
35.213,6.826,8.308,11.402,-9.745,-18.467,-21.834,-10.696,0.000,0.985,-0.119,0.275,-0.061,1.099,73.333,228805.000,1.000
33.597,8.446,7.479,12.115,-5.082,-12.291,-16.726,-6.094,0.002,0.985,-0.119,0.183,-0.031,1.038,73.333,228806.000,1.000
31.395,10.005,5.921,11.833,-2.204,-6.781,-13.948,-4.163,0.002,0.983,-0.118,0.244,-0.031,1.099,73.333,228807.000,1.000
28.269,10.708,3.416,10.108,-1.925,-3.967,-14.356,-5.559,0.000,0.981,-0.117,0.244,-0.153,1.038,73.333,228808.000,1.000
24.589,10.242,0.200,7.141,-3.771,-4.162,-16.649,-9.090,0.000,0.981,-0.119,0.336,-0.061,1.007,73.333,228809.000,1.000
21.256,8.971,-3.063,3.791,-6.364,-6.211,-18.731,-12.612,-0.002,0.981,-0.119,0.458,-0.061,1.068,73.333,228810.000,1.000
19.376,7.855,-5.351,1.359,-8.194,-8.371,-19.275,-14.318,-0.001,0.979,-0.120,0.458,-0.031,1.099,73.333,228811.000,1.000
19.592,7.736,-5.903,0.791,-8.607,-9.192,-18.122,-13.880,-0.001,0.979,-0.120,0.397,0.000,1.160,73.333,228812.000,1.000
21.676,8.688,-4.776,2.089,-8.059,-8.014,-16.009,-12.525,-0.001,0.979,-0.119,0.397,-0.061,1.160,73.333,228813.000,1.000
24.433,10.036,-2.911,4.287,-7.766,-5.305,-14.143,-12.180,-0.002,0.979,-0.119,0.366,-0.031,1.221,73.333,228814.000,1.000
26.353,10.919,-1.433,6.207,-8.728,-2.568,-13.661,-14.067,-0.005,0.978,-0.120,0.397,-0.092,1.190,73.333,228815.000,1.000
26.563,10.956,-0.870,7.224,-10.888,-1.400,-14.579,-17.719,-0.003,0.977,-0.120,0.336,-0.122,1.190,73.333,228816.000,1.000
25.284,10.503,-0.999,7.404,-13.251,-2.373,-15.777,-21.530,-0.002,0.977,-0.119,0.366,-0.153,1.312,73.333,228817.000,1.000
23.774,10.362,-1.064,7.324,-14.615,-4.731,-16.716,-24.237,-0.001,0.977,-0.119,0.427,-0.092,1.343,73.333,228818.000,1.000
23.468,11.170,-0.381,7.474,-14.553,-7.322,-18.160,-25.905,0.000,0.979,-0.120,0.549,-0.244,1.434,73.333,228819.000,1.000
25.101,12.938,1.312,7.998,-13.452,-9.582,-20.938,-27.288,-0.002,0.980,-0.120,0.519,-0.275,1.434,73.333,228820.000,1.000
28.188,14.975,3.718,8.720,-11.994,-11.666,-24.602,-28.606,-0.003,0.983,-0.120,0.488,-0.305,1.526,73.333,228821.000,1.000
31.128,16.153,5.914,9.149,-10.903,-14.088,-27.858,-29.359,-0.003,0.982,-0.118,0.397,-0.336,1.526,73.333,228822.000,1.000
32.328,15.683,6.946,8.877,-10.547,-17.112,-29.746,-28.772,-0.004,0.980,-0.119,0.214,-0.336,1.495,73.333,228823.000,1.000
31.087,13.730,6.459,7.886,-10.758,-20.259,-29.736,-26.267,-0.004,0.980,-0.119,0.275,-0.275,1.495,73.333,228824.000,1.000
27.766,11.297,4.935,6.700,-10.765,-22.067,-27.529,-21.713,-0.004,0.980,-0.117,0.244,-0.336,1.434,73.333,228825.000,1.000
23.224,9.498,3.120,5.934,-9.744,-20.746,-23.220,-15.678,-0.001,0.978,-0.119,0.214,-0.427,1.434,73.333,228826.000,1.000
17.954,8.598,1.028,5.437,-7.897,-15.856,-17.731,-9.592,0.000,0.980,-0.119,0.214,-0.427,1.343,73.333,228827.000,1.000
12.108,7.847,-1.917,4.443,-6.329,-8.993,-12.621,-4.966,0.000,0.982,-0.121,0.122,-0.488,1.434,73.333,228828.000,1.000
5.903,6.284,-6.061,2.304,-6.132,-2.675,-8.958,-2.614,0.001,0.983,-0.118,0.122,-0.580,1.343,73.333,228829.000,1.000
-0.194,3.434,-11.104,-1.157,-7.767,1.012,-7.308,-2.943,0.003,0.983,-0.119,0.061,-0.549,1.373,73.333,228830.000,1.000
-5.708,-0.531,-16.307,-5.740,-11.109,0.917,-8.260,-6.270,0.002,0.984,-0.116,-0.061,-0.641,1.373,73.333,228831.000,1.000
-10.394,-4.904,-20.830,-10.895,-15.574,-2.902,-11.775,-12.235,0.003,0.982,-0.115,-0.183,-0.549,1.404,73.333,228832.000,1.000
-14.091,-8.622,-23.898,-15.709,-20.147,-8.984,-16.625,-19.465,0.004,0.980,-0.116,-0.275,-0.519,1.495,73.333,228833.000,1.000
-16.907,-10.806,-25.299,-19.536,-24.102,-15.257,-21.161,-26.425,0.006,0.977,-0.119,-0.244,-0.427,1.556,73.333,228834.000,1.000
-19.138,-11.251,-25.418,-22.224,-27.283,-20.100,-24.270,-31.835,0.004,0.972,-0.121,-0.336,-0.427,1.617,73.333,228835.000,1.000
-20.925,-10.330,-24.761,-23.765,-29.693,-22.784,-25.345,-34.559,0.004,0.971,-0.123,-0.122,-0.275,1.526,73.333,228836.000,1.000
-22.336,-8.782,-23.879,-24.335,-31.475,-23.564,-24.578,-34.453,0.006,0.973,-0.125,-0.061,-0.183,1.556,73.333,228837.000,1.000
-23.487,-7.493,-23.342,-24.388,-32.914,-23.349,-23.270,-32.963,0.003,0.977,-0.122,0.031,-0.122,1.495,73.333,228838.000,1.000
-24.760,-7.245,-23.703,-24.570,-34.413,-23.313,-22.761,-32.191,0.004,0.982,-0.123,0.031,-0.122,1.495,73.333,228839.000,1.000
-26.700,-8.515,-25.246,-25.430,-36.340,-24.623,-23.896,-33.468,0.007,0.983,-0.121,0.031,-0.031,1.556,73.333,228840.000,1.000
-29.501,-11.061,-27.649,-27.139,-38.748,-27.863,-27.183,-36.766,0.006,0.987,-0.123,-0.092,0.031,1.587,73.333,228841.000,1.000
-32.690,-13.710,-29.930,-29.274,-41.075,-32.412,-32.273,-40.846,0.004,0.989,-0.120,-0.153,0.214,1.556,73.333,228842.000,1.000
-35.349,-14.893,-30.817,-30.778,-42.030,-36.474,-37.361,-43.638,0.005,0.989,-0.120,-0.336,0.122,1.465,73.333,228843.000,1.000
-36.974,-13.633,-29.577,-30.709,-40.396,-38.010,-39.690,-43.229,0.005,0.987,-0.123,-0.366,0.031,1.465,73.333,228844.000,1.000
-37.730,-10.083,-26.380,-28.852,-35.815,-35.800,-37.438,-38.915,0.001,0.987,-0.121,-0.397,0.092,1.495,73.333,228845.000,1.000
-38.075,-5.281,-22.084,-25.733,-28.946,-29.971,-30.938,-31.493,-0.002,0.987,-0.117,-0.366,0.092,1.343,73.333,228846.000,1.000
-38.557,-0.624,-17.916,-22.352,-21.213,-21.861,-22.290,-22.871,-0.003,0.988,-0.117,-0.427,-0.061,1.160,73.333,228847.000,1.000
-39.667,2.610,-15.006,-19.745,-14.196,-13.393,-14.389,-15.366,-0.006,0.988,-0.115,-0.519,-0.183,0.854,73.333,228848.000,1.000
-41.859,3.595,-14.241,-18.742,-9.323,-6.389,-9.579,-11.000,-0.006,0.989,-0.115,-0.641,-0.366,0.885,73.333,228849.000,1.000
-45.142,2.230,-15.927,-19.543,-7.270,-1.680,-8.352,-10.390,-0.006,0.989,-0.115,-0.824,-0.519,0.702,73.333,228850.000,1.000
-48.773,-0.699,-19.399,-21.482,-7.473,1.367,-8.741,-12.042,-0.007,0.986,-0.118,-0.916,-0.641,0.641,73.333,228851.000,1.000
-51.794,-4.007,-23.363,-23.539,-8.660,4.013,-7.684,-13.501,-0.006,0.985,-0.120,-0.946,-0.824,0.519,73.333,228852.000,1.000
-53.682,-6.931,-26.689,-25.006,-9.851,6.788,-3.925,-13.506,-0.004,0.983,-0.119,-0.977,-0.946,0.397,73.333,228853.000,1.000
-54.702,-9.580,-29.184,-25.959,-11.177,8.726,0.640,-13.129,-0.004,0.983,-0.118,-1.007,-1.007,0.397,73.333,228854.000,1.000
-55.539,-12.706,-31.483,-27.046,-13.598,7.694,2.367,-14.729,-0.004,0.983,-0.114,-0.946,-1.190,0.305,73.333,228855.000,1.000
-56.721,-17.003,-34.323,-28.951,-17.925,1.712,-1.176,-19.926,-0.002,0.982,-0.114,-0.946,-1.312,0.305,73.333,228856.000,1.000
-58.316,-22.482,-37.905,-31.893,-23.983,-9.417,-9.210,-28.368,-0.004,0.984,-0.114,-1.007,-1.373,0.427,73.333,228857.000,1.000
-59.764,-28.232,-41.521,-35.236,-30.218,-23.398,-18.526,-37.809,-0.005,0.983,-0.115,-1.007,-1.373,0.549,73.333,228858.000,1.000
-60.317,-32.863,-43.986,-37.894,-34.560,-36.685,-25.798,-45.476,-0.004,0.983,-0.114,-1.068,-1.404,0.519,73.333,228859.000,1.000
-59.435,-35.240,-44.308,-38.934,-35.558,-46.354,-29.289,-49.409,-0.004,0.979,-0.113,-1.129,-1.556,0.702,73.333,228860.000,1.000
-57.041,-35.001,-42.230,-38.017,-33.108,-51.229,-29.136,-49.126,-0.006,0.979,-0.110,-1.038,-1.617,0.854,73.333,228861.000,1.000
-53.847,-32.748,-38.535,-35.642,-28.568,-52.074,-26.810,-45.681,-0.003,0.977,-0.111,-0.916,-1.678,0.885,73.333,228862.000,1.000
-51.048,-29.637,-34.519,-32.726,-23.768,-50.689,-23.975,-40.696,-0.003,0.977,-0.112,-0.763,-1.740,1.190,73.333,228863.000,1.000
-49.741,-26.650,-31.325,-30.136,-20.049,-48.617,-21.416,-35.358,-0.003,0.979,-0.111,-0.641,-1.831,1.282,73.333,228864.000,1.000
-50.198,-24.034,-29.357,-28.235,-17.633,-46.089,-19.115,-30.050,-0.001,0.980,-0.110,-0.580,-1.862,1.282,73.333,228865.000,1.000
-51.726,-21.281,-28.147,-26.744,-15.629,-41.862,-16.467,-24.545,-0.002,0.981,-0.108,-0.610,-1.862,1.373,73.333,228866.000,1.000
-53.424,-17.950,-27.077,-25.293,-13.133,-34.706,-12.969,-18.853,-0.003,0.982,-0.111,-0.610,-1.892,1.404,73.333,228867.000,1.000
-54.718,-14.327,-25.942,-23.896,-10.152,-25.018,-9.134,-13.635,-0.002,0.980,-0.112,-0.519,-1.892,1.404,73.333,228868.000,1.000
-55.539,-11.166,-25.028,-22.963,-7.499,-14.638,-5.708,-9.556,-0.001,0.980,-0.113,-0.427,-1.831,1.404,73.333,228869.000,1.000
-56.137,-8.985,-24.691,-22.758,-5.693,-5.158,-2.652,-6.586,0.000,0.980,-0.112,-0.305,-1.831,1.343,73.333,228870.000,1.000
-56.860,-7.774,-25.061,-23.095,-4.476,2.996,0.469,-4.290,0.001,0.978,-0.113,-0.244,-1.801,1.373,73.333,228871.000,1.000
-57.989,-7.257,-26.108,-23.614,-3.392,9.982,3.679,-2.346,0.002,0.978,-0.112,-0.153,-1.831,1.343,73.333,228872.000,1.000
-59.304,-7.037,-27.450,-23.881,-2.105,16.050,6.724,-0.227,0.001,0.978,-0.111,-0.092,-1.709,1.312,73.333,228873.000,1.000
-60.303,-6.762,-28.580,-23.668,-0.654,21.307,9.636,2.680,0.001,0.978,-0.111,0.000,-1.831,1.282,73.333,228874.000,1.000
-60.827,-6.577,-29.374,-23.283,0.367,25.351,12.195,6.011,0.002,0.976,-0.115,0.061,-1.648,1.251,73.333,228875.000,1.000
-61.215,-7.051,-30.143,-23.438,0.093,27.375,13.504,8.133,0.003,0.976,-0.117,0.061,-1.526,1.251,73.333,228876.000,1.000
-61.873,-8.537,-31.189,-24.624,-1.900,26.817,12.646,7.421,0.003,0.975,-0.114,0.122,-1.343,1.282,73.333,228877.000,1.000
-62.647,-10.680,-32.290,-26.479,-4.957,23.925,9.444,3.688,0.004,0.976,-0.117,0.275,-1.312,1.221,73.333,228878.000,1.000
-62.834,-12.496,-32.817,-27.982,-7.712,19.775,4.844,-1.750,0.004,0.978,-0.116,0.427,-1.221,1.190,73.333,228879.000,1.000
-61.563,-12.891,-32.095,-28.068,-8.843,15.927,0.457,-6.846,0.004,0.977,-0.115,0.427,-1.038,1.221,73.333,228880.000,1.000
-58.626,-11.489,-30.072,-26.422,-7.923,13.522,-2.318,-9.942,0.005,0.980,-0.116,0.488,-0.854,1.251,73.333,228881.000,1.000
-54.992,-9.086,-27.672,-23.844,-5.711,12.461,-2.883,-10.622,0.004,0.980,-0.119,0.580,-0.702,1.160,73.333,228882.000,1.000
-51.951,-6.896,-25.910,-21.438,-3.177,11.965,-1.527,-9.392,0.005,0.980,-0.118,0.610,-0.671,1.190,73.333,228883.000,1.000
-50.448,-5.727,-25.252,-19.994,-1.000,11.349,0.692,-7.296,0.005,0.980,-0.117,0.610,-0.549,1.160,73.333,228884.000,1.000
-50.981,-5.982,-25.770,-19.904,0.254,10.076,2.046,-5.792,0.005,0.981,-0.120,0.702,-0.427,1.312,73.333,228885.000,1.000
-53.321,-7.562,-27.224,-20.990,0.284,7.976,1.382,-6.007,0.004,0.981,-0.118,0.732,-0.305,1.282,73.333,228886.000,1.000
-56.338,-9.704,-28.985,-22.462,-0.630,5.587,-0.781,-8.037,0.003,0.983,-0.115,0.671,-0.214,1.221,73.333,228887.000,1.000
-58.466,-11.376,-30.182,-23.315,-1.698,3.809,-3.081,-11.086,0.001,0.986,-0.119,0.580,-0.183,1.129,73.333,228888.000,1.000
-58.723,-11.884,-30.249,-23.052,-2.218,3.091,-4.225,-13.929,0.000,0.988,-0.115,0.549,-0.183,1.190,73.333,228889.000,1.000
-57.028,-11.044,-29.084,-21.765,-1.767,3.286,-3.390,-15.218,-0.003,0.985,-0.116,0.397,-0.031,1.190,73.333,228890.000,1.000
-53.944,-9.021,-26.960,-19.883,-0.330,4.007,-0.855,-14.323,-0.003,0.984,-0.113,0.214,-0.092,1.190,73.333,228891.000,1.000
-50.548,-6.353,-24.593,-18.139,1.341,4.701,1.458,-12.331,-0.002,0.983,-0.117,0.183,-0.122,1.099,73.333,228892.000,1.000
