EEG 1,EEG 2,EEG 3,EEG 4,EEG 5,EEG 6,EEG 7,EEG 8,Accelerometer X,Accelerometer Y,Accelerometer Z,Gyroscope X,Gyroscope Y,Gyroscope Z,Battery Level,Counter,Validation Indicator
3.633,5.497,8.490,9.061,5.310,-2.438,-4.500,1.661,-0.043,0.976,-0.156,-1.343,-1.038,0.885,73.333,680433.000,1.000
4.752,3.991,8.894,8.658,3.687,-5.732,-9.704,-0.789,-0.042,0.976,-0.154,-1.221,-1.129,0.946,73.333,680434.000,1.000
5.500,2.607,9.084,7.871,2.319,-8.161,-13.505,-2.119,-0.041,0.976,-0.155,-1.251,-1.282,1.007,73.333,680435.000,1.000
5.076,1.074,8.568,6.407,1.068,-8.824,-14.407,-2.435,-0.040,0.977,-0.155,-1.099,-1.282,0.977,73.333,680436.000,1.000
3.145,-0.750,7.063,4.296,-0.112,-7.616,-11.846,-1.997,-0.039,0.977,-0.153,-1.190,-1.282,1.038,73.333,680437.000,1.000
0.079,-2.701,4.905,2.009,-1.147,-5.562,-6.630,-0.842,-0.038,0.977,-0.153,-1.068,-1.312,0.946,73.333,680438.000,1.000
-3.289,-4.274,2.682,0.044,-1.945,-3.725,-0.349,0.812,-0.040,0.976,-0.155,-0.916,-1.251,0.977,73.333,680439.000,1.000
-6.144,-4.856,0.745,-1.410,-2.472,-2.350,5.157,2.300,-0.039,0.978,-0.155,-1.038,-1.343,0.916,73.333,680440.000,1.000
-8.055,-4.232,-1.073,-2.543,-2.838,-1.410,7.944,2.874,-0.039,0.977,-0.154,-1.007,-1.343,0.916,73.333,680441.000,1.000
-9.080,-2.932,-3.121,-3.807,-3.413,-1.366,6.678,2.041,-0.038,0.976,-0.159,-1.099,-1.343,0.824,73.333,680442.000,1.000
-9.559,-1.951,-5.288,-5.555,-4.669,-2.838,1.676,-0.320,-0.038,0.976,-0.158,-0.946,-1.465,0.854,73.333,680443.000,1.000
-9.765,-1.966,-6.936,-7.592,-6.606,-5.618,-4.958,-3.729,-0.038,0.974,-0.157,-1.007,-1.312,0.854,73.333,680444.000,1.000
-9.753,-2.827,-7.434,-9.138,-8.436,-8.413,-10.322,-6.938,-0.038,0.977,-0.154,-0.885,-1.160,0.732,73.333,680445.000,1.000
-9.519,-3.783,-6.833,-9.346,-8.973,-9.452,-11.946,-8.253,-0.037,0.976,-0.155,-0.854,-1.160,0.671,73.333,680446.000,1.000
-9.244,-4.086,-5.699,-7.869,-7.334,-7.318,-8.514,-6.277,-0.037,0.978,-0.154,-0.793,-1.129,0.641,73.333,680447.000,1.000
-9.295,-3.461,-4.421,-5.002,-3.523,-1.848,-0.604,-0.718,-0.035,0.979,-0.158,-0.732,-1.099,0.580,73.333,680448.000,1.000
-9.896,-2.112,-3.033,-1.455,1.488,5.400,8.951,7.148,-0.036,0.981,-0.159,-0.824,-0.977,0.641,73.333,680449.000,1.000
-10.848,-0.494,-1.499,1.885,6.127,11.622,16.189,14.558,-0.035,0.980,-0.157,-0.885,-0.946,0.549,73.333,680450.000,1.000
-11.592,0.891,-0.138,4.095,8.826,14.142,17.936,18.248,-0.035,0.980,-0.156,-0.854,-0.854,0.610,73.333,680451.000,1.000
-11.520,1.767,0.635,4.644,8.914,12.319,13.865,16.548,-0.034,0.978,-0.152,-0.854,-0.732,0.580,73.333,680452.000,1.000
-10.231,2.352,0.969,3.873,7.286,8.573,7.529,10.878,-0.036,0.979,-0.153,-0.793,-0.763,0.549,73.333,680453.000,1.000
-7.748,3.187,1.546,2.877,5.890,6.769,4.398,4.864,-0.037,0.979,-0.155,-0.885,-0.763,0.519,73.333,680454.000,1.000
-4.677,4.386,2.844,2.641,6.010,8.533,7.166,1.756,-0.035,0.978,-0.158,-0.885,-0.549,0.458,73.333,680455.000,1.000
-2.086,5.207,4.309,3.182,7.033,11.535,12.925,2.281,-0.036,0.978,-0.155,-0.854,-0.458,0.458,73.333,680456.000,1.000
-0.876,4.717,4.765,3.677,7.250,12.199,16.230,4.834,-0.036,0.979,-0.155,-0.885,-0.458,0.488,73.333,680457.000,1.000
-1.231,2.663,3.566,3.283,5.521,9.016,13.954,7.159,-0.037,0.978,-0.153,-0.854,-0.458,0.580,73.333,680458.000,1.000
-2.659,-0.446,1.021,1.727,1.953,2.886,6.741,7.590,-0.036,0.979,-0.154,-0.854,-0.427,0.610,73.333,680459.000,1.000
-4.281,-3.591,-1.755,-0.481,-2.174,-3.758,-1.756,5.701,-0.038,0.979,-0.152,-0.793,-0.549,0.641,73.333,680460.000,1.000
-5.193,-5.531,-3.533,-2.297,-4.879,-7.624,-6.740,2.470,-0.040,0.978,-0.156,-0.732,-0.458,0.610,73.333,680461.000,1.000
-4.898,-5.452,-3.720,-2.916,-4.675,-6.366,-5.526,-0.418,-0.040,0.978,-0.155,-0.854,-0.488,0.488,73.333,680462.000,1.000
-3.586,-3.689,-2.667,-2.432,-1.837,-0.989,-0.029,-1.705,-0.041,0.979,-0.155,-0.854,-0.549,0.580,73.333,680463.000,1.000
-1.991,-1.670,-1.506,-1.815,1.558,4.182,4.346,-1.274,-0.040,0.979,-0.157,-0.824,-0.519,0.610,73.333,680464.000,1.000
-0.974,-0.891,-1.327,-2.245,3.140,4.945,3.152,0.008,-0.040,0.979,-0.156,-0.793,-0.488,0.671,73.333,680465.000,1.000
-1.088,-1.811,-2.476,-4.247,2.033,0.840,-3.319,1.126,-0.042,0.977,-0.156,-0.793,-0.641,0.580,73.333,680466.000,1.000
-2.327,-3.593,-4.402,-7.215,-0.612,-4.582,-10.160,1.787,-0.040,0.977,-0.155,-0.671,-0.732,0.580,73.333,680467.000,1.000
-4.150,-4.811,-6.054,-9.718,-2.639,-6.734,-11.728,2.539,-0.041,0.977,-0.155,-0.793,-0.763,0.671,73.333,680468.000,1.000
-5.773,-4.470,-6.538,-10.393,-2.471,-3.426,-6.120,4.142,-0.042,0.977,-0.156,-0.641,-0.854,0.641,73.333,680469.000,1.000
-6.542,-2.550,-5.405,-8.683,-0.058,3.741,3.630,6.786,-0.042,0.978,-0.154,-0.610,-0.885,0.641,73.333,680470.000,1.000
-6.204,0.144,-2.896,-5.106,3.265,10.739,12.066,9.666,-0.042,0.977,-0.154,-0.580,-0.946,0.641,73.333,680471.000,1.000
-4.968,2.609,0.179,-0.973,5.774,14.022,15.110,11.333,-0.040,0.978,-0.153,-0.549,-1.007,0.671,73.333,680472.000,1.000
-3.259,4.275,3.006,2.324,6.461,12.763,12.356,10.624,-0.039,0.979,-0.154,-0.580,-1.129,0.732,73.333,680473.000,1.000
-1.379,5.214,5.168,4.077,5.513,8.882,6.619,7.469,-0.039,0.979,-0.156,-0.610,-1.068,0.671,73.333,680474.000,1.000
0.673,5.828,6.816,4.632,3.999,5.200,1.835,3.165,-0.038,0.979,-0.156,-0.671,-1.068,0.763,73.333,680475.000,1.000
3.067,6.370,8.288,4.974,3.037,3.394,0.570,-0.306,-0.040,0.980,-0.156,-0.641,-1.160,0.732,73.333,680476.000,1.000
5.789,6.650,9.576,5.769,2.853,3.056,2.190,-2.007,-0.039,0.980,-0.157,-0.641,-1.251,0.702,73.333,680477.000,1.000
8.376,6.100,10.206,6.730,2.446,2.031,3.056,-3.090,-0.041,0.980,-0.157,-0.610,-1.282,0.793,73.333,680478.000,1.000
10.128,4.248,9.674,7.099,0.608,-1.839,-0.455,-5.412,-0.040,0.979,-0.155,-0.610,-1.251,0.763,73.333,680479.000,1.000
10.730,1.392,8.359,6.776,-2.473,-8.239,-8.089,-9.055,-0.040,0.979,-0.156,-0.671,-1.282,0.763,73.333,680480.000,1.000
10.563,-1.345,7.445,6.603,-4.992,-14.059,-15.438,-11.876,-0.040,0.981,-0.156,-0.580,-1.251,0.732,73.333,680481.000,1.000
10.284,-2.872,7.801,7.431,-5.180,-16.278,-17.843,-11.565,-0.041,0.979,-0.154,-0.641,-1.373,0.732,73.333,680482.000,1.000
10.229,-2.979,9.145,9.094,-2.902,-14.450,-14.083,-7.978,-0.039,0.979,-0.157,-0.732,-1.312,0.763,73.333,680483.000,1.000
10.215,-2.330,10.230,10.362,0.322,-10.363,-6.807,-3.482,-0.039,0.977,-0.155,-0.549,-1.434,0.641,73.333,680484.000,1.000
9.702,-1.989,9.834,9.746,2.377,-6.558,-0.617,-1.171,-0.038,0.976,-0.156,-0.580,-1.434,0.610,73.333,680485.000,1.000
8.131,-2.896,7.389,6.474,1.782,-4.993,0.552,-2.737,-0.037,0.976,-0.156,-0.641,-1.526,0.671,73.333,680486.000,1.000
5.431,-5.242,3.253,1.219,-1.264,-6.003,-3.794,-7.182,-0.039,0.976,-0.152,-0.641,-1.556,0.519,73.333,680487.000,1.000
2.229,-8.261,-1.431,-4.094,-4.866,-8.376,-9.988,-11.188,-0.037,0.977,-0.158,-0.641,-1.434,0.427,73.333,680488.000,1.000
-0.565,-10.775,-5.510,-7.583,-6.850,-10.302,-13.152,-11.450,-0.039,0.975,-0.154,-0.702,-1.343,0.336,73.333,680489.000,1.000
-2.369,-12.002,-8.356,-8.694,-6.516,-10.441,-11.380,-7.406,-0.038,0.977,-0.153,-0.732,-1.434,0.336,73.333,680490.000,1.000
-3.191,-11.960,-10.029,-8.311,-5.098,-8.879,-7.335,-1.787,-0.039,0.977,-0.153,-0.702,-1.465,0.305,73.333,680491.000,1.000
-3.382,-11.175,-10.925,-7.665,-4.380,-6.933,-5.278,1.930,-0.036,0.978,-0.153,-0.580,-1.434,0.275,73.333,680492.000,1.000
-3.251,-10.093,-11.298,-7.243,-4.967,-5.684,-6.749,2.552,-0.036,0.979,-0.156,-0.641,-1.404,0.214,73.333,680493.000,1.000
-3.027,-8.948,-11.368,-6.836,-6.173,-5.216,-9.955,1.395,-0.038,0.976,-0.157,-0.610,-1.404,0.275,73.333,680494.000,1.000
-2.999,-8.015,-11.392,-6.233,-7.156,-5.248,-12.365,0.223,-0.038,0.975,-0.157,-0.671,-1.434,0.275,73.333,680495.000,1.000
-3.406,-7.590,-11.551,-5.525,-7.579,-5.630,-12.654,-0.197,-0.036,0.978,-0.158,-0.580,-1.373,0.275,73.333,680496.000,1.000
-4.192,-7.712,-11.744,-4.944,-7.433,-6.075,-10.678,0.060,-0.037,0.979,-0.160,-0.519,-1.312,0.214,73.333,680497.000,1.000
-5.058,-8.142,-11.708,-4.720,-6.879,-6.148,-7.252,0.497,-0.039,0.979,-0.157,-0.519,-1.373,0.183,73.333,680498.000,1.000
-5.723,-8.585,-11.428,-5.004,-6.255,-5.719,-3.968,0.387,-0.038,0.979,-0.158,-0.549,-1.251,0.214,73.333,680499.000,1.000
-5.990,-8.748,-10.968,-5.647,-5.765,-4.842,-1.648,-0.559,-0.038,0.980,-0.156,-0.549,-1.251,0.275,73.333,680500.000,1.000
-5.653,-8.207,-10.180,-6.100,-5.041,-3.073,0.842,-1.628,-0.039,0.980,-0.159,-0.610,-1.312,0.214,73.333,680501.000,1.000
-4.578,-6.582,-8.795,-5.764,-3.435,0.234,5.099,-1.636,-0.040,0.979,-0.160,-0.610,-1.190,0.122,73.333,680502.000,1.000
-3.016,-4.120,-6.927,-4.589,-0.971,4.548,10.607,-0.130,-0.040,0.979,-0.157,-0.671,-1.099,0.153,73.333,680503.000,1.000
-1.666,-1.863,-5.352,-3.270,1.290,7.861,14.554,2.114,-0.041,0.979,-0.160,-0.763,-1.129,0.183,73.333,680504.000,1.000
-1.245,-0.976,-4.872,-2.756,2.013,8.246,14.109,3.782,-0.042,0.979,-0.159,-0.763,-1.099,0.153,73.333,680505.000,1.000
-2.066,-2.034,-5.847,-3.742,0.348,5.065,8.140,3.608,-0.041,0.978,-0.158,-0.763,-1.312,0.244,73.333,680506.000,1.000
-3.936,-4.814,-8.159,-6.455,-3.800,-1.045,-2.125,0.528,-0.043,0.976,-0.157,-0.702,-1.282,0.214,73.333,680507.000,1.000
-6.121,-8.330,-11.089,-10.361,-9.363,-8.134,-12.973,-5.284,-0.044,0.978,-0.156,-0.732,-1.251,0.183,73.333,680508.000,1.000
-7.469,-11.129,-13.509,-14.097,-14.101,-13.211,-19.621,-11.416,-0.044,0.978,-0.156,-0.732,-1.282,0.214,73.333,680509.000,1.000
-6.983,-12.035,-14.441,-16.196,-15.893,-13.900,-18.973,-14.623,-0.043,0.979,-0.160,-0.732,-1.373,0.244,73.333,680510.000,1.000
-4.524,-10.897,-13.785,-16.157,-14.414,-10.359,-11.950,-13.748,-0.043,0.977,-0.156,-0.671,-1.343,0.214,73.333,680511.000,1.000
-0.901,-8.573,-12.281,-14.672,-11.325,-5.222,-3.073,-10.531,-0.043,0.976,-0.156,-0.610,-1.343,0.275,73.333,680512.000,1.000
2.707,-6.129,-10.715,-12.823,-8.709,-1.345,2.779,-7.579,-0.042,0.977,-0.157,-0.641,-1.343,0.183,73.333,680513.000,1.000
5.346,-4.183,-9.478,-11.319,-7.574,0.135,3.372,-6.258,-0.042,0.979,-0.160,-0.702,-1.343,0.366,73.333,680514.000,1.000
6.464,-2.942,-8.532,-10.391,-7.640,-0.332,-0.016,-6.275,-0.042,0.977,-0.159,-0.732,-1.373,0.336,73.333,680515.000,1.000
5.881,-2.451,-7.776,-10.036,-7.988,-1.841,-3.935,-6.478,-0.041,0.979,-0.157,-0.732,-1.343,0.427,73.333,680516.000,1.000
3.814,-2.623,-7.259,-10.142,-7.836,-3.548,-5.432,-5.966,-0.040,0.979,-0.159,-0.702,-1.373,0.458,73.333,680517.000,1.000
0.829,-3.219,-7.127,-10.549,-7.028,-4.620,-3.993,-4.880,-0.041,0.978,-0.157,-0.671,-1.282,0.488,73.333,680518.000,1.000
-2.316,-3.868,-7.433,-10.999,-5.820,-4.311,-0.888,-3.945,-0.041,0.978,-0.155,-0.702,-1.343,0.519,73.333,680519.000,1.000
-4.751,-4.030,-7.658,-10.959,-4.242,-2.277,2.867,-3.142,-0.039,0.979,-0.157,-0.732,-1.373,0.610,73.333,680520.000,1.000
-5.698,-3.202,-7.049,-9.936,-2.163,1.129,6.689,-1.806,-0.038,0.979,-0.160,-0.702,-1.251,0.519,73.333,680521.000,1.000
-4.982,-1.405,-5.557,-8.161,0.006,4.975,9.505,-0.111,-0.038,0.981,-0.158,-0.763,-1.160,0.641,73.333,680522.000,1.000
-3.298,0.640,-4.129,-6.645,1.189,8.163,10.061,0.470,-0.039,0.980,-0.158,-0.732,-1.160,0.702,73.333,680523.000,1.000
-1.837,1.940,-4.052,-6.409,0.397,9.785,7.954,-1.553,-0.042,0.979,-0.158,-0.763,-1.160,0.702,73.333,680524.000,1.000
-1.518,1.925,-5.796,-7.651,-2.394,9.537,4.193,-6.123,-0.040,0.979,-0.160,-0.763,-1.190,0.641,73.333,680525.000,1.000
-2.443,0.802,-8.662,-9.573,-6.020,8.009,0.809,-11.293,-0.042,0.980,-0.157,-0.732,-1.068,0.671,73.333,680526.000,1.000
-3.875,-0.630,-11.269,-10.871,-8.719,6.300,-0.202,-14.301,-0.041,0.979,-0.156,-0.763,-1.099,0.671,73.333,680527.000,1.000
-4.770,-1.630,-12.444,-10.581,-9.314,4.950,1.579,-13.354,-0.041,0.978,-0.161,-0.793,-1.007,0.732,73.333,680528.000,1.000
-4.529,-2.085,-12.132,-8.831,-8.175,3.276,4.002,-9.127,-0.041,0.977,-0.160,-0.885,-1.068,0.641,73.333,680529.000,1.000
-3.213,-2.227,-11.060,-6.611,-6.662,0.666,4.410,-4.336,-0.042,0.977,-0.157,-0.946,-1.038,0.610,73.333,680530.000,1.000
-1.109,-1.868,-9.709,-4.644,-5.385,-1.553,3.139,-1.184,-0.042,0.977,-0.156,-0.916,-1.038,0.671,73.333,680531.000,1.000
1.581,-0.426,-7.874,-2.692,-3.558,-0.958,3.596,0.749,-0.042,0.979,-0.157,-0.824,-1.038,0.580,73.333,680532.000,1.000
4.587,2.232,-5.315,-0.197,-0.352,3.059,8.250,3.418,-0.042,0.979,-0.157,-0.854,-1.160,0.610,73.333,680533.000,1.000
7.346,5.280,-2.640,2.578,3.494,8.207,15.267,7.110,-0.042,0.979,-0.153,-0.916,-1.190,0.580,73.333,680534.000,1.000
9.055,7.315,-1.071,4.368,5.752,11.023,19.617,9.370,-0.041,0.977,-0.153,-1.038,-1.129,0.610,73.333,680535.000,1.000
9.061,7.214,-1.577,3.934,4.431,9.264,17.044,7.408,-0.040,0.976,-0.156,-0.977,-1.190,0.549,73.333,680536.000,1.000
7.359,4.886,-4.030,1.183,-0.476,3.293,7.310,1.066,-0.042,0.976,-0.158,-0.824,-1.221,0.488,73.333,680537.000,1.000
4.805,1.413,-7.060,-2.624,-6.781,-4.074,-5.462,-6.787,-0.041,0.973,-0.156,-0.763,-1.160,0.519,73.333,680538.000,1.000
2.733,-1.631,-8.974,-5.680,-11.554,-9.314,-15.426,-12.414,-0.042,0.973,-0.154,-0.763,-1.099,0.458,73.333,680539.000,1.000
2.160,-3.199,-8.729,-6.677,-12.906,-10.372,-18.403,-13.522,-0.043,0.973,-0.154,-0.641,-1.129,0.580,73.333,680540.000,1.000
3.208,-3.273,-6.479,-5.426,-10.862,-7.623,-13.956,-10.247,-0.044,0.974,-0.157,-0.702,-1.160,0.519,73.333,680541.000,1.000
5.161,-2.546,-3.309,-2.729,-6.966,-3.165,-5.174,-4.638,-0.043,0.975,-0.156,-0.610,-1.129,0.549,73.333,680542.000,1.000
6.990,-1.780,-0.422,0.281,-3.069,0.698,3.707,0.872,-0.042,0.973,-0.155,-0.610,-1.160,0.671,73.333,680543.000,1.000
7.912,-1.370,1.416,2.703,-0.343,2.601,9.681,4.706,-0.043,0.975,-0.158,-0.580,-1.160,0.610,73.333,680544.000,1.000
7.749,-1.319,2.163,4.046,0.819,2.332,11.520,6.183,-0.042,0.976,-0.157,-0.580,-1.190,0.580,73.333,680545.000,1.000
6.965,-1.376,2.317,4.263,0.637,0.701,9.492,5.353,-0.041,0.976,-0.157,-0.488,-1.190,0.641,73.333,680546.000,1.000
6.316,-1.156,2.626,3.799,-0.063,-0.763,5.404,3.250,-0.041,0.975,-0.158,-0.519,-1.251,0.610,73.333,680547.000,1.000
6.247,-0.465,3.617,3.303,-0.388,-1.027,1.440,1.343,-0.042,0.976,-0.158,-0.366,-1.282,0.641,73.333,680548.000,1.000
6.576,0.371,5.031,3.112,-0.199,-0.752,-1.599,0.330,-0.043,0.977,-0.155,-0.336,-1.160,0.641,73.333,680549.000,1.000
6.799,0.765,6.191,3.199,-0.016,-1.538,-3.959,0.056,-0.041,0.978,-0.155,-0.458,-1.160,0.610,73.333,680550.000,1.000
6.625,0.482,6.734,3.471,-0.239,-4.088,-5.683,0.276,-0.041,0.979,-0.154,-0.488,-1.221,0.458,73.333,680551.000,1.000
6.165,-0.196,6.838,3.814,-0.893,-7.488,-6.616,0.671,-0.043,0.981,-0.157,-0.549,-1.343,0.488,73.333,680552.000,1.000
5.794,-0.750,6.817,4.018,-1.823,-9.714,-6.687,0.419,-0.044,0.981,-0.160,-0.671,-1.251,0.458,73.333,680553.000,1.000
5.942,-0.634,6.672,3.987,-2.585,-8.685,-5.462,-1.200,-0.044,0.980,-0.159,-0.702,-1.312,0.427,73.333,680554.000,1.000
6.822,0.449,6.289,3.913,-2.543,-3.928,-2.270,-3.714,-0.041,0.982,-0.159,-0.793,-1.373,0.488,73.333,680555.000,1.000
8.048,2.027,5.371,3.866,-1.669,2.247,2.304,-5.887,-0.040,0.980,-0.157,-0.946,-1.251,0.458,73.333,680556.000,1.000
8.677,2.914,3.434,3.462,-0.940,5.978,5.784,-7.045,-0.039,0.978,-0.157,-1.099,-1.282,0.488,73.333,680557.000,1.000
7.927,2.154,0.294,2.221,-1.570,4.640,5.307,-7.508,-0.038,0.976,-0.158,-0.977,-1.099,0.580,73.333,680558.000,1.000
5.794,-0.211,-3.649,0.052,-4.038,-1.551,-0.300,-8.113,-0.039,0.973,-0.158,-0.977,-1.068,0.641,73.333,680559.000,1.000
3.017,-3.229,-7.339,-2.538,-7.688,-9.879,-9.413,-9.381,-0.042,0.971,-0.159,-0.977,-1.068,0.671,73.333,680560.000,1.000
0.623,-5.562,-9.409,-4.537,-10.881,-16.543,-18.202,-10.864,-0.042,0.970,-0.158,-0.946,-0.977,0.580,73.333,680561.000,1.000
-0.643,-6.074,-8.826,-4.943,-11.802,-18.478,-22.668,-11.383,-0.046,0.972,-0.158,-0.977,-1.007,0.610,73.333,680562.000,1.000
-0.721,-4.412,-5.574,-3.483,-9.612,-14.949,-20.864,-10.106,-0.046,0.975,-0.158,-0.763,-1.038,0.610,73.333,680563.000,1.000
-0.152,-1.179,-0.892,-0.797,-4.844,-7.688,-13.438,-7.162,-0.045,0.980,-0.160,-0.824,-1.068,0.580,73.333,680564.000,1.000
0.431,2.478,3.585,2.166,1.112,0.422,-2.866,-3.284,-0.043,0.983,-0.163,-0.793,-1.099,0.610,73.333,680565.000,1.000
0.665,5.388,6.695,4.702,6.535,6.598,6.894,0.476,-0.040,0.985,-0.162,-0.916,-1.190,0.641,73.333,680566.000,1.000
0.417,6.675,8.036,6.422,9.789,8.827,11.710,2.872,-0.040,0.985,-0.161,-1.099,-1.190,0.702,73.333,680567.000,1.000
-0.273,6.051,7.814,7.234,10.042,6.536,9.778,3.113,-0.040,0.981,-0.160,-1.251,-1.160,0.763,73.333,680568.000,1.000
-1.063,4.049,6.554,7.411,7.781,0.897,2.497,1.516,-0.040,0.981,-0.163,-1.343,-1.038,0.732,73.333,680569.000,1.000
-1.370,1.819,5.134,7.463,4.483,-5.722,-6.679,-0.726,-0.041,0.977,-0.162,-1.373,-1.129,0.793,73.333,680570.000,1.000
-0.810,0.469,4.493,7.709,1.649,-10.896,-14.170,-2.518,-0.040,0.976,-0.158,-1.312,-1.038,0.763,73.333,680571.000,1.000
0.565,0.571,5.237,8.094,0.191,-12.999,-17.547,-3.298,-0.042,0.977,-0.158,-1.251,-1.190,0.793,73.333,680572.000,1.000
2.477,2.202,7.459,8.533,0.604,-11.197,-15.524,-2.557,-0.042,0.979,-0.156,-1.221,-1.038,0.824,73.333,680573.000,1.000
4.606,5.035,10.527,9.072,3.002,-5.470,-8.223,0.115,-0.042,0.983,-0.155,-1.282,-1.038,0.732,73.333,680574.000,1.000
6.521,8.173,13.288,9.585,6.497,2.532,1.592,3.831,-0.043,0.982,-0.155,-1.373,-1.068,0.671,73.333,680575.000,1.000
7.698,10.205,14.574,9.602,9.052,9.119,8.689,6.137,-0.042,0.983,-0.155,-1.434,-1.068,0.580,73.333,680576.000,1.000
7.793,9.933,13.896,8.726,8.764,10.404,8.802,4.928,-0.040,0.985,-0.154,-1.648,-1.129,0.519,73.333,680577.000,1.000
6.876,7.306,11.660,7.074,5.491,5.476,2.315,0.338,-0.041,0.984,-0.158,-1.740,-1.068,0.549,73.333,680578.000,1.000
5.339,3.588,8.641,5.189,1.062,-2.572,-6.253,-5.405,-0.040,0.985,-0.158,-1.892,-0.977,0.549,73.333,680579.000,1.000
3.697,0.544,5.784,3.739,-2.066,-9.142,-12.086,-9.396,-0.039,0.986,-0.158,-1.984,-1.038,0.549,73.333,680580.000,1.000
2.500,-0.534,4.164,3.281,-2.262,-11.176,-12.632,-9.496,-0.040,0.984,-0.157,-2.106,-0.977,0.610,73.333,680581.000,1.000
2.253,0.689,4.658,4.047,0.644,-8.177,-7.673,-5.345,-0.039,0.984,-0.158,-2.167,-0.854,0.610,73.333,680582.000,1.000
3.161,3.547,7.248,5.686,5.329,-1.908,0.455,1.207,-0.038,0.983,-0.153,-2.197,-0.854,0.610,73.333,680583.000,1.000
4.901,6.705,10.611,7.294,9.598,4.432,7.190,7.043,-0.039,0.984,-0.152,-2.197,-0.824,0.610,73.333,680584.000,1.000
6.738,8.910,13.091,8.059,11.762,7.950,8.985,10.048,-0.039,0.981,-0.153,-2.258,-0.732,0.671,73.333,680585.000,1.000
7.917,9.694,13.888,7.877,11.742,8.070,6.458,10.433,-0.039,0.980,-0.153,-2.228,-0.732,0.671,73.333,680586.000,1.000
7.978,9.405,13.412,7.240,10.730,6.671,3.434,9.676,-0.040,0.981,-0.153,-2.258,-0.641,0.641,73.333,680587.000,1.000
6.804,8.520,12.553,6.608,9.773,5.690,2.795,8.776,-0.041,0.978,-0.151,-2.289,-0.641,0.702,73.333,680588.000,1.000
4.586,7.165,11.711,6.119,9.020,5.217,4.173,8.008,-0.044,0.977,-0.151,-2.258,-0.610,0.702,73.333,680589.000,1.000
1.861,5.410,10.906,5.814,8.242,4.411,5.695,7.584,-0.046,0.977,-0.149,-2.350,-0.641,0.732,73.333,680590.000,1.000
-0.651,3.589,10.035,5.643,7.261,3.007,5.929,7.315,-0.043,0.978,-0.148,-2.289,-0.641,0.854,73.333,680591.000,1.000
-2.401,2.125,8.959,5.410,5.880,1.311,3.987,6.210,-0.042,0.977,-0.145,-2.380,-0.641,0.854,73.333,680592.000,1.000
-3.152,1.380,7.816,5.146,4.153,-0.212,-0.168,3.598,-0.044,0.973,-0.147,-2.289,-0.702,0.824,73.333,680593.000,1.000
-2.903,1.725,7.163,5.374,2.849,-0.707,-4.694,0.470,-0.042,0.974,-0.147,-2.106,-0.732,0.885,73.333,680594.000,1.000
-1.832,3.469,7.765,6.722,3.198,1.060,-6.199,-0.916,-0.040,0.975,-0.150,-2.014,-0.824,0.824,73.333,680595.000,1.000
-0.290,6.521,9.811,9.278,5.937,5.768,-2.238,1.170,-0.042,0.975,-0.150,-1.953,-0.854,0.763,73.333,680596.000,1.000
1.245,10.127,12.560,12.388,10.554,12.503,6.429,6.566,-0.042,0.977,-0.150,-1.740,-0.854,0.793,73.333,680597.000,1.000
2.373,13.083,14.959,15.049,15.394,18.774,16.128,13.300,-0.042,0.976,-0.151,-1.740,-0.824,0.824,73.333,680598.000,1.000
3.060,14.468,16.395,16.477,18.656,22.062,22.855,18.731,-0.044,0.976,-0.149,-1.648,-0.854,0.763,73.333,680599.000,1.000
3.595,14.128,16.867,16.348,19.281,21.413,24.565,20.674,-0.042,0.974,-0.147,-1.678,-0.885,0.793,73.333,680600.000,1.000
4.124,12.408,16.222,14.594,17.045,17.378,21.178,18.086,-0.041,0.975,-0.147,-1.556,-0.854,0.793,73.333,680601.000,1.000
4.479,9.866,14.084,11.443,12.620,11.385,14.284,11.865,-0.040,0.973,-0.147,-1.465,-0.793,0.763,73.333,680602.000,1.000
4.502,7.376,10.832,7.729,7.724,5.723,7.433,4.946,-0.041,0.972,-0.146,-1.404,-0.824,0.854,73.333,680603.000,1.000
4.255,5.865,7.744,4.610,4.347,2.807,4.470,0.499,-0.041,0.973,-0.149,-1.465,-0.885,0.885,73.333,680604.000,1.000
3.852,5.575,6.002,2.743,3.216,3.295,5.996,-0.406,-0.042,0.974,-0.150,-1.312,-0.763,0.824,73.333,680605.000,1.000
3.286,5.836,5.527,1.856,3.264,5.315,8.209,0.655,-0.042,0.974,-0.148,-1.190,-0.732,0.854,73.333,680606.000,1.000
2.493,5.732,5.185,1.193,2.812,6.128,6.521,1.220,-0.041,0.974,-0.153,-1.129,-0.763,0.946,73.333,680607.000,1.000
1.461,4.886,4.083,0.273,1.091,4.412,-0.183,0.027,-0.038,0.974,-0.150,-1.129,-0.671,0.916,73.333,680608.000,1.000
0.304,3.643,2.355,-0.737,-1.296,0.969,-9.091,-2.357,-0.037,0.976,-0.155,-0.977,-0.580,0.916,73.333,680609.000,1.000
-0.678,2.662,1.039,-1.124,-2.994,-2.425,-15.912,-4.203,-0.038,0.976,-0.153,-0.916,-0.580,1.007,73.333,680610.000,1.000
-1.149,2.346,0.965,-0.171,-2.905,-4.579,-17.606,-3.838,-0.038,0.978,-0.152,-0.763,-0.519,1.099,73.333,680611.000,1.000
-1.032,2.623,2.026,2.214,-0.865,-5.255,-13.755,-0.777,-0.038,0.978,-0.155,-0.793,-0.397,1.160,73.333,680612.000,1.000
-0.603,3.153,3.559,5.324,2.327,-4.524,-6.327,3.814,-0.036,0.979,-0.155,-0.763,-0.336,1.221,73.333,680613.000,1.000
-0.291,3.632,4.977,8.064,5.452,-2.314,1.772,7.867,-0.037,0.980,-0.156,-0.702,-0.214,1.282,73.333,680614.000,1.000
-0.358,3.950,6.163,9.611,7.556,1.280,8.202,9.863,-0.038,0.979,-0.152,-0.732,-0.122,1.312,73.333,680615.000,1.000
-0.736,4.167,7.136,9.757,8.297,5.337,11.311,9.640,-0.037,0.982,-0.151,-0.732,-0.092,1.434,73.333,680616.000,1.000
-1.095,4.502,7.871,8.926,7.977,8.271,10.199,8.224,-0.038,0.981,-0.153,-0.763,0.061,1.343,73.333,680617.000,1.000
-1.155,5.154,8.447,7.776,7.206,8.788,5.412,6.863,-0.037,0.979,-0.153,-0.702,0.031,1.434,73.333,680618.000,1.000
-0.982,5.965,8.806,6.554,6.316,6.731,-1.035,5.948,-0.035,0.980,-0.156,-0.763,0.122,1.373,73.333,680619.000,1.000
-0.826,6.584,8.791,5.123,5.438,3.644,-6.054,5.248,-0.036,0.981,-0.152,-0.641,0.122,1.404,73.333,680620.000,1.000
-0.589,7.042,8.332,3.600,5.040,2.243,-6.658,4.904,-0.036,0.982,-0.151,-0.732,0.275,1.434,73.333,680621.000,1.000
0.223,7.690,7.542,2.506,5.628,4.230,-2.170,5.311,-0.035,0.983,-0.155,-0.702,0.244,1.465,73.333,680622.000,1.000
1.887,8.543,6.602,2.193,6.940,8.608,4.799,6.173,-0.036,0.986,-0.156,-0.763,0.366,1.404,73.333,680623.000,1.000
4.010,9.108,5.574,2.510,8.035,12.592,10.217,6.607,-0.036,0.987,-0.156,-0.793,0.366,1.373,73.333,680624.000,1.000
5.761,8.880,4.525,3.057,8.123,13.795,11.337,6.024,-0.036,0.985,-0.153,-0.854,0.427,1.373,73.333,680625.000,1.000
6.368,7.733,3.325,3.348,6.948,11.458,7.762,4.273,-0.037,0.986,-0.153,-0.916,0.336,1.312,73.333,680626.000,1.000
5.541,5.949,1.697,2.968,4.852,6.682,1.470,1.643,-0.038,0.986,-0.155,-0.977,0.214,1.312,73.333,680627.000,1.000
3.620,4.105,-0.234,1.886,2.682,1.904,-4.224,-1.007,-0.038,0.984,-0.154,-1.007,0.275,1.312,73.333,680628.000,1.000
1.309,2.742,-1.886,0.446,1.210,-0.708,-7.076,-2.902,-0.038,0.987,-0.152,-1.099,0.366,1.282,73.333,680629.000,1.000
-0.756,2.100,-2.562,-0.882,0.668,-0.786,-7.080,-3.901,-0.038,0.985,-0.148,-1.160,0.427,1.251,73.333,680630.000,1.000
-2.277,2.148,-2.115,-1.757,0.931,0.478,-5.383,-4.195,-0.036,0.981,-0.150,-1.312,0.336,1.190,73.333,680631.000,1.000
-3.227,2.807,-1.044,-2.019,1.957,2.069,-2.609,-3.766,-0.036,0.977,-0.151,-1.312,0.366,1.190,73.333,680632.000,1.000
-3.583,4.066,0.172,-1.505,3.911,4.136,1.596,-2.084,-0.036,0.977,-0.152,-1.251,0.336,1.221,73.333,680633.000,1.000
-3.301,5.773,1.384,-0.090,6.756,6.996,7.378,1.445,-0.037,0.973,-0.153,-1.007,0.366,1.221,73.333,680634.000,1.000
-2.592,7.388,2.549,1.899,9.725,9.885,13.432,6.328,-0.038,0.976,-0.153,-0.824,0.183,1.190,73.333,680635.000,1.000
-2.061,8.106,3.245,3.520,11.486,11.353,17.205,10.501,-0.039,0.977,-0.152,-0.824,0.244,1.221,73.333,680636.000,1.000
-2.391,7.321,2.787,3.712,10.922,10.492,16.402,11.456,-0.039,0.976,-0.153,-0.854,0.214,1.251,73.333,680637.000,1.000
-3.808,5.072,0.953,2.027,7.877,7.571,10.689,8.005,-0.038,0.975,-0.152,-0.763,0.092,1.312,73.333,680638.000,1.000
-5.789,2.224,-1.631,-0.929,3.542,4.078,2.702,1.485,-0.038,0.972,-0.153,-0.702,0.092,1.282,73.333,680639.000,1.000
-7.352,0.059,-3.704,-3.711,0.010,2.005,-3.111,-4.615,-0.037,0.970,-0.154,-0.610,0.122,1.312,73.333,680640.000,1.000
-7.814,-0.661,-4.401,-4.995,-1.147,2.347,-3.867,-6.872,-0.037,0.969,-0.154,-0.427,0.092,1.312,73.333,680641.000,1.000
-7.281,-0.219,-3.933,-4.487,0.066,4.379,-0.172,-4.168,-0.038,0.968,-0.157,-0.153,0.000,1.343,73.333,680642.000,1.000
-6.406,0.441,-3.212,-3.022,2.260,6.478,4.952,1.753,-0.041,0.969,-0.156,-0.061,-0.122,1.221,73.333,680643.000,1.000
-5.829,0.397,-3.220,-1.942,3.634,7.118,8.078,7.430,-0.042,0.973,-0.153,0.092,-0.183,1.129,73.333,680644.000,1.000
-5.892,-0.826,-4.384,-2.240,3.056,5.464,7.218,9.901,-0.042,0.974,-0.154,0.183,-0.366,1.038,73.333,680645.000,1.000
-6.586,-3.027,-6.461,-4.061,0.833,2.195,3.076,8.426,-0.043,0.978,-0.152,0.183,-0.488,0.885,73.333,680646.000,1.000
-7.539,-5.322,-8.658,-6.732,-1.480,-0.256,-1.190,4.477,-0.044,0.981,-0.153,0.061,-0.580,0.854,73.333,680647.000,1.000
-8.243,-6.773,-10.030,-9.203,-2.350,0.404,-2.434,0.445,-0.043,0.981,-0.153,0.000,-0.641,0.824,73.333,680648.000,1.000
-8.465,-7.236,-10.286,-10.689,-1.556,3.729,-0.530,-1.787,-0.044,0.981,-0.152,-0.153,-0.916,0.763,73.333,680649.000,1.000
-8.396,-7.388,-9.901,-11.052,-0.252,6.666,1.669,-1.848,-0.042,0.980,-0.153,-0.336,-1.038,0.702,73.333,680650.000,1.000
-8.394,-7.947,-9.670,-10.761,0.106,6.468,1.483,-1.104,-0.040,0.979,-0.158,-0.336,-1.129,0.702,73.333,680651.000,1.000
-8.646,-9.082,-10.022,-10.465,-1.132,2.860,-1.159,-1.488,-0.041,0.979,-0.156,-0.244,-1.221,0.763,73.333,680652.000,1.000
-8.989,-10.441,-10.614,-10.424,-3.476,-2.384,-4.264,-3.683,-0.039,0.980,-0.156,-0.336,-1.190,0.610,73.333,680653.000,1.000
-8.919,-11.366,-10.623,-10.307,-5.693,-6.814,-5.537,-6.581,-0.037,0.979,-0.157,-0.427,-1.251,0.549,73.333,680654.000,1.000
-7.886,-11.256,-9.292,-9.588,-6.760,-8.550,-3.824,-8.578,-0.038,0.977,-0.156,-0.366,-1.251,0.641,73.333,680655.000,1.000
-5.928,-10.240,-6.810,-8.304,-6.958,-7.810,-0.889,-9.306,-0.037,0.980,-0.158,-0.336,-1.251,0.641,73.333,680656.000,1.000
-3.938,-9.358,-4.477,-7.257,-7.836,-7.150,-1.000,-9.901,-0.037,0.980,-0.159,-0.366,-1.282,0.641,73.333,680657.000,1.000
-2.992,-9.600,-3.638,-7.276,-10.581,-8.941,-6.691,-11.599,-0.037,0.980,-0.157,-0.397,-1.190,0.641,73.333,680658.000,1.000
-3.443,-10.898,-4.648,-8.398,-14.593,-12.855,-15.709,-14.336,-0.032,0.981,-0.157,-0.336,-1.190,0.641,73.333,680659.000,1.000
-4.773,-12.292,-6.599,-9.803,-17.962,-16.428,-23.124,-16.763,-0.034,0.981,-0.156,-0.427,-1.129,0.732,73.333,680660.000,1.000
-6.137,-12.809,-8.110,-10.473,-19.044,-17.379,-25.472,-17.402,-0.035,0.981,-0.154,-0.488,-1.099,0.824,73.333,680661.000,1.000
-6.980,-12.118,-8.275,-9.878,-17.516,-15.155,-22.429,-15.699,-0.037,0.981,-0.155,-0.519,-1.099,0.824,73.333,680662.000,1.000
-7.288,-10.679,-7.192,-8.322,-14.491,-11.173,-16.437,-12.537,-0.039,0.981,-0.157,-0.458,-1.099,0.763,73.333,680663.000,1.000
-7.446,-9.413,-5.971,-6.780,-11.831,-7.913,-11.367,-9.889,-0.036,0.980,-0.154,-0.519,-1.160,0.763,73.333,680664.000,1.000
-7.894,-9.061,-5.845,-6.197,-10.832,-7.048,-9.705,-9.196,-0.035,0.979,-0.152,-0.458,-1.221,0.702,73.333,680665.000,1.000
-8.771,-9.728,-7.274,-6.765,-11.313,-8.170,-10.676,-9.930,-0.035,0.979,-0.154,-0.519,-1.129,0.702,73.333,680666.000,1.000
-9.784,-10.961,-9.734,-7.841,-12.038,-9.477,-11.635,-10.179,-0.037,0.977,-0.157,-0.549,-1.129,0.671,73.333,680667.000,1.000
-10.505,-12.239,-12.323,-8.622,-12.044,-9.724,-11.010,-8.709,-0.035,0.978,-0.156,-0.641,-1.068,0.610,73.333,680668.000,1.000
-10.825,-13.402,-14.726,-8.916,-11.481,-9.362,-9.650,-6.232,-0.033,0.978,-0.155,-0.610,-1.129,0.641,73.333,680669.000,1.000
-10.971,-14.573,-17.136,-9.170,-11.234,-9.754,-9.384,-4.616,-0.034,0.978,-0.154,-0.549,-1.068,0.580,73.333,680670.000,1.000
-11.092,-15.715,-19.546,-9.804,-11.825,-11.462,-10.762,-5.059,-0.036,0.977,-0.154,-0.641,-1.099,0.549,73.333,680671.000,1.000
-10.961,-16.401,-21.294,-10.637,-12.810,-13.569,-12.513,-6.992,-0.037,0.977,-0.151,-0.488,-1.038,0.397,73.333,680672.000,1.000
-10.274,-16.188,-21.503,-11.040,-13.282,-14.827,-13.137,-8.659,-0.037,0.977,-0.156,-0.427,-1.129,0.397,73.333,680673.000,1.000
-9.145,-15.035,-19.990,-10.529,-12.590,-14.706,-11.978,-8.359,-0.040,0.978,-0.154,-0.458,-1.068,0.427,73.333,680674.000,1.000
-8.113,-13.217,-17.272,-9.062,-10.502,-12.883,-8.581,-5.305,-0.039,0.977,-0.153,-0.458,-1.007,0.397,73.333,680675.000,1.000
-7.753,-11.173,-14.218,-7.173,-7.485,-9.205,-3.422,-0.653,-0.040,0.978,-0.154,-0.458,-1.038,0.275,73.333,680676.000,1.000
-8.354,-9.581,-11.740,-5.864,-4.936,-4.946,0.726,2.507,-0.040,0.978,-0.154,-0.458,-1.190,0.244,73.333,680677.000,1.000
-9.802,-9.130,-10.362,-5.908,-4.268,-2.602,0.591,1.603,-0.042,0.975,-0.154,-0.458,-1.221,0.275,73.333,680678.000,1.000
-11.586,-9.928,-10.022,-7.134,-5.558,-3.415,-4.081,-2.973,-0.043,0.976,-0.153,-0.458,-1.190,0.275,73.333,680679.000,1.000
-12.940,-11.187,-9.956,-8.426,-7.310,-5.739,-9.472,-8.125,-0.044,0.975,-0.152,-0.397,-1.282,0.122,73.333,680680.000,1.000
-13.164,-11.614,-9.143,-8.447,-7.454,-6.298,-10.234,-10.228,-0.044,0.974,-0.154,-0.275,-1.434,0.061,73.333,680681.000,1.000
-11.976,-10.197,-6.949,-6.435,-4.697,-2.956,-3.446,-7.167,-0.044,0.974,-0.153,-0.336,-1.434,0.092,73.333,680682.000,1.000
-9.717,-6.924,-3.553,-2.663,0.463,3.327,8.603,0.419,-0.042,0.976,-0.155,-0.336,-1.495,0.031,73.333,680683.000,1.000
-7.192,-2.947,-0.081,1.550,5.716,8.848,19.006,9.019,-0.042,0.978,-0.156,-0.366,-1.434,0.122,73.333,680684.000,1.000
-5.145,0.144,2.224,4.572,8.421,9.938,21.015,14.201,-0.044,0.976,-0.154,-0.305,-1.556,0.153,73.333,680685.000,1.000
-3.800,1.373,2.951,5.601,7.625,5.855,13.430,13.870,-0.044,0.976,-0.154,-0.214,-1.648,0.214,73.333,680686.000,1.000
-2.855,0.845,2.734,5.210,4.760,-0.790,1.667,9.849,-0.042,0.975,-0.155,-0.092,-1.617,0.153,73.333,680687.000,1.000
-1.819,-0.538,2.585,4.657,2.346,-5.974,-6.501,5.836,-0.042,0.977,-0.155,-0.092,-1.678,0.244,73.333,680688.000,1.000
-0.429,-1.754,2.863,4.662,1.955,-6.836,-6.699,3.899,-0.042,0.978,-0.154,-0.244,-1.892,0.244,73.333,680689.000,1.000
1.201,-2.273,3.188,4.992,3.224,-3.550,-0.495,3.388,-0.042,0.979,-0.158,-0.214,-1.831,0.336,73.333,680690.000,1.000
2.728,-2.241,2.894,4.950,4.447,0.743,6.406,2.633,-0.043,0.980,-0.152,-0.214,-1.862,0.305,73.333,680691.000,1.000
3.833,-2.141,1.612,4.029,4.038,2.240,8.739,0.923,-0.043,0.980,-0.153,-0.244,-1.953,0.305,73.333,680692.000,1.000
4.381,-2.266,-0.362,2.285,1.708,-0.637,5.432,-0.944,-0.043,0.979,-0.153,-0.122,-1.984,0.366,73.333,680693.000,1.000
4.429,-2.519,-2.346,0.193,-1.521,-6.235,-0.736,-1.755,-0.045,0.979,-0.155,-0.214,-2.167,0.427,73.333,680694.000,1.000
4.182,-2.579,-3.608,-1.745,-4.305,-11.218,-6.157,-1.345,-0.044,0.979,-0.153,-0.336,-2.106,0.427,73.333,680695.000,1.000
4.019,-2.141,-3.716,-3.171,-5.805,-13.000,-8.695,-0.662,-0.043,0.979,-0.155,-0.366,-2.197,0.519,73.333,680696.000,1.000
4.408,-1.050,-2.656,-3.819,-5.798,-11.129,-8.128,-0.523,-0.042,0.979,-0.155,-0.305,-2.228,0.580,73.333,680697.000,1.000
5.615,0.668,-0.718,-3.546,-4.404,-6.803,-5.200,-0.785,-0.041,0.979,-0.155,-0.336,-2.319,0.427,73.333,680698.000,1.000
7.423,2.881,1.581,-2.411,-1.771,-1.293,-0.267,-0.518,-0.042,0.980,-0.157,-0.336,-2.289,0.488,73.333,680699.000,1.000
9.182,5.320,3.779,-0.651,1.887,4.692,6.743,1.230,-0.039,0.981,-0.156,-0.305,-2.289,0.488,73.333,680700.000,1.000
10.092,7.365,5.418,1.295,5.764,9.972,14.389,4.266,-0.041,0.978,-0.157,-0.427,-2.258,0.549,73.333,680701.000,1.000
9.572,8.123,6.011,2.782,8.293,12.284,18.829,6.780,-0.042,0.979,-0.153,-0.488,-2.258,0.580,73.333,680702.000,1.000
7.640,7.099,5.392,3.358,8.177,9.912,16.618,6.803,-0.041,0.977,-0.154,-0.397,-2.289,0.549,73.333,680703.000,1.000
5.023,4.876,4.007,3.317,5.813,3.938,8.485,4.474,-0.038,0.979,-0.156,-0.397,-2.197,0.458,73.333,680704.000,1.000
2.781,2.855,2.885,3.613,3.179,-2.040,-0.769,2.145,-0.039,0.980,-0.157,-0.458,-2.106,0.519,73.333,680705.000,1.000
1.691,2.243,2.885,4.967,2.143,-4.634,-6.203,1.885,-0.038,0.980,-0.156,-0.458,-1.984,0.519,73.333,680706.000,1.000
1.993,3.430,4.192,7.272,3.302,-2.508,-5.549,3.734,-0.040,0.981,-0.156,-0.458,-1.953,0.519,73.333,680707.000,1.000
3.534,6.066,6.496,9.852,6.160,3.654,0.652,6.419,-0.038,0.981,-0.157,-0.488,-1.953,0.580,73.333,680708.000,1.000
5.948,9.314,9.162,11.992,9.634,11.440,9.493,8.758,-0.037,0.981,-0.159,-0.549,-1.923,0.519,73.333,680709.000,1.000
8.770,12.138,11.582,13.288,12.482,17.377,16.870,10.304,-0.038,0.980,-0.156,-0.519,-1.892,0.549,73.333,680710.000,1.000
11.531,13.839,13.375,13.752,13.982,19.212,20.202,11.317,-0.040,0.978,-0.157,-0.458,-1.801,0.458,73.333,680711.000,1.000
13.794,14.448,14.427,13.687,14.361,17.836,20.332,12.384,-0.038,0.977,-0.156,-0.580,-1.770,0.366,73.333,680712.000,1.000
15.124,14.324,14.672,13.235,14.030,15.562,19.409,13.359,-0.039,0.978,-0.155,-0.641,-1.587,0.397,73.333,680713.000,1.000
15.162,13.459,13.753,12.082,12.615,12.947,17.535,12.817,-0.039,0.979,-0.157,-0.549,-1.587,0.366,73.333,680714.000,1.000
13.991,11.655,11.574,9.998,9.602,8.899,13.374,9.706,-0.039,0.977,-0.154,-0.488,-1.434,0.427,73.333,680715.000,1.000
12.296,9.152,8.708,7.410,5.580,3.190,7.024,5.187,-0.037,0.977,-0.152,-0.610,-1.434,0.397,73.333,680716.000,1.000
11.002,6.795,6.135,5.204,2.152,-2.425,0.883,1.831,-0.038,0.979,-0.152,-0.549,-1.343,0.427,73.333,680717.000,1.000
10.789,5.640,4.769,4.128,0.711,-5.319,-2.142,1.315,-0.038,0.979,-0.154,-0.580,-1.343,0.458,73.333,680718.000,1.000
11.789,6.384,4.985,4.369,1.594,-3.759,-0.733,3.392,-0.040,0.982,-0.155,-0.580,-1.221,0.427,73.333,680719.000,1.000
13.581,9.061,6.593,5.582,4.268,2.258,4.673,6.756,-0.038,0.979,-0.156,-0.580,-1.068,0.519,73.333,680720.000,1.000
15.425,12.975,8.876,7.170,7.797,10.923,12.356,10.158,-0.040,0.979,-0.155,-0.549,-0.977,0.458,73.333,680721.000,1.000
16.518,16.694,10.747,8.444,10.826,18.672,19.083,12.548,-0.039,0.979,-0.155,-0.610,-0.885,0.641,73.333,680722.000,1.000
16.246,18.506,11.228,8.757,11.806,21.438,20.935,12.928,-0.038,0.978,-0.158,-0.549,-0.916,0.641,73.333,680723.000,1.000
14.505,17.470,9.969,7.897,10.119,17.542,16.247,10.986,-0.039,0.977,-0.153,-0.549,-0.763,0.671,73.333,680724.000,1.000
11.866,14.149,7.693,6.481,6.940,9.480,7.908,7.932,-0.040,0.977,-0.155,-0.549,-0.732,0.641,73.333,680725.000,1.000
9.267,10.163,5.647,5.573,4.396,2.114,1.318,5.735,-0.041,0.975,-0.157,-0.519,-0.671,0.641,73.333,680726.000,1.000
7.480,7.060,4.705,5.876,3.815,-1.025,-0.293,5.361,-0.042,0.975,-0.156,-0.488,-0.671,0.671,73.333,680727.000,1.000
6.818,5.600,5.095,7.357,5.028,0.300,2.075,6.259,-0.042,0.978,-0.152,-0.549,-0.549,0.702,73.333,680728.000,1.000
7.157,5.765,6.468,9.472,7.023,3.942,5.125,7.304,-0.041,0.977,-0.155,-0.488,-0.549,0.671,73.333,680729.000,1.000
8.080,7.052,8.208,11.521,8.757,7.358,6.198,7.646,-0.040,0.975,-0.154,-0.458,-0.519,0.854,73.333,680730.000,1.000
8.995,8.684,9.571,12.859,9.478,8.797,4.574,6.818,-0.040,0.976,-0.155,-0.488,-0.519,0.824,73.333,680731.000,1.000
9.301,9.823,9.945,13.065,8.806,7.552,1.179,4.716,-0.040,0.975,-0.156,-0.366,-0.549,0.916,73.333,680732.000,1.000
8.646,9.885,9.172,12.050,6.776,3.978,-2.510,1.613,-0.038,0.977,-0.156,-0.275,-0.641,0.885,73.333,680733.000,1.000
7.064,8.693,7.381,9.956,3.775,-0.738,-5.582,-1.946,-0.038,0.975,-0.154,-0.305,-0.519,0.824,73.333,680734.000,1.000
4.904,6.476,4.933,7.063,0.398,-5.201,-7.888,-5.283,-0.039,0.975,-0.154,-0.275,-0.397,0.824,73.333,680735.000,1.000
2.697,3.831,2.320,3.794,-2.647,-8.262,-9.373,-7.700,-0.040,0.977,-0.155,-0.244,-0.366,0.854,73.333,680736.000,1.000
1.012,1.526,0.074,0.686,-4.644,-9.091,-9.431,-8.508,-0.041,0.976,-0.157,-0.061,-0.336,0.885,73.333,680737.000,1.000
0.199,0.043,-1.403,-1.830,-5.197,-7.402,-7.276,-7.284,-0.040,0.977,-0.153,0.000,-0.305,0.946,73.333,680738.000,1.000
0.189,-0.735,-2.222,-3.676,-4.597,-3.895,-3.077,-4.368,-0.039,0.978,-0.152,0.031,-0.214,0.916,73.333,680739.000,1.000
0.635,-1.320,-2.841,-5.077,-3.774,-0.243,1.587,-1.025,-0.039,0.978,-0.156,0.061,-0.244,0.854,73.333,680740.000,1.000
1.298,-2.059,-3.598,-6.235,-3.616,1.876,4.766,1.217,-0.040,0.980,-0.155,0.061,-0.244,0.916,73.333,680741.000,1.000
2.214,-2.720,-4.291,-6.992,-4.068,2.254,6.179,1.811,-0.040,0.980,-0.156,0.092,-0.183,0.824,73.333,680742.000,1.000
3.482,-2.694,-4.313,-6.901,-4.093,2.403,7.649,1.603,-0.039,0.980,-0.156,0.061,-0.214,0.824,73.333,680743.000,1.000
4.935,-1.744,-3.432,-5.806,-2.880,3.709,10.549,1.590,-0.039,0.979,-0.157,0.031,-0.183,0.916,73.333,680744.000,1.000
5.970,-0.578,-2.166,-4.329,-1.091,5.448,13.234,1.506,-0.040,0.979,-0.158,0.031,-0.244,0.885,73.333,680745.000,1.000
5.784,-0.435,-1.466,-3.551,-0.392,5.405,12.194,0.271,-0.040,0.980,-0.155,-0.061,-0.336,0.916,73.333,680746.000,1.000
4.019,-1.883,-1.815,-3.973,-1.616,2.582,6.294,-2.181,-0.040,0.981,-0.154,0.000,-0.336,0.946,73.333,680747.000,1.000
1.101,-4.328,-2.826,-5.063,-3.950,-1.643,-1.285,-4.523,-0.040,0.979,-0.158,-0.031,-0.305,0.946,73.333,680748.000,1.000
-2.124,-6.735,-3.923,-5.970,-5.982,-5.133,-5.944,-5.545,-0.041,0.978,-0.158,-0.092,-0.275,0.793,73.333,680749.000,1.000
-4.927,-8.450,-4.803,-6.283,-6.967,-7.142,-5.960,-5.167,-0.042,0.976,-0.156,-0.092,-0.153,0.793,73.333,680750.000,1.000
-6.955,-9.415,-5.532,-6.124,-7.113,-8.822,-3.912,-4.012,-0.042,0.978,-0.157,-0.092,-0.275,0.793,73.333,680751.000,1.000
-8.201,-9.841,-6.241,-5.757,-6.890,-11.384,-3.506,-2.641,-0.041,0.976,-0.159,-0.092,-0.275,0.793,73.333,680752.000,1.000
-8.755,-9.783,-6.675,-5.263,-6.323,-14.025,-5.648,-1.345,-0.039,0.978,-0.158,-0.061,-0.336,0.763,73.333,680753.000,1.000
-8.666,-9.213,-6.449,-4.626,-5.174,-14.763,-8.516,-0.254,-0.039,0.979,-0.157,-0.092,-0.366,0.793,73.333,680754.000,1.000
-8.071,-8.428,-5.520,-3.943,-3.594,-13.061,-9.997,0.729,-0.038,0.979,-0.157,-0.183,-0.336,0.916,73.333,680755.000,1.000
-7.269,-8.009,-4.410,-3.429,-2.139,-10.331,-8.987,1.731,-0.037,0.978,-0.155,-0.122,-0.366,0.885,73.333,680756.000,1.000
-6.475,-8.279,-3.815,-3.249,-1.275,-8.044,-5.512,2.464,-0.039,0.979,-0.155,-0.122,-0.488,0.916,73.333,680757.000,1.000
-5.612,-9.080,-4.055,-3.383,-1.155,-6.624,-0.870,2.387,-0.041,0.979,-0.154,-0.214,-0.458,0.916,73.333,680758.000,1.000
-4.422,-9.989,-4.977,-3.623,-1.643,-5.865,2.839,1.404,-0.042,0.978,-0.156,-0.275,-0.580,0.854,73.333,680759.000,1.000
-2.733,-10.553,-5.940,-3.710,-2.385,-5.326,4.222,-0.055,-0.041,0.979,-0.154,-0.336,-0.549,0.854,73.333,680760.000,1.000
-0.666,-10.479,-6.285,-3.608,-2.991,-4.522,3.497,-1.573,-0.040,0.978,-0.157,-0.305,-0.671,0.793,73.333,680761.000,1.000
1.427,-9.721,-5.782,-3.491,-3.235,-3.274,1.927,-2.825,-0.042,0.980,-0.157,-0.275,-0.732,0.793,73.333,680762.000,1.000
3.208,-8.468,-4.623,-3.468,-3.196,-1.960,0.427,-3.591,-0.041,0.979,-0.159,-0.427,-0.763,0.854,73.333,680763.000,1.000
4.506,-7.028,-3.277,-3.444,-3.149,-1.052,-0.845,-3.975,-0.043,0.979,-0.155,-0.397,-0.732,0.824,73.333,680764.000,1.000
5.362,-5.602,-2.053,-3.185,-3.146,-0.279,-1.391,-4.133,-0.042,0.979,-0.156,-0.488,-0.824,0.763,73.333,680765.000,1.000
5.951,-4.262,-1.099,-2.622,-3.037,1.092,-0.477,-4.214,-0.042,0.980,-0.156,-0.549,-0.916,0.854,73.333,680766.000,1.000
6.365,-3.209,-0.634,-2.105,-3.031,2.990,1.369,-4.749,-0.042,0.980,-0.156,-0.580,-0.885,0.916,73.333,680767.000,1.000
6.507,-2.812,-0.850,-2.141,-3.744,3.959,2.114,-6.364,-0.041,0.978,-0.156,-0.671,-0.885,0.885,73.333,680768.000,1.000
6.234,-3.226,-1.663,-2.843,-5.527,2.067,-0.193,-9.041,-0.040,0.977,-0.156,-0.580,-0.977,0.793,73.333,680769.000,1.000
5.615,-3.988,-2.393,-3.631,-7.832,-3.114,-5.286,-11.881,-0.039,0.975,-0.158,-0.519,-1.099,0.824,73.333,680770.000,1.000
4.925,-4.208,-2.188,-3.584,-9.381,-9.464,-10.454,-13.635,-0.040,0.977,-0.157,-0.519,-1.099,0.763,73.333,680771.000,1.000
4.371,-3.330,-0.847,-2.205,-9.229,-14.056,-13.140,-13.537,-0.039,0.976,-0.158,-0.488,-1.160,0.854,73.333,680772.000,1.000
3.916,-1.594,0.991,0.197,-7.458,-15.436,-12.905,-11.642,-0.038,0.975,-0.157,-0.580,-1.221,0.946,73.333,680773.000,1.000
3.440,0.425,2.492,2.979,-4.521,-13.325,-9.989,-8.295,-0.039,0.975,-0.156,-0.610,-1.251,0.916,73.333,680774.000,1.000
2.903,2.357,3.447,5.700,-0.620,-7.643,-4.149,-3.861,-0.040,0.975,-0.158,-0.671,-1.221,0.854,73.333,680775.000,1.000
2.129,3.775,3.927,7.894,3.560,0.289,2.934,0.485,-0.038,0.976,-0.157,-0.549,-1.282,0.854,73.333,680776.000,1.000
0.731,3.948,3.746,8.839,6.358,6.808,6.743,2.720,-0.038,0.977,-0.155,-0.458,-1.312,0.885,73.333,680777.000,1.000
-1.460,2.396,2.803,8.057,6.345,8.049,3.799,1.701,-0.040,0.976,-0.155,-0.397,-1.282,0.885,73.333,680778.000,1.000
-3.995,-0.424,1.448,5.908,3.806,3.195,-4.826,-1.463,-0.040,0.975,-0.156,-0.458,-1.251,0.885,73.333,680779.000,1.000
-5.974,-3.170,0.514,3.528,0.675,-4.607,-14.221,-4.183,-0.040,0.977,-0.157,-0.458,-1.190,0.793,73.333,680780.000,1.000
-6.609,-4.451,0.699,2.083,-0.956,-10.477,-19.186,-4.610,-0.040,0.974,-0.159,-0.488,-1.282,0.732,73.333,680781.000,1.000
-5.667,-3.688,2.055,2.033,-0.255,-11.042,-17.486,-2.974,-0.038,0.975,-0.157,-0.427,-1.251,0.732,73.333,680782.000,1.000
-3.513,-1.306,4.098,3.029,2.168,-6.174,-10.696,-0.827,-0.039,0.975,-0.157,-0.488,-1.221,0.702,73.333,680783.000,1.000
-0.849,1.636,6.046,4.302,4.993,1.466,-2.659,0.499,-0.039,0.976,-0.155,-0.458,-1.312,0.702,73.333,680784.000,1.000
1.641,3.962,7.201,5.145,6.979,8.228,2.988,0.638,-0.039,0.978,-0.156,-0.366,-1.221,0.641,73.333,680785.000,1.000
3.530,4.909,7.198,5.238,7.566,11.537,4.795,0.194,-0.037,0.979,-0.156,-0.397,-1.221,0.580,73.333,680786.000,1.000
4.720,4.506,6.230,4.733,7.159,11.175,4.159,0.335,-0.037,0.978,-0.157,-0.427,-1.282,0.549,73.333,680787.000,1.000
5.337,3.382,4.928,4.006,6.621,8.740,3.668,1.812,-0.040,0.978,-0.158,-0.427,-1.190,0.641,73.333,680788.000,1.000
5.555,2.171,3.704,3.306,6.348,5.823,4.373,4.086,-0.038,0.977,-0.156,-0.458,-1.221,0.549,73.333,680789.000,1.000
5.464,1.195,2.626,2.730,6.044,3.085,5.378,5.726,-0.038,0.978,-0.157,-0.519,-1.129,0.549,73.333,680790.000,1.000
5.047,0.580,1.628,2.390,5.343,0.853,5.624,5.700,-0.038,0.980,-0.158,-0.671,-1.221,0.488,73.333,680791.000,1.000
4.250,0.428,0.808,2.498,4.445,-0.230,5.243,4.326,-0.040,0.979,-0.157,-0.641,-1.251,0.610,73.333,680792.000,1.000
3.096,0.813,0.522,3.242,4.053,0.578,5.389,2.995,-0.041,0.978,-0.159,-0.641,-1.251,0.641,73.333,680793.000,1.000
1.726,1.706,0.988,4.533,4.709,3.402,6.946,2.825,-0.039,0.979,-0.159,-0.702,-1.129,0.641,73.333,680794.000,1.000
0.409,2.902,2.137,5.954,6.197,7.177,9.380,3.721,-0.036,0.979,-0.156,-0.732,-1.190,0.549,73.333,680795.000,1.000
-0.582,3.978,3.537,6.940,7.662,9.971,10.969,4.778,-0.038,0.980,-0.156,-0.793,-1.160,0.671,73.333,680796.000,1.000
-1.130,4.530,4.626,7.097,8.384,10.424,10.522,5.324,-0.038,0.979,-0.160,-0.916,-1.129,0.732,73.333,680797.000,1.000
-1.342,4.529,5.173,6.437,8.417,9.015,8.774,5.409,-0.038,0.978,-0.158,-0.885,-1.160,0.702,73.333,680798.000,1.000
-1.525,4.334,5.288,5.311,8.352,7.695,7.744,5.420,-0.037,0.979,-0.158,-0.793,-1.129,0.671,73.333,680799.000,1.000
-2.053,4.277,5.192,4.104,8.496,8.007,8.651,5.496,-0.039,0.979,-0.158,-0.946,-1.099,0.732,73.333,680800.000,1.000
-3.146,4.292,4.880,2.978,8.447,9.473,10.523,5.462,-0.040,0.979,-0.156,-0.916,-1.190,0.732,73.333,680801.000,1.000
-4.660,4.048,4.198,1.946,7.617,10.228,11.342,5.314,-0.041,0.976,-0.158,-0.885,-1.190,0.610,73.333,680802.000,1.000
-6.185,3.240,3.090,0.939,5.784,8.828,9.765,5.220,-0.040,0.977,-0.158,-0.854,-1.099,0.610,73.333,680803.000,1.000
-7.429,1.607,1.396,-0.324,2.921,4.808,5.072,4.886,-0.038,0.975,-0.161,-0.824,-1.099,0.610,73.333,680804.000,1.000
-8.336,-0.902,-0.927,-2.095,-0.819,-1.300,-2.621,3.688,-0.039,0.976,-0.159,-0.793,-1.160,0.610,73.333,680805.000,1.000
-8.820,-3.776,-3.491,-4.173,-4.715,-7.652,-11.418,1.419,-0.038,0.976,-0.156,-0.854,-1.221,0.671,73.333,680806.000,1.000
-8.713,-6.086,-5.572,-5.939,-7.634,-11.866,-18.041,-1.472,-0.038,0.977,-0.157,-0.854,-1.251,0.641,73.333,680807.000,1.000
-8.011,-7.096,-6.551,-6.797,-8.760,-12.576,-19.663,-4.076,-0.038,0.977,-0.158,-0.732,-1.282,0.580,73.333,680808.000,1.000
-7.043,-6.750,-6.517,-6.626,-8.172,-10.160,-15.879,-5.532,-0.039,0.976,-0.158,-0.641,-1.221,0.610,73.333,680809.000,1.000
-6.344,-5.722,-6.235,-5.964,-6.924,-6.375,-9.289,-5.813,-0.039,0.976,-0.162,-0.702,-1.251,0.610,73.333,680810.000,1.000
-6.368,-4.986,-6.712,-5.719,-6.440,-3.271,-3.727,-5.922,-0.039,0.977,-0.160,-0.763,-1.221,0.519,73.333,680811.000,1.000
-7.175,-5.129,-8.430,-6.432,-7.495,-1.980,-1.556,-6.907,-0.038,0.973,-0.157,-0.732,-1.221,0.488,73.333,680812.000,1.000
-8.321,-6.042,-10.911,-7.810,-9.818,-2.519,-3.031,-8.933,-0.039,0.976,-0.156,-0.641,-1.251,0.427,73.333,680813.000,1.000
-9.204,-7.279,-13.282,-9.121,-12.614,-4.526,-7.460,-11.454,-0.038,0.975,-0.157,-0.641,-1.312,0.488,73.333,680814.000,1.000
-9.509,-8.433,-14.771,-9.813,-15.009,-7.409,-13.214,-13.682,-0.038,0.977,-0.158,-0.580,-1.221,0.488,73.333,680815.000,1.000
-9.278,-9.095,-14.865,-9.621,-16.055,-9.883,-17.285,-14.646,-0.039,0.978,-0.160,-0.671,-1.221,0.427,73.333,680816.000,1.000
-8.727,-8.815,-13.318,-8.428,-14.948,-10.336,-16.708,-13.322,-0.037,0.978,-0.160,-0.580,-1.251,0.519,73.333,680817.000,1.000
-8.158,-7.462,-10.366,-6.402,-11.768,-8.127,-11.059,-9.519,-0.035,0.978,-0.159,-0.610,-1.312,0.549,73.333,680818.000,1.000
-7.833,-5.443,-6.945,-4.169,-7.714,-4.007,-2.959,-4.583,-0.039,0.980,-0.159,-0.549,-1.282,0.549,73.333,680819.000,1.000
-7.698,-3.271,-3.992,-2.345,-4.084,1.045,4.661,-0.362,-0.040,0.979,-0.158,-0.580,-1.190,0.549,73.333,680820.000,1.000
-7.383,-1.176,-1.831,-1.064,-1.328,6.417,10.640,2.325,-0.039,0.979,-0.159,-0.671,-1.282,0.549,73.333,680821.000,1.000
-6.681,0.611,-0.377,-0.261,0.498,10.774,14.373,3.621,-0.040,0.979,-0.162,-0.763,-1.282,0.549,73.333,680822.000,1.000
-5.822,1.610,0.413,-0.114,1.026,11.858,14.504,3.679,-0.040,0.980,-0.159,-0.854,-1.190,0.610,73.333,680823.000,1.000
-5.135,1.531,0.409,-0.936,-0.058,8.499,10.235,2.362,-0.041,0.980,-0.158,-0.977,-1.190,0.610,73.333,680824.000,1.000
-4.650,0.689,-0.281,-2.738,-2.412,1.984,2.960,-0.338,-0.041,0.980,-0.159,-1.007,-1.160,0.519,73.333,680825.000,1.000
-4.157,-0.262,-1.257,-5.092,-5.252,-5.144,-4.722,-4.022,-0.042,0.979,-0.163,-1.099,-1.282,0.610,73.333,680826.000,1.000
-3.432,-0.785,-2.071,-7.317,-7.874,-10.772,-10.846,-8.010,-0.041,0.980,-0.159,-1.099,-1.251,0.671,73.333,680827.000,1.000
-2.340,-0.583,-2.346,-8.733,-9.692,-13.515,-14.155,-11.357,-0.040,0.980,-0.153,-1.129,-1.312,0.702,73.333,680828.000,1.000
-0.858,0.528,-1.859,-8.796,-9.929,-12.388,-13.208,-12.584,-0.040,0.979,-0.155,-1.312,-1.312,0.732,73.333,680829.000,1.000
0.931,2.687,-0.383,-7.223,-7.759,-6.973,-6.670,-10.032,-0.039,0.981,-0.156,-1.343,-1.312,0.763,73.333,680830.000,1.000
2.722,5.614,1.940,-4.396,-3.333,1.429,4.225,-3.512,-0.040,0.979,-0.156,-1.495,-1.282,0.671,73.333,680831.000,1.000
3.853,8.252,4.168,-1.553,1.501,9.390,14.349,4.475,-0.040,0.978,-0.157,-1.495,-1.373,0.793,73.333,680832.000,1.000
3.539,9.187,4.946,-0.163,4.116,13.311,17.876,9.881,-0.041,0.977,-0.156,-1.587,-1.343,0.885,73.333,680833.000,1.000
1.310,7.432,3.277,-1.041,2.839,11.565,12.734,9.831,-0.040,0.977,-0.153,-1.648,-1.373,0.824,73.333,680834.000,1.000
-2.634,2.880,-0.775,-3.902,-2.158,4.685,1.395,4.522,-0.040,0.976,-0.155,-1.617,-1.343,0.946,73.333,680835.000,1.000
-7.332,-3.541,-6.120,-7.585,-9.082,-5.146,-11.487,-3.198,-0.041,0.976,-0.158,-1.617,-1.312,0.946,73.333,680836.000,1.000
-11.369,-10.018,-11.148,-10.681,-15.363,-14.426,-21.221,-9.733,-0.042,0.977,-0.154,-1.556,-1.343,0.854,73.333,680837.000,1.000
-13.631,-14.630,-14.457,-12.251,-18.885,-19.804,-24.654,-12.671,-0.042,0.974,-0.153,-1.526,-1.373,0.977,73.333,680838.000,1.000
-13.958,-16.382,-15.654,-12.273,-19.075,-20.287,-21.748,-11.847,-0.042,0.973,-0.154,-1.465,-1.434,1.007,73.333,680839.000,1.000
-12.981,-15.481,-15.215,-11.360,-16.824,-17.382,-15.276,-8.868,-0.042,0.970,-0.155,-1.404,-1.404,0.977,73.333,680840.000,1.000
-11.415,-12.766,-13.859,-10.110,-13.426,-13.038,-8.537,-5.727,-0.039,0.972,-0.153,-1.312,-1.404,0.916,73.333,680841.000,1.000
-9.629,-9.177,-12.036,-8.750,-9.778,-8.345,-3.474,-3.696,-0.040,0.973,-0.153,-1.221,-1.526,0.946,73.333,680842.000,1.000
-7.712,-5.580,-9.751,-7.201,-6.331,-4.043,-0.482,-2.881,-0.038,0.975,-0.154,-1.129,-1.526,0.854,73.333,680843.000,1.000
-5.723,-2.626,-6.925,-5.319,-3.325,-1.024,0.768,-2.493,-0.039,0.977,-0.154,-1.038,-1.556,0.763,73.333,680844.000,1.000
-3.922,-0.643,-3.683,-3.205,-1.035,0.057,0.578,-1.795,-0.040,0.977,-0.157,-1.038,-1.465,0.671,73.333,680845.000,1.000
-2.805,0.321,-0.585,-1.433,0.108,-0.742,-1.060,-1.045,-0.038,0.977,-0.156,-1.068,-1.526,0.641,73.333,680846.000,1.000
-2.732,0.539,1.668,-0.717,-0.076,-2.475,-3.705,-1.163,-0.041,0.977,-0.154,-1.129,-1.495,0.549,73.333,680847.000,1.000
-3.490,0.653,2.875,-1.193,-0.995,-3.622,-5.784,-2.401,-0.040,0.979,-0.153,-1.038,-1.526,0.549,73.333,680848.000,1.000
-4.348,1.292,3.322,-2.277,-1.642,-3.324,-5.857,-3.926,-0.039,0.979,-0.157,-0.916,-1.526,0.519,73.333,680849.000,1.000
-4.596,2.493,3.467,-3.262,-1.580,-2.519,-4.409,-4.794,-0.038,0.978,-0.156,-1.038,-1.526,0.397,73.333,680850.000,1.000
-4.011,3.588,3.508,-3.913,-1.355,-3.318,-3.831,-4.898,-0.036,0.978,-0.155,-1.068,-1.526,0.458,73.333,680851.000,1.000
-2.784,3.833,3.428,-4.391,-1.769,-6.884,-6.168,-4.695,-0.034,0.979,-0.155,-1.099,-1.465,0.458,73.333,680852.000,1.000
-1.101,3.203,3.399,-4.751,-2.822,-11.894,-10.823,-4.390,-0.031,0.979,-0.158,-0.946,-1.404,0.458,73.333,680853.000,1.000
0.989,2.422,3.666,-4.765,-3.627,-15.338,-15.056,-3.791,-0.030,0.978,-0.157,-1.038,-1.160,0.458,73.333,680854.000,1.000
3.316,2.269,4.283,-4.116,-3.300,-14.884,-16.377,-2.654,-0.033,0.977,-0.156,-1.007,-1.068,0.458,73.333,680855.000,1.000
5.422,2.947,4.896,-2.699,-1.685,-10.429,-14.002,-0.926,-0.036,0.977,-0.157,-0.977,-1.068,0.519,73.333,680856.000,1.000
6.752,4.011,4.938,-0.717,0.637,-3.909,-8.737,1.248,-0.040,0.979,-0.158,-0.946,-0.977,0.427,73.333,680857.000,1.000
6.971,4.667,4.029,1.393,2.650,1.847,-2.519,3.493,-0.042,0.979,-0.158,-0.854,-1.099,0.427,73.333,680858.000,1.000
6.133,4.218,2.080,3.022,3.287,4.523,2.179,5.035,-0.041,0.979,-0.154,-0.793,-0.977,0.458,73.333,680859.000,1.000
4.713,2.591,-0.482,3.653,2.058,3.616,3.768,4.938,-0.041,0.980,-0.155,-0.885,-1.007,0.427,73.333,680860.000,1.000
3.453,0.506,-2.777,3.334,-0.417,0.692,2.697,2.987,-0.042,0.980,-0.160,-0.885,-1.099,0.519,73.333,680861.000,1.000
2.952,-1.028,-3.878,2.809,-2.710,-1.841,0.885,0.215,-0.041,0.982,-0.160,-0.946,-1.129,0.519,73.333,680862.000,1.000
3.204,-1.474,-3.348,2.868,-3.690,-2.435,-0.187,-1.991,-0.041,0.983,-0.160,-0.977,-1.190,0.641,73.333,680863.000,1.000
3.587,-1.027,-1.620,3.591,-3.336,-1.229,-0.851,-3.195,-0.041,0.985,-0.161,-1.068,-1.099,0.702,73.333,680864.000,1.000
3.455,-0.181,0.479,4.468,-2.429,0.459,-2.418,-3.833,-0.042,0.984,-0.158,-1.099,-1.099,0.580,73.333,680865.000,1.000
2.728,0.770,2.341,5.058,-1.677,1.224,-5.259,-4.191,-0.041,0.981,-0.160,-1.099,-1.221,0.610,73.333,680866.000,1.000
1.876,1.775,3.778,5.246,-1.346,0.303,-8.233,-4.194,-0.041,0.978,-0.159,-1.038,-1.251,0.580,73.333,680867.000,1.000
1.401,2.764,4.809,4.972,-1.532,-2.156,-10.111,-4.231,-0.041,0.975,-0.156,-1.038,-1.221,0.519,73.333,680868.000,1.000
1.443,3.508,5.304,4.101,-2.316,-5.189,-10.882,-5.225,-0.041,0.975,-0.159,-1.007,-1.251,0.580,73.333,680869.000,1.000
1.837,3.749,5.216,2.664,-3.607,-7.665,-11.341,-7.564,-0.043,0.976,-0.159,-0.916,-1.312,0.427,73.333,680870.000,1.000
2.309,3.362,4.725,0.925,-5.103,-9.046,-12.080,-10.657,-0.043,0.978,-0.160,-0.854,-1.282,0.458,73.333,680871.000,1.000
2.566,2.489,4.168,-0.806,-6.319,-9.246,-12.725,-13.398,-0.043,0.980,-0.158,-0.793,-1.343,0.427,73.333,680872.000,1.000
2.366,1.562,3.899,-2.275,-6.674,-8.131,-12.098,-14.656,-0.042,0.983,-0.153,-0.824,-1.373,0.427,73.333,680873.000,1.000
1.660,1.067,4.005,-3.292,-5.797,-5.715,-9.451,-13.648,-0.041,0.985,-0.152,-1.007,-1.434,0.397,73.333,680874.000,1.000
0.737,1.347,4.419,-3.676,-3.648,-2.253,-4.886,-10.190,-0.040,0.986,-0.150,-0.946,-1.526,0.305,73.333,680875.000,1.000
0.123,2.518,5.028,-3.311,-0.440,2.004,0.963,-4.835,-0.039,0.986,-0.152,-1.099,-1.587,0.244,73.333,680876.000,1.000
0.162,4.280,5.599,-2.367,3.158,6.263,6.476,1.050,-0.039,0.986,-0.150,-1.312,-1.495,0.305,73.333,680877.000,1.000
0.713,5.889,5.818,-1.286,5.990,8.818,9.220,5.699,-0.040,0.985,-0.153,-1.434,-1.465,0.244,73.333,680878.000,1.000
1.317,6.679,5.485,-0.342,7.257,8.486,8.189,8.125,-0.039,0.981,-0.151,-1.617,-1.465,0.275,73.333,680879.000,1.000
1.518,6.498,4.764,0.609,7.200,5.969,5.253,8.822,-0.039,0.978,-0.150,-1.648,-1.465,0.305,73.333,680880.000,1.000
0.971,5.532,3.824,1.725,6.609,3.102,3.263,8.972,-0.040,0.979,-0.150,-1.648,-1.434,0.305,73.333,680881.000,1.000
-0.438,4.091,2.621,2.873,6.119,1.535,3.698,9.427,-0.041,0.975,-0.154,-1.709,-1.465,0.275,73.333,680882.000,1.000
-2.388,2.639,1.237,3.812,6.092,2.196,6.399,10.491,-0.041,0.975,-0.154,-1.648,-1.343,0.336,73.333,680883.000,1.000
-4.189,1.668,-0.039,4.373,6.600,4.894,10.121,11.889,-0.039,0.973,-0.153,-1.617,-1.343,0.305,73.333,680884.000,1.000
-5.209,1.361,-0.862,4.410,7.301,8.313,12.954,12.689,-0.039,0.973,-0.154,-1.617,-1.312,0.305,73.333,680885.000,1.000
-5.342,1.411,-1.230,3.711,7.520,10.839,12.996,11.618,-0.042,0.975,-0.152,-1.465,-1.282,0.305,73.333,680886.000,1.000
-5.001,1.242,-1.469,2.136,6.668,11.410,9.580,8.058,-0.041,0.975,-0.150,-1.404,-1.312,0.427,73.333,680887.000,1.000
-4.620,0.528,-1.709,-0.032,4.771,9.784,4.096,2.965,-0.043,0.972,-0.152,-1.343,-1.312,0.366,73.333,680888.000,1.000
-4.241,-0.492,-1.699,-1.987,2.623,6.620,-0.673,-1.328,-0.043,0.970,-0.149,-1.129,-1.373,0.305,73.333,680889.000,1.000
-3.628,-1.214,-1.007,-2.832,1.287,3.273,-2.282,-2.526,-0.042,0.971,-0.149,-1.068,-1.404,0.305,73.333,680890.000,1.000
-2.665,-1.139,0.469,-2.187,1.299,0.997,-0.252,0.012,-0.044,0.973,-0.152,-1.099,-1.434,0.275,73.333,680891.000,1.000
-1.480,-0.048,2.450,-0.340,2.470,0.420,3.841,4.885,-0.044,0.973,-0.150,-1.038,-1.434,0.305,73.333,680892.000,1.000
-0.283,2.094,4.676,2.026,4.332,1.792,7.808,9.755,-0.043,0.972,-0.147,-1.038,-1.556,0.397,73.333,680893.000,1.000
0.728,5.128,6.965,4.167,6.542,5.120,10.213,12.842,-0.042,0.973,-0.153,-0.946,-1.526,0.427,73.333,680894.000,1.000
1.430,8.622,9.227,5.573,8.869,9.845,10.934,13.725,-0.042,0.974,-0.152,-0.916,-1.556,0.397,73.333,680895.000,1.000
1.859,11.884,11.262,6.108,11.005,14.823,10.891,13.045,-0.039,0.973,-0.149,-0.946,-1.495,0.275,73.333,680896.000,1.000
2.291,14.254,12.756,5.992,12.656,19.049,11.505,11.838,-0.043,0.975,-0.149,-0.885,-1.465,0.397,73.333,680897.000,1.000
3.161,15.534,13.605,5.722,13.864,22.227,13.895,11.183,-0.043,0.974,-0.151,-0.641,-1.526,0.458,73.333,680898.000,1.000
4.673,15.946,13.889,5.718,14.847,24.250,17.661,11.765,-0.041,0.973,-0.155,-0.702,-1.465,0.549,73.333,680899.000,1.000
6.417,15.711,13.707,5.968,15.485,24.560,20.726,13.309,-0.041,0.975,-0.153,-0.671,-1.373,0.610,73.333,680900.000,1.000
7.593,14.911,13.058,6.136,15.387,22.665,20.847,14.699,-0.040,0.977,-0.151,-0.671,-1.221,0.580,73.333,680901.000,1.000
7.700,13.709,12.007,5.997,14.415,18.948,17.278,14.957,-0.040,0.976,-0.152,-0.702,-1.312,0.641,73.333,680902.000,1.000
6.901,12.365,10.833,5.641,12.851,14.507,11.195,13.943,-0.039,0.977,-0.153,-0.671,-1.312,0.732,73.333,680903.000,1.000
5.775,11.129,9.779,5.310,11.180,10.622,4.861,12.154,-0.040,0.978,-0.151,-0.610,-1.343,0.732,73.333,680904.000,1.000
4.922,10.293,9.023,5.224,9.906,8.474,0.483,10.241,-0.039,0.978,-0.156,-0.580,-1.251,0.916,73.333,680905.000,1.000
4.703,10.154,8.614,5.501,9.413,8.573,-0.800,8.858,-0.040,0.979,-0.156,-0.580,-1.251,0.885,73.333,680906.000,1.000
4.986,10.615,8.260,6.026,9.674,10.044,0.625,8.598,-0.039,0.979,-0.156,-0.549,-1.190,0.977,73.333,680907.000,1.000
4.966,10.790,7.174,6.217,9.942,10.975,3.090,9.373,-0.038,0.978,-0.158,-0.549,-1.129,0.916,73.333,680908.000,1.000
3.586,9.367,4.312,5.138,8.952,9.795,4.409,9.857,-0.039,0.979,-0.159,-0.458,-1.129,0.824,73.333,680909.000,1.000
0.462,5.660,-0.599,2.285,5.845,6.384,3.058,8.270,-0.038,0.981,-0.159,-0.549,-1.099,0.916,73.333,680910.000,1.000
-3.711,0.247,-6.575,-1.823,0.985,2.044,-0.921,3.931,-0.040,0.981,-0.157,-0.580,-0.977,0.977,73.333,680911.000,1.000
-7.621,-5.434,-11.975,-5.934,-4.230,-1.539,-5.997,-2.090,-0.040,0.981,-0.156,-0.671,-0.946,0.977,73.333,680912.000,1.000
-10.167,-10.035,-15.524,-8.961,-8.451,-3.694,-10.457,-7.905,-0.039,0.980,-0.156,-0.519,-0.916,1.007,73.333,680913.000,1.000
-11.003,-12.959,-17.040,-10.557,-11.179,-5.283,-13.586,-12.015,-0.041,0.979,-0.158,-0.580,-0.885,0.916,73.333,680914.000,1.000
-10.526,-14.291,-17.090,-10.946,-12.524,-7.612,-15.197,-13.578,-0.040,0.981,-0.156,-0.641,-0.916,0.885,73.333,680915.000,1.000
-9.450,-14.335,-16.340,-10.486,-12.598,-10.920,-14.857,-12.268,-0.040,0.980,-0.156,-0.610,-0.885,0.946,73.333,680916.000,1.000
-8.347,-13.284,-15.046,-9.361,-11.316,-13.988,-12.114,-8.291,-0.039,0.981,-0.157,-0.641,-0.824,0.885,73.333,680917.000,1.000
-7.426,-11.247,-12.950,-7.615,-8.698,-15.067,-7.159,-2.578,-0.039,0.980,-0.156,-0.549,-0.824,0.885,73.333,680918.000,1.000
-6.652,-8.565,-9.923,-5.528,-5.316,-13.290,-1.177,3.034,-0.040,0.979,-0.156,-0.580,-0.885,0.916,73.333,680919.000,1.000
-5.980,-5.986,-6.466,-3.807,-2.388,-9.500,3.844,6.297,-0.040,0.980,-0.156,-0.793,-0.824,0.916,73.333,680920.000,1.000
-5.476,-4.369,-3.629,-3.271,-1.217,-5.726,5.790,5.789,-0.041,0.980,-0.157,-0.763,-0.763,0.824,73.333,680921.000,1.000
-5.234,-4.042,-2.251,-4.163,-2.152,-3.462,3.978,2.114,-0.040,0.982,-0.158,-0.824,-0.763,0.763,73.333,680922.000,1.000
-5.226,-4.513,-2.255,-5.769,-4.122,-2.571,0.328,-2.174,-0.040,0.980,-0.155,-0.916,-0.732,0.732,73.333,680923.000,1.000
-5.290,-4.976,-2.927,-6.890,-5.514,-2.098,-2.066,-4.408,-0.041,0.979,-0.156,-0.854,-0.732,0.732,73.333,680924.000,1.000
-5.242,-5.013,-3.536,-6.693,-5.531,-1.599,-1.654,-3.862,-0.040,0.979,-0.154,-0.916,-0.824,0.763,73.333,680925.000,1.000
-4.997,-4.762,-3.844,-5.165,-4.548,-1.265,0.723,-1.936,-0.039,0.976,-0.152,-1.007,-0.916,0.824,73.333,680926.000,1.000
-4.551,-4.547,-3.950,-2.810,-3.308,-1.071,3.547,-0.345,-0.040,0.975,-0.155,-1.160,-0.916,0.824,73.333,680927.000,1.000
-3.777,-4.433,-3.742,0.027,-2.023,-0.233,6.464,0.587,-0.040,0.974,-0.155,-1.068,-0.763,0.732,73.333,680928.000,1.000
-2.488,-4.328,-3.022,3.251,-0.512,1.806,9.642,1.721,-0.040,0.975,-0.154,-0.885,-0.702,0.763,73.333,680929.000,1.000
-0.885,-4.495,-1.966,6.464,0.924,3.775,11.825,3.536,-0.040,0.977,-0.160,-0.916,-0.732,0.732,73.333,680930.000,1.000
0.322,-5.574,-1.270,8.804,1.397,3.049,10.570,5.369,-0.042,0.979,-0.158,-0.824,-0.732,0.702,73.333,680931.000,1.000
0.432,-7.946,-1.588,9.566,0.293,-2.046,4.605,6.146,-0.041,0.980,-0.154,-0.702,-0.763,0.732,73.333,680932.000,1.000
-0.765,-11.212,-2.946,8.687,-2.150,-10.671,-4.845,5.145,-0.039,0.979,-0.151,-0.854,-0.854,0.916,73.333,680933.000,1.000
-2.870,-14.165,-4.695,6.749,-4.794,-19.401,-14.350,2.502,-0.040,0.977,-0.155,-0.885,-0.885,0.977,73.333,680934.000,1.000
-5.037,-15.310,-5.691,4.768,-5.983,-23.930,-19.654,-0.347,-0.039,0.974,-0.156,-0.885,-0.854,1.007,73.333,680935.000,1.000
-6.459,-13.956,-5.141,3.561,-4.699,-22.183,-18.362,-1.579,-0.039,0.969,-0.156,-0.793,-1.007,0.885,73.333,680936.000,1.000
-6.814,-10.812,-3.317,3.153,-1.500,-15.774,-11.664,-0.672,-0.043,0.968,-0.158,-0.671,-0.946,0.793,73.333,680937.000,1.000
-6.189,-7.263,-1.150,3.004,2.045,-8.149,-3.160,1.336,-0.044,0.969,-0.152,-0.458,-1.038,0.824,73.333,680938.000,1.000
-4.827,-4.228,0.566,2.651,4.725,-1.662,3.907,3.174,-0.045,0.972,-0.153,-0.275,-1.099,0.732,73.333,680939.000,1.000
-3.123,-1.916,1.610,1.958,6.258,3.400,8.532,4.407,-0.045,0.975,-0.155,-0.275,-1.221,0.549,73.333,680940.000,1.000
-1.700,-0.445,1.887,0.799,6.615,7.322,11.130,4.988,-0.046,0.979,-0.156,-0.214,-1.282,0.488,73.333,680941.000,1.000
-1.143,-0.213,1.057,-1.142,5.336,9.411,11.654,4.315,-0.046,0.979,-0.152,-0.275,-1.373,0.336,73.333,680942.000,1.000
-1.592,-1.517,-1.154,-4.067,1.907,8.509,9.512,1.318,-0.042,0.979,-0.153,-0.336,-1.434,0.336,73.333,680943.000,1.000
-2.591,-4.035,-4.527,-7.635,-3.325,4.576,5.040,-4.383,-0.042,0.980,-0.154,-0.275,-1.556,0.183,73.333,680944.000,1.000
-3.303,-6.778,-8.057,-10.911,-8.832,-0.751,0.291,-11.429,-0.042,0.980,-0.155,-0.366,-1.526,0.122,73.333,680945.000,1.000
-2.969,-8.595,-10.476,-12.886,-12.734,-5.086,-2.237,-17.316,-0.041,0.978,-0.153,-0.458,-1.740,0.061,73.333,680946.000,1.000
-1.385,-8.866,-11.123,-13.101,-14.010,-6.663,-1.468,-20.205,-0.040,0.979,-0.155,-0.580,-1.740,0.031,73.333,680947.000,1.000
0.992,-7.794,-10.234,-11.784,-12.878,-5.153,1.774,-19.882,-0.041,0.976,-0.157,-0.610,-1.587,0.061,73.333,680948.000,1.000
3.375,-6.118,-8.695,-9.520,-10.320,-1.747,5.442,-17.298,-0.038,0.977,-0.159,-0.610,-1.617,0.092,73.333,680949.000,1.000
5.092,-4.667,-7.386,-6.911,-7.592,1.238,7.215,-13.802,-0.038,0.978,-0.156,-0.519,-1.648,0.092,73.333,680950.000,1.000
5.815,-3.962,-6.808,-4.479,-5.817,1.570,5.649,-10.761,-0.038,0.979,-0.157,-0.427,-1.648,0.183,73.333,680951.000,1.000
5.650,-3.857,-6.870,-2.550,-5.331,-1.037,1.552,-9.006,-0.037,0.980,-0.159,-0.275,-1.648,0.214,73.333,680952.000,1.000
5.108,-3.600,-6.867,-1.074,-5.325,-4.589,-2.062,-8.194,-0.036,0.981,-0.161,-0.336,-1.587,0.336,73.333,680953.000,1.000
4.791,-2.552,-6.148,0.227,-4.676,-6.908,-2.553,-7.260,-0.038,0.982,-0.156,-0.366,-1.556,0.366,73.333,680954.000,1.000
4.918,-0.820,-4.740,1.424,-3.108,-7.409,-0.002,-5.740,-0.037,0.982,-0.155,-0.366,-1.373,0.488,73.333,680955.000,1.000
5.223,0.962,-3.302,2.270,-1.164,-6.486,3.519,-4.159,-0.041,0.983,-0.157,-0.458,-1.343,0.488,73.333,680956.000,1.000
5.359,2.337,-2.414,2.569,0.675,-4.270,6.320,-3.134,-0.043,0.983,-0.156,-0.580,-1.434,0.519,73.333,680957.000,1.000
5.228,3.216,-2.152,2.368,2.197,-0.932,7.830,-2.816,-0.043,0.981,-0.154,-0.580,-1.434,0.580,73.333,680958.000,1.000
4.924,3.602,-2.338,1.831,3.137,2.591,7.950,-3.032,-0.042,0.979,-0.154,-0.610,-1.373,0.549,73.333,680959.000,1.000
4.625,3.604,-2.567,1.228,3.400,5.307,7.179,-3.283,-0.041,0.978,-0.155,-0.641,-1.404,0.610,73.333,680960.000,1.000
4.476,3.518,-2.392,0.829,3.302,7.125,6.501,-3.030,-0.042,0.977,-0.154,-0.641,-1.343,0.671,73.333,680961.000,1.000
4.444,3.544,-1.783,0.597,3.120,8.277,6.043,-2.442,-0.043,0.979,-0.155,-0.671,-1.404,0.671,73.333,680962.000,1.000
4.335,3.520,-1.169,0.142,2.694,8.365,4.531,-2.446,-0.043,0.977,-0.154,-0.671,-1.495,0.580,73.333,680963.000,1.000
4.058,3.248,-0.967,-0.761,1.974,7.120,1.298,-3.476,-0.042,0.977,-0.154,-0.610,-1.465,0.549,73.333,680964.000,1.000
3.892,3.077,-0.867,-1.581,1.869,5.995,-1.300,-4.170,-0.042,0.979,-0.157,-0.732,-1.495,0.488,73.333,680965.000,1.000
4.314,3.755,-0.046,-1.301,3.743,7.463,0.532,-2.240,-0.042,0.977,-0.158,-0.702,-1.373,0.519,73.333,680966.000,1.000
5.469,5.528,1.872,0.552,7.669,12.104,7.320,2.847,-0.042,0.978,-0.156,-0.793,-1.343,0.519,73.333,680967.000,1.000
6.919,7.660,4.350,3.280,11.730,17.352,14.712,8.659,-0.042,0.976,-0.158,-0.702,-1.465,0.458,73.333,680968.000,1.000
7.934,8.996,6.272,5.521,13.473,19.667,17.217,11.708,-0.042,0.974,-0.154,-0.824,-1.434,0.549,73.333,680969.000,1.000
8.078,8.925,6.912,6.397,11.984,17.592,12.980,10.366,-0.042,0.974,-0.153,-0.763,-1.373,0.549,73.333,680970.000,1.000
7.557,7.834,6.436,6.221,8.664,12.927,5.103,6.059,-0.041,0.973,-0.156,-0.732,-1.434,0.488,73.333,680971.000,1.000
6.995,6.728,5.652,6.138,6.157,9.281,-0.933,2.147,-0.043,0.975,-0.156,-0.702,-1.495,0.397,73.333,680972.000,1.000
6.849,6.310,5.336,7.079,6.309,9.124,-1.397,1.592,-0.041,0.976,-0.156,-0.671,-1.434,0.427,73.333,680973.000,1.000
7.076,6.427,5.596,8.978,8.860,11.917,3.287,5.092,-0.043,0.977,-0.156,-0.549,-1.526,0.397,73.333,680974.000,1.000
7.331,6.380,6.010,10.926,11.901,14.984,9.515,10.782,-0.044,0.976,-0.155,-0.610,-1.556,0.397,73.333,680975.000,1.000
7.313,5.541,6.006,11.858,13.293,15.655,13.182,15.353,-0.043,0.976,-0.156,-0.671,-1.465,0.427,73.333,680976.000,1.000
6.929,3.708,5.244,11.193,11.902,12.718,12.133,16.046,-0.044,0.976,-0.157,-0.610,-1.587,0.397,73.333,680977.000,1.000
6.271,1.233,3.914,9.158,8.194,7.013,7.292,12.452,-0.044,0.978,-0.156,-0.671,-1.678,0.458,73.333,680978.000,1.000
5.546,-1.068,2.560,6.628,3.899,1.124,1.678,6.515,-0.046,0.977,-0.157,-0.610,-1.678,0.427,73.333,680979.000,1.000
4.992,-2.347,1.778,4.625,0.930,-2.170,-1.682,1.009,-0.045,0.978,-0.155,-0.519,-1.740,0.397,73.333,680980.000,1.000
4.811,-2.222,1.894,3.831,0.388,-1.708,-1.273,-1.851,-0.047,0.976,-0.156,-0.549,-1.831,0.336,73.333,680981.000,1.000
5.156,-0.914,2.918,4.365,2.175,1.452,2.391,-1.154,-0.046,0.979,-0.153,-0.763,-1.892,0.366,73.333,680982.000,1.000
6.082,0.918,4.623,5.754,5.065,4.819,6.687,2.249,-0.046,0.979,-0.156,-0.732,-1.923,0.397,73.333,680983.000,1.000
7.508,2.514,6.464,7.164,7.325,6.092,8.034,6.072,-0.044,0.980,-0.156,-0.732,-1.984,0.458,73.333,680984.000,1.000
9.305,3.469,7.926,7.929,7.809,4.802,4.718,8.034,-0.044,0.979,-0.154,-0.793,-2.014,0.427,73.333,680985.000,1.000
11.317,3.908,8.814,7.875,6.544,2.431,-1.709,7.165,-0.044,0.979,-0.156,-0.824,-2.136,0.549,73.333,680986.000,1.000
13.190,4.155,9.206,7.186,4.331,0.674,-8.035,4.116,-0.042,0.980,-0.154,-0.885,-2.136,0.549,73.333,680987.000,1.000
14.323,4.405,9.320,6.173,2.135,0.132,-11.335,0.630,-0.044,0.979,-0.154,-0.793,-2.167,0.488,73.333,680988.000,1.000
14.182,4.752,9.332,5.132,0.803,0.826,-9.777,-1.476,-0.042,0.979,-0.157,-0.763,-2.197,0.610,73.333,680989.000,1.000
12.663,5.246,9.332,4.225,0.750,2.682,-3.507,-1.322,-0.042,0.980,-0.156,-0.854,-2.197,0.671,73.333,680990.000,1.000
10.088,5.704,9.119,3.384,1.600,4.877,4.584,0.706,-0.039,0.979,-0.156,-0.854,-2.106,0.671,73.333,680991.000,1.000
6.925,5.636,8.168,2.407,2.364,5.776,10.238,3.414,-0.040,0.981,-0.154,-0.793,-2.045,0.702,73.333,680992.000,1.000
3.639,4.578,6.050,1.191,2.154,4.356,10.806,5.468,-0.039,0.979,-0.157,-0.793,-1.831,0.702,73.333,680993.000,1.000
0.736,2.567,2.878,-0.137,0.861,1.512,7.073,5.973,-0.038,0.982,-0.156,-0.916,-1.892,0.732,73.333,680994.000,1.000
-1.302,0.222,-0.468,-1.237,-0.849,-0.625,2.268,4.777,-0.039,0.981,-0.156,-1.007,-1.770,0.854,73.333,680995.000,1.000
-2.258,-1.713,-2.829,-1.797,-2.246,-0.884,-0.777,2.312,-0.040,0.981,-0.154,-1.038,-1.831,0.824,73.333,680996.000,1.000
-2.228,-2.730,-3.415,-1.649,-2.938,0.110,-1.091,-0.539,-0.040,0.981,-0.154,-1.160,-1.770,0.916,73.333,680997.000,1.000
-1.440,-2.628,-2.129,-0.760,-2.735,1.224,0.816,-2.689,-0.039,0.979,-0.153,-1.190,-1.678,0.854,73.333,680998.000,1.000
-0.246,-1.684,0.204,0.587,-1.850,1.549,2.996,-3.762,-0.040,0.978,-0.152,-1.190,-1.648,0.885,73.333,680999.000,1.000
0.828,-0.699,2.285,1.704,-1.112,0.029,2.606,-4.482,-0.040,0.978,-0.150,-1.160,-1.556,0.854,73.333,681000.000,1.000
1.370,-0.360,3.262,2.005,-1.196,-3.631,-1.582,-5.580,-0.040,0.980,-0.154,-1.221,-1.587,0.854,73.333,681001.000,1.000
1.500,-0.512,3.347,1.640,-1.669,-7.526,-7.178,-6.661,-0.039,0.980,-0.153,-1.404,-1.526,0.885,73.333,681002.000,1.000
1.748,-0.423,3.425,1.302,-1.449,-8.749,-9.979,-6.741,-0.040,0.979,-0.154,-1.404,-1.404,0.885,73.333,681003.000,1.000
2.438,0.251,3.962,1.421,-0.102,-6.367,-7.833,-5.494,-0.040,0.979,-0.152,-1.404,-1.373,0.793,73.333,681004.000,1.000
3.420,1.181,4.702,1.863,1.772,-2.247,-2.123,-3.495,-0.041,0.978,-0.152,-1.556,-1.251,0.763,73.333,681005.000,1.000
4.368,1.898,5.076,2.199,3.186,0.951,3.548,-1.821,-0.040,0.976,-0.153,-1.526,-1.129,0.763,73.333,681006.000,1.000
5.127,2.282,4.823,2.107,3.507,1.807,5.806,-1.494,-0.039,0.978,-0.153,-1.587,-1.038,0.824,73.333,681007.000,1.000
5.802,2.591,4.331,1.691,2.892,0.490,3.771,-2.573,-0.039,0.976,-0.152,-1.495,-1.068,0.702,73.333,681008.000,1.000
6.591,3.200,4.223,1.401,2.110,-2.101,-0.923,-4.010,-0.040,0.975,-0.153,-1.404,-0.977,0.702,73.333,681009.000,1.000
7.488,4.158,4.724,1.484,1.710,-5.215,-6.222,-4.951,-0.042,0.974,-0.148,-1.282,-0.916,0.641,73.333,681010.000,1.000
8.181,5.044,5.399,1.654,1.566,-8.272,-10.871,-5.690,-0.041,0.973,-0.151,-1.251,-0.916,0.641,73.333,681011.000,1.000
8.411,5.506,5.740,1.565,1.511,-10.165,-13.663,-6.730,-0.041,0.975,-0.149,-1.221,-1.068,0.732,73.333,681012.000,1.000
8.316,5.798,5.886,1.365,1.994,-9.221,-12.874,-7.569,-0.040,0.975,-0.150,-1.099,-0.946,0.671,73.333,681013.000,1.000
8.211,6.377,6.298,1.479,3.576,-4.594,-7.415,-7.083,-0.041,0.976,-0.152,-0.977,-0.824,0.671,73.333,681014.000,1.000
8.192,7.102,7.108,2.054,5.936,2.277,1.556,-4.731,-0.042,0.977,-0.152,-0.977,-0.824,0.732,73.333,681015.000,1.000
8.043,7.085,7.818,2.726,7.727,7.975,10.408,-1.169,-0.043,0.976,-0.152,-0.824,-0.854,0.702,73.333,681016.000,1.000
7.427,5.384,7.607,2.800,7.428,9.346,14.969,2.013,-0.040,0.976,-0.154,-0.763,-0.977,0.671,73.333,681017.000,1.000
6.125,1.782,5.982,1.686,4.387,5.676,13.265,3.173,-0.040,0.974,-0.155,-0.732,-0.793,0.732,73.333,681018.000,1.000
4.241,-2.968,3.184,-0.614,-0.624,-1.019,6.789,1.820,-0.041,0.976,-0.154,-0.641,-0.732,0.641,73.333,681019.000,1.000
2.276,-7.435,0.259,-3.271,-5.633,-7.365,-0.477,-0.830,-0.039,0.976,-0.155,-0.641,-0.824,0.641,73.333,681020.000,1.000
0.928,-10.225,-1.601,-5.090,-8.549,-10.486,-4.697,-2.846,-0.039,0.976,-0.155,-0.519,-0.763,0.671,73.333,681021.000,1.000
0.621,-10.815,-1.956,-5.397,-8.504,-9.571,-4.634,-3.153,-0.040,0.977,-0.156,-0.427,-0.702,0.793,73.333,681022.000,1.000
1.196,-9.871,-1.346,-4.520,-6.347,-6.240,-1.957,-2.101,-0.041,0.977,-0.154,-0.549,-0.732,0.793,73.333,681023.000,1.000
2.129,-8.614,-0.728,-3.427,-3.794,-3.084,0.796,-0.809,-0.040,0.979,-0.154,-0.366,-0.580,0.793,73.333,681024.000,1.000
3.074,-7.724,-0.489,-2.856,-2.005,-1.427,2.764,-0.043,-0.040,0.978,-0.151,-0.366,-0.702,0.793,73.333,681025.000,1.000
4.072,-6.975,-0.305,-2.831,-1.038,-0.817,4.756,0.304,-0.040,0.979,-0.154,-0.427,-0.641,0.793,73.333,681026.000,1.000
5.118,-6.034,0.043,-3.072,-0.717,-0.877,6.663,0.582,-0.039,0.981,-0.154,-0.519,-0.641,0.732,73.333,681027.000,1.000
5.782,-5.221,0.161,-3.597,-1.436,-2.461,6.422,0.508,-0.040,0.981,-0.153,-0.671,-0.488,0.885,73.333,681028.000,1.000
5.594,-5.037,-0.483,-4.549,-3.491,-6.015,2.700,-0.481,-0.042,0.981,-0.151,-0.732,-0.549,0.793,73.333,681029.000,1.000
4.623,-5.305,-1.656,-5.575,-5.981,-9.755,-2.320,-1.987,-0.043,0.981,-0.154,-0.732,-0.610,0.763,73.333,681030.000,1.000
3.381,-5.287,-2.525,-5.950,-7.213,-10.654,-4.550,-2.714,-0.043,0.981,-0.154,-0.885,-0.519,0.763,73.333,681031.000,1.000
2.209,-4.507,-2.630,-5.405,-6.306,-7.203,-2.371,-2.069,-0.043,0.983,-0.150,-0.916,-0.549,0.793,73.333,681032.000,1.000
1.008,-3.152,-2.252,-4.435,-3.913,-0.806,1.843,-0.742,-0.044,0.984,-0.152,-0.854,-0.549,0.854,73.333,681033.000,1.000
-0.505,-1.797,-2.027,-3.749,-1.397,5.333,4.377,0.444,-0.042,0.983,-0.152,-0.916,-0.549,0.732,73.333,681034.000,1.000
-2.472,-1.040,-2.355,-3.754,0.078,8.150,2.965,1.250,-0.043,0.981,-0.154,-0.946,-0.702,0.763,73.333,681035.000,1.000
-4.771,-1.278,-3.311,-4.464,-0.123,6.188,-2.449,1.669,-0.041,0.980,-0.150,-1.129,-0.763,0.763,73.333,681036.000,1.000
-7.000,-2.398,-4.653,-5.472,-1.717,0.632,-9.420,1.923,-0.042,0.980,-0.151,-1.190,-0.732,0.854,73.333,681037.000,1.000
-8.573,-3.665,-5.803,-6.076,-3.411,-4.916,-13.653,2.591,-0.042,0.979,-0.154,-1.190,-0.916,0.854,73.333,681038.000,1.000
-9.091,-4.240,-6.284,-5.809,-3.941,-6.966,-12.280,3.827,-0.043,0.979,-0.156,-1.190,-0.916,0.946,73.333,681039.000,1.000
-8.760,-3.963,-6.124,-4.889,-3.390,-5.265,-6.998,4.659,-0.044,0.979,-0.154,-1.160,-1.007,0.946,73.333,681040.000,1.000
-8.257,-3.416,-5.772,-3.980,-3.026,-2.911,-2.774,3.798,-0.045,0.978,-0.153,-1.251,-1.007,0.793,73.333,681041.000,1.000
-7.985,-3.062,-5.466,-3.502,-3.744,-2.798,-3.016,1.059,-0.044,0.979,-0.152,-1.129,-1.099,0.732,73.333,681042.000,1.000
-7.575,-2.573,-4.788,-3.221,-5.033,-4.652,-6.678,-2.324,-0.045,0.979,-0.153,-1.068,-1.099,0.671,73.333,681043.000,1.000
-6.288,-1.240,-3.170,-2.484,-5.564,-6.092,-10.073,-4.523,-0.046,0.976,-0.151,-0.946,-1.129,0.702,73.333,681044.000,1.000
-3.806,1.148,-0.545,-0.810,-4.527,-5.614,-10.581,-4.298,-0.046,0.976,-0.151,-0.885,-1.251,0.641,73.333,681045.000,1.000
-0.570,3.986,2.437,1.591,-2.371,-3.766,-8.585,-2.100,-0.045,0.976,-0.152,-0.854,-1.373,0.702,73.333,681046.000,1.000
2.557,6.334,4.871,3.894,-0.370,-2.156,-6.475,0.056,-0.043,0.976,-0.152,-0.793,-1.556,0.671,73.333,681047.000,1.000
4.902,7.579,6.314,5.333,0.451,-2.139,-6.448,0.350,-0.043,0.975,-0.149,-0.671,-1.526,0.671,73.333,681048.000,1.000
6.299,7.658,6.856,5.697,-0.139,-4.204,-9.354,-1.513,-0.042,0.974,-0.151,-0.488,-1.617,0.732,73.333,681049.000,1.000
7.004,6.925,6.910,5.251,-1.764,-7.721,-14.540,-4.653,-0.044,0.973,-0.154,-0.488,-1.709,0.702,73.333,681050.000,1.000
7.408,5.979,6.912,4.446,-3.729,-10.995,-19.906,-7.883,-0.043,0.975,-0.156,-0.427,-1.587,0.641,73.333,681051.000,1.000
7.764,5.439,7.111,3.754,-5.226,-12.128,-22.427,-10.059,-0.043,0.974,-0.154,-0.366,-1.648,0.580,73.333,681052.000,1.000
8.113,5.652,7.577,3.565,-5.656,-10.287,-19.748,-10.331,-0.044,0.975,-0.155,-0.305,-1.617,0.702,73.333,681053.000,1.000
8.422,6.522,8.179,4.044,-5.002,-6.202,-12.202,-8.635,-0.043,0.976,-0.152,-0.122,-1.648,0.641,73.333,681054.000,1.000
8.667,7.512,8.654,4.973,-3.941,-1.803,-3.338,-5.833,-0.042,0.979,-0.155,-0.031,-1.709,0.702,73.333,681055.000,1.000
8.740,7.773,8.609,5.765,-3.460,0.545,2.189,-3.132,-0.042,0.977,-0.154,0.092,-1.648,0.610,73.333,681056.000,1.000
8.420,6.543,7.713,5.849,-4.148,-0.697,1.999,-1.283,-0.041,0.977,-0.155,0.092,-1.648,0.702,73.333,681057.000,1.000
7.502,3.711,6.074,5.118,-5.746,-5.054,-2.633,-0.290,-0.041,0.978,-0.155,0.000,-1.648,0.549,73.333,681058.000,1.000
5.978,0.073,4.191,3.966,-7.263,-10.053,-8.216,0.358,-0.040,0.978,-0.157,0.092,-1.648,0.549,73.333,681059.000,1.000
4.131,-3.025,2.705,2.959,-7.500,-12.611,-11.209,1.347,-0.039,0.975,-0.154,0.153,-1.709,0.610,73.333,681060.000,1.000
2.366,-4.577,1.992,2.402,-5.851,-11.030,-9.909,3.023,-0.042,0.975,-0.151,0.061,-1.740,0.610,73.333,681061.000,1.000
0.910,-4.550,1.954,2.173,-2.780,-5.983,-5.132,5.003,-0.041,0.977,-0.152,0.031,-1.617,0.610,73.333,681062.000,1.000
-0.227,-3.621,2.289,2.026,0.657,0.508,1.119,6.590,-0.042,0.977,-0.156,0.000,-1.678,0.580,73.333,681063.000,1.000
-1.077,-2.514,2.697,1.962,3.593,6.441,6.942,7.454,-0.041,0.979,-0.153,-0.061,-1.587,0.549,73.333,681064.000,1.000
-1.601,-1.626,3.009,2.249,5.624,10.095,10.640,7.871,-0.042,0.978,-0.155,0.000,-1.556,0.580,73.333,681065.000,1.000
-1.681,-0.915,3.247,3.213,6.866,10.536,11.470,8.688,-0.040,0.976,-0.155,-0.122,-1.465,0.519,73.333,681066.000,1.000
-1.232,-0.026,3.632,4.985,7.900,8.545,10.679,10.837,-0.041,0.977,-0.156,-0.153,-1.495,0.549,73.333,681067.000,1.000
-0.477,1.172,4.260,7.158,9.071,5.888,9.967,14.134,-0.041,0.980,-0.156,-0.244,-1.434,0.549,73.333,681068.000,1.000
-0.098,2.160,4.607,8.681,9.852,3.551,9.131,16.825,-0.042,0.980,-0.158,-0.214,-1.465,0.519,73.333,681069.000,1.000
-0.868,2.161,3.902,8.461,9.329,1.557,6.870,16.933,-0.040,0.979,-0.159,-0.275,-1.465,0.549,73.333,681070.000,1.000
-2.986,0.954,1.926,6.195,7.223,-0.031,3.119,13.865,-0.042,0.981,-0.156,-0.305,-1.373,0.519,73.333,681071.000,1.000
-5.763,-0.809,-0.642,2.704,4.253,-0.904,-0.701,8.870,-0.042,0.980,-0.157,-0.397,-1.312,0.519,73.333,681072.000,1.000
-8.062,-2.078,-2.639,-0.544,1.623,-1.098,-3.112,4.332,-0.041,0.979,-0.156,-0.397,-1.312,0.458,73.333,681073.000,1.000
-9.144,-2.176,-3.398,-2.468,0.131,-1.048,-3.576,2.230,-0.042,0.979,-0.156,-0.488,-1.282,0.458,73.333,681074.000,1.000
-9.158,-1.207,-3.246,-3.132,-0.410,-1.012,-2.635,2.600,-0.043,0.979,-0.155,-0.549,-1.343,0.488,73.333,681075.000,1.000
-8.886,0.086,-3.204,-3.543,-0.956,-0.926,-1.691,3.427,-0.044,0.976,-0.157,-0.458,-1.312,0.397,73.333,681076.000,1.000
-9.079,0.840,-4.193,-4.697,-2.398,-0.846,-2.073,2.434,-0.042,0.975,-0.158,-0.519,-1.373,0.397,73.333,681077.000,1.000
-9.988,0.619,-6.359,-6.770,-4.742,-0.922,-3.663,-0.934,-0.041,0.975,-0.158,-0.427,-1.312,0.458,73.333,681078.000,1.000
-11.284,-0.311,-9.045,-9.046,-6.953,-0.696,-4.521,-5.297,-0.044,0.975,-0.160,-0.458,-1.373,0.488,73.333,681079.000,1.000
-12.341,-1.267,-11.176,-10.463,-7.713,0.658,-2.635,-8.585,-0.044,0.976,-0.158,-0.397,-1.465,0.519,73.333,681080.000,1.000
-12.760,-1.874,-12.039,-10.359,-6.599,2.839,1.442,-9.366,-0.043,0.978,-0.157,-0.458,-1.373,0.488,73.333,681081.000,1.000
-12.648,-2.320,-11.726,-8.804,-4.349,4.207,4.714,-7.364,-0.042,0.976,-0.157,-0.458,-1.312,0.549,73.333,681082.000,1.000
-12.325,-2.834,-10.759,-6.366,-2.013,3.495,4.753,-3.322,-0.042,0.976,-0.158,-0.397,-1.404,0.519,73.333,681083.000,1.000
-11.938,-3.304,-9.685,-3.748,-0.231,0.994,1.628,1.291,-0.043,0.978,-0.157,-0.397,-1.404,0.549,73.333,681084.000,1.000
-11.464,-3.452,-8.829,-1.520,0.896,-1.832,-2.571,4.921,-0.043,0.979,-0.156,-0.519,-1.343,0.519,73.333,681085.000,1.000
-10.914,-3.065,-8.253,0.075,1.794,-3.228,-5.077,6.915,-0.042,0.978,-0.160,-0.488,-1.251,0.519,73.333,681086.000,1.000
-10.387,-2.028,-7.757,1.162,3.235,-1.908,-3.774,7.943,-0.042,0.977,-0.160,-0.458,-1.251,0.488,73.333,681087.000,1.000
-10.060,-0.454,-7.088,1.948,5.653,2.168,1.495,9.109,-0.043,0.978,-0.160,-0.458,-1.221,0.427,73.333,681088.000,1.000
-10.204,1.070,-6.434,2.297,8.417,7.296,8.176,10.561,-0.043,0.980,-0.160,-0.519,-1.251,0.488,73.333,681089.000,1.000
-11.007,1.720,-6.377,1.782,10.042,10.698,12.232,11.294,-0.043,0.980,-0.159,-0.580,-1.251,0.580,73.333,681090.000,1.000
-12.240,1.146,-7.306,0.233,9.437,10.559,11.171,10.263,-0.043,0.979,-0.159,-0.641,-1.190,0.671,73.333,681091.000,1.000
-13.258,-0.128,-8.933,-1.902,6.882,7.480,5.952,7.441,-0.042,0.981,-0.159,-0.702,-1.190,0.641,73.333,681092.000,1.000
-13.465,-1.223,-10.435,-3.805,3.663,3.564,-0.337,3.877,-0.043,0.979,-0.156,-0.793,-1.190,0.580,73.333,681093.000,1.000
-12.680,-1.620,-11.049,-4.793,1.141,0.848,-4.677,1.074,-0.045,0.980,-0.154,-0.885,-1.190,0.702,73.333,681094.000,1.000
-11.002,-1.178,-10.238,-4.503,0.377,0.985,-4.883,0.419,-0.044,0.979,-0.156,-0.977,-1.251,0.702,73.333,681095.000,1.000
-8.637,-0.007,-7.907,-3.028,1.757,4.545,-0.489,2.445,-0.046,0.980,-0.157,-1.038,-1.190,0.702,73.333,681096.000,1.000
-6.076,1.290,-4.868,-1.189,4.255,9.484,5.831,5.856,-0.047,0.980,-0.154,-1.099,-1.190,0.732,73.333,681097.000,1.000
-4.201,1.684,-2.651,-0.382,5.571,11.681,9.038,7.657,-0.045,0.978,-0.155,-1.068,-1.190,0.671,73.333,681098.000,1.000
-3.834,0.516,-2.534,-1.686,3.835,8.268,5.475,5.279,-0.046,0.978,-0.155,-1.099,-1.221,0.763,73.333,681099.000,1.000
-5.118,-1.803,-4.503,-4.965,-0.719,0.359,-3.661,-1.098,-0.046,0.978,-0.156,-1.160,-1.373,0.671,73.333,681100.000,1.000
-7.359,-4.001,-7.256,-8.813,-5.788,-7.524,-12.709,-8.486,-0.046,0.978,-0.153,-1.160,-1.404,0.641,73.333,681101.000,1.000
-9.401,-4.794,-9.087,-11.396,-8.644,-10.646,-15.853,-13.158,-0.045,0.977,-0.153,-1.160,-1.434,0.641,73.333,681102.000,1.000
-10.280,-3.729,-8.951,-11.571,-8.052,-7.339,-11.618,-13.152,-0.046,0.977,-0.153,-1.068,-1.465,0.671,73.333,681103.000,1.000
-9.744,-1.448,-7.078,-9.501,-4.900,0.087,-3.285,-9.314,-0.045,0.974,-0.156,-1.099,-1.404,0.610,73.333,681104.000,1.000
-8.270,0.817,-4.573,-6.326,-1.183,7.303,4.622,-4.270,-0.046,0.972,-0.156,-1.068,-1.465,0.610,73.333,681105.000,1.000
-6.629,2.069,-2.580,-3.361,1.418,10.840,9.258,-0.630,-0.043,0.973,-0.155,-1.221,-1.465,0.610,73.333,681106.000,1.000
-5.387,2.064,-1.624,-1.420,2.252,9.705,9.684,0.351,-0.043,0.976,-0.156,-1.160,-1.495,0.549,73.333,681107.000,1.000
-4.684,1.239,-1.452,-0.629,1.601,5.089,6.152,-0.937,-0.042,0.977,-0.156,-1.129,-1.495,0.671,73.333,681108.000,1.000
-4.420,0.229,-1.479,-0.679,0.245,-0.790,0.111,-3.185,-0.043,0.977,-0.154,-1.190,-1.404,0.793,73.333,681109.000,1.000
-4.478,-0.422,-1.154,-1.065,-0.803,-5.468,-5.467,-4.924,-0.041,0.978,-0.153,-1.129,-1.312,0.702,73.333,681110.000,1.000
-4.709,-0.296,-0.168,-1.252,-0.612,-6.936,-7.373,-4.945,-0.041,0.980,-0.156,-1.068,-1.465,0.763,73.333,681111.000,1.000
-4.832,0.772,1.446,-0.908,1.130,-4.545,-4.524,-2.773,-0.041,0.978,-0.155,-1.129,-1.404,0.732,73.333,681112.000,1.000
-4.590,2.490,3.335,-0.161,3.767,0.722,1.468,0.837,-0.041,0.978,-0.156,-1.190,-1.312,0.824,73.333,681113.000,1.000
-4.054,4.080,4.771,0.373,5.932,6.707,7.533,4.065,-0.043,0.978,-0.158,-1.251,-1.343,0.824,73.333,681114.000,1.000
-3.691,4.566,4.898,-0.007,6.243,10.699,10.454,5.135,-0.043,0.979,-0.158,-1.343,-1.190,0.793,73.333,681115.000,1.000
-4.011,3.333,3.231,-1.549,4.098,10.418,8.191,3.409,-0.044,0.979,-0.156,-1.312,-1.129,0.763,73.333,681116.000,1.000
-5.080,0.677,0.106,-3.818,0.175,5.492,1.271,-0.332,-0.043,0.978,-0.156,-1.404,-1.068,0.854,73.333,681117.000,1.000
-6.321,-2.131,-3.189,-5.886,-3.774,-1.848,-7.135,-4.423,-0.045,0.980,-0.157,-1.465,-1.129,0.916,73.333,681118.000,1.000
-6.819,-3.573,-5.053,-6.836,-5.939,-7.993,-13.051,-7.238,-0.044,0.981,-0.157,-1.495,-1.099,0.824,73.333,681119.000,1.000
-5.949,-2.830,-4.496,-6.244,-5.490,-10.026,-13.821,-7.904,-0.043,0.982,-0.153,-1.587,-1.129,0.824,73.333,681120.000,1.000
-3.892,-0.167,-1.794,-4.364,-2.801,-6.894,-8.895,-6.444,-0.043,0.982,-0.153,-1.465,-1.038,0.854,73.333,681121.000,1.000
-1.533,3.308,1.738,-1.887,1.032,0.254,0.218,-3.407,-0.043,0.981,-0.155,-1.648,-1.099,0.885,73.333,681122.000,1.000
0.158,6.162,4.633,0.461,4.691,8.173,10.127,0.488,-0.045,0.979,-0.154,-1.617,-1.129,0.824,73.333,681123.000,1.000
0.716,7.277,5.980,2.187,7.062,12.972,16.827,4.489,-0.045,0.979,-0.155,-1.709,-1.038,0.854,73.333,681124.000,1.000
0.361,6.459,5.792,3.175,7.754,12.657,18.256,7.905,-0.043,0.979,-0.153,-1.740,-1.068,0.824,73.333,681125.000,1.000
-0.327,4.439,4.722,3.513,7.132,8.349,15.433,9.964,-0.044,0.979,-0.156,-1.892,-1.099,0.854,73.333,681126.000,1.000
-0.918,2.213,3.386,3.222,5.788,2.954,11.128,9.750,-0.041,0.978,-0.157,-1.923,-1.099,0.916,73.333,681127.000,1.000
-1.389,0.385,2.032,2.276,4.083,-1.206,7.639,6.814,-0.042,0.979,-0.156,-2.014,-0.885,0.977,73.333,681128.000,1.000
-1.966,-0.960,0.628,0.822,2.093,-3.658,5.360,1.884,-0.042,0.979,-0.156,-1.892,-0.977,1.007,73.333,681129.000,1.000
-2.695,-1.854,-0.696,-0.654,-0.002,-4.986,3.527,-3.165,-0.042,0.978,-0.154,-1.892,-0.946,1.038,73.333,681130.000,1.000
-3.300,-2.286,-1.624,-1.528,-1.783,-5.798,1.613,-6.297,-0.042,0.979,-0.155,-1.953,-0.793,1.129,73.333,681131.000,1.000
-3.606,-2.605,-2.222,-1.625,-3.228,-6.944,-1.001,-6.855,-0.041,0.979,-0.152,-2.014,-0.824,1.129,73.333,681132.000,1.000
-3.826,-3.478,-3.031,-1.464,-4.938,-9.235,-5.134,-6.170,-0.041,0.977,-0.154,-1.953,-0.885,1.099,73.333,681133.000,1.000
-4.194,-5.073,-4.408,-1.681,-7.190,-12.168,-10.312,-6.248,-0.041,0.977,-0.154,-1.953,-0.885,1.099,73.333,681134.000,1.000
-4.572,-6.658,-5.926,-2.371,-9.309,-13.997,-14.297,-7.898,-0.042,0.977,-0.153,-1.709,-0.763,1.129,73.333,681135.000,1.000
-4.572,-7.201,-6.718,-3.103,-10.258,-13.371,-15.001,-10.220,-0.041,0.977,-0.151,-1.770,-0.824,1.038,73.333,681136.000,1.000
-3.838,-6.112,-6.171,-3.294,-9.459,-10.399,-12.188,-11.402,-0.043,0.978,-0.150,-1.801,-0.732,1.099,73.333,681137.000,1.000
-2.238,-3.493,-4.228,-2.536,-7.035,-6.323,-7.189,-9.920,-0.042,0.978,-0.152,-1.678,-0.793,1.038,73.333,681138.000,1.000
0.008,-0.003,-1.430,-0.846,-3.722,-2.681,-2.009,-5.751,-0.043,0.980,-0.146,-1.678,-0.793,1.068,73.333,681139.000,1.000
2.335,3.466,1.420,1.275,-0.585,-0.509,1.516,-0.693,-0.043,0.980,-0.148,-1.709,-0.702,1.068,73.333,681140.000,1.000
4.084,6.254,3.745,3.202,1.694,0.539,3.097,3.038,-0.045,0.979,-0.148,-1.617,-0.732,1.068,73.333,681141.000,1.000
4.866,8.264,5.481,4.680,3.412,2.308,4.735,4.730,-0.044,0.979,-0.148,-1.617,-0.854,0.977,73.333,681142.000,1.000
4.715,9.700,6.888,5.842,5.297,6.345,8.792,5.436,-0.043,0.977,-0.149,-1.617,-0.824,0.977,73.333,681143.000,1.000
3.920,10.467,7.953,6.769,7.379,11.736,15.134,6.456,-0.045,0.979,-0.151,-1.556,-0.763,1.007,73.333,681144.000,1.000
2.777,10.094,8.292,7.291,8.800,15.499,20.958,8.075,-0.044,0.978,-0.152,-1.526,-0.763,0.916,73.333,681145.000,1.000
1.427,8.195,7.501,7.124,8.580,15.054,23.043,9.483,-0.047,0.979,-0.148,-1.495,-0.793,1.007,73.333,681146.000,1.000
-0.181,4.806,5.468,6.055,6.282,10.014,19.973,9.453,-0.047,0.979,-0.149,-1.556,-0.885,0.885,73.333,681147.000,1.000
-2.099,0.497,2.542,4.138,2.338,2.394,13.169,7.280,-0.046,0.980,-0.149,-1.526,-0.916,0.977,73.333,681148.000,1.000
-4.107,-3.735,-0.577,1.809,-2.024,-4.590,5.632,3.377,-0.047,0.978,-0.149,-1.556,-1.007,0.916,73.333,681149.000,1.000
-5.758,-7.018,-3.098,-0.310,-5.565,-8.874,-0.836,-1.000,-0.046,0.978,-0.151,-1.434,-1.068,0.946,73.333,681150.000,1.000
-6.699,-9.115,-4.517,-1.772,-7.788,-10.860,-6.519,-4.587,-0.044,0.976,-0.151,-1.373,-1.129,0.977,73.333,681151.000,1.000
-6.809,-10.186,-4.680,-2.388,-8.729,-12.034,-11.788,-6.561,-0.043,0.975,-0.148,-1.343,-1.160,0.977,73.333,681152.000,1.000
-6.048,-10.245,-3.585,-2.042,-8.336,-12.898,-15.384,-6.531,-0.045,0.977,-0.152,-1.221,-1.251,0.916,73.333,681153.000,1.000
-4.358,-9.085,-1.408,-0.659,-6.413,-12.487,-15.102,-4.746,-0.042,0.977,-0.149,-1.068,-1.282,0.977,73.333,681154.000,1.000
-1.700,-6.568,1.520,1.687,-3.045,-9.537,-9.941,-2.161,-0.042,0.977,-0.149,-1.068,-1.373,0.946,73.333,681155.000,1.000
1.822,-2.971,4.781,4.666,1.000,-4.380,-2.018,0.145,-0.044,0.976,-0.153,-0.977,-1.343,0.977,73.333,681156.000,1.000
5.775,0.861,7.860,7.624,4.308,0.478,4.039,1.481,-0.044,0.977,-0.150,-1.099,-1.343,1.038,73.333,681157.000,1.000
9.431,3.841,10.221,9.749,5.550,2.257,4.474,1.496,-0.046,0.978,-0.152,-0.946,-1.373,0.885,73.333,681158.000,1.000
12.142,5.314,11.483,10.517,4.443,0.281,-0.746,0.239,-0.044,0.979,-0.150,-1.007,-1.373,0.824,73.333,681159.000,1.000
13.681,5.411,11.642,9.973,1.926,-3.716,-8.215,-1.691,-0.044,0.979,-0.149,-0.946,-1.343,0.824,73.333,681160.000,1.000
14.262,4.762,11.030,8.561,-0.620,-7.214,-13.830,-3.519,-0.041,0.981,-0.152,-0.946,-1.373,0.854,73.333,681161.000,1.000
14.392,4.078,10.151,6.912,-2.165,-8.435,-15.232,-4.691,-0.040,0.980,-0.152,-0.916,-1.404,0.854,73.333,681162.000,1.000
14.638,3.902,9.564,5.680,-2.337,-6.979,-12.464,-4.901,-0.039,0.980,-0.150,-1.007,-1.465,0.824,73.333,681163.000,1.000
15.278,4.306,9.457,5.197,-1.565,-4.172,-7.749,-4.084,-0.037,0.980,-0.150,-1.129,-1.312,0.977,73.333,681164.000,1.000
16.135,4.784,9.406,5.250,-0.919,-2.473,-4.320,-2.552,-0.038,0.978,-0.150,-1.129,-1.221,1.007,73.333,681165.000,1.000
16.848,4.775,8.800,5.319,-1.300,-3.364,-4.012,-1.088,-0.038,0.975,-0.149,-1.038,-1.129,1.129,73.333,681166.000,1.000
17.287,4.313,7.595,5.085,-2.620,-5.884,-5.850,-0.556,-0.039,0.975,-0.149,-1.068,-1.007,1.190,73.333,681167.000,1.000
17.544,3.923,6.451,4.618,-3.929,-7.813,-7.458,-1.238,-0.039,0.972,-0.151,-0.946,-0.946,1.160,73.333,681168.000,1.000
17.550,4.010,5.995,4.191,-4.221,-7.763,-7.257,-2.490,-0.039,0.973,-0.152,-0.854,-0.977,1.282,73.333,681169.000,1.000
16.935,4.567,6.310,4.051,-2.977,-5.665,-4.931,-3.091,-0.039,0.973,-0.154,-0.702,-0.885,1.221,73.333,681170.000,1.000
15.257,5.213,6.927,4.178,-0.479,-2.189,-1.076,-2.427,-0.038,0.975,-0.153,-0.458,-0.854,1.129,73.333,681171.000,1.000
12.340,5.309,7.112,4.195,2.172,1.510,2.909,-1.305,-0.039,0.979,-0.153,-0.519,-0.793,1.221,73.333,681172.000,1.000
8.518,4.312,6.377,3.732,3.752,4.086,5.496,-1.020,-0.039,0.981,-0.155,-0.458,-0.732,1.190,73.333,681173.000,1.000
4.650,2.239,4.799,2.837,3.810,4.730,6.008,-1.882,-0.037,0.982,-0.155,-0.549,-0.610,1.251,73.333,681174.000,1.000
1.767,-0.240,3.019,1.866,2.773,3.542,4.632,-3.129,-0.036,0.980,-0.152,-0.641,-0.610,1.251,73.333,681175.000,1.000
0.505,-2.277,1.787,1.049,1.319,1.072,1.673,-3.998,-0.034,0.982,-0.154,-0.793,-0.488,1.251,73.333,681176.000,1.000
0.745,-3.416,1.464,0.356,-0.083,-2.158,-2.424,-4.258,-0.035,0.979,-0.153,-0.885,-0.366,1.343,73.333,681177.000,1.000
1.739,-3.686,1.961,-0.279,-1.073,-5.303,-6.221,-3.853,-0.037,0.977,-0.153,-0.824,-0.336,1.251,73.333,681178.000,1.000
2.662,-3.270,2.934,-0.733,-1.201,-6.773,-7.399,-2.681,-0.038,0.977,-0.152,-0.824,-0.366,1.221,73.333,681179.000,1.000
3.114,-2.311,4.076,-0.703,-0.135,-5.165,-4.526,-0.779,-0.039,0.976,-0.153,-0.671,-0.244,1.099,73.333,681180.000,1.000
3.152,-1.125,5.054,-0.032,1.773,-1.090,1.025,1.380,-0.041,0.979,-0.151,-0.580,-0.336,0.977,73.333,681181.000,1.000
2.969,-0.276,5.391,0.986,3.364,2.668,5.616,2.879,-0.042,0.980,-0.150,-0.702,-0.305,0.916,73.333,681182.000,1.000
2.694,-0.237,4.775,1.744,3.437,3.398,6.231,2.855,-0.043,0.984,-0.149,-0.793,-0.336,0.702,73.333,681183.000,1.000
2.387,-1.169,3.247,1.665,1.499,0.328,2.192,0.980,-0.044,0.986,-0.149,-0.946,-0.519,0.580,73.333,681184.000,1.000
2.091,-2.938,1.142,0.504,-2.123,-5.505,-5.134,-2.464,-0.044,0.985,-0.150,-1.038,-0.549,0.488,73.333,681185.000,1.000
1.902,-5.026,-1.060,-1.452,-6.379,-11.839,-12.814,-6.643,-0.043,0.986,-0.148,-1.099,-0.580,0.427,73.333,681186.000,1.000
1.953,-6.605,-2.859,-3.512,-9.817,-15.809,-17.354,-10.378,-0.042,0.984,-0.150,-1.221,-0.732,0.397,73.333,681187.000,1.000
2.325,-7.002,-3.874,-5.044,-11.316,-15.577,-16.925,-12.542,-0.041,0.983,-0.146,-1.343,-0.793,0.305,73.333,681188.000,1.000
2.995,-6.123,-4.059,-5.788,-10.667,-11.753,-12.576,-12.408,-0.042,0.984,-0.147,-1.373,-0.763,0.336,73.333,681189.000,1.000
3.848,-4.361,-3.605,-5.802,-8.449,-6.568,-6.751,-9.911,-0.041,0.983,-0.149,-1.434,-0.885,0.366,73.333,681190.000,1.000
4.617,-2.304,-2.807,-5.325,-5.564,-1.845,-1.308,-5.965,-0.042,0.980,-0.152,-1.495,-0.885,0.397,73.333,681191.000,1.000
4.840,-0.598,-2.125,-4.712,-2.944,1.580,2.652,-2.299,-0.043,0.982,-0.152,-1.526,-0.916,0.427,73.333,681192.000,1.000
4.093,0.242,-1.997,-4.237,-1.303,3.194,4.299,-0.404,-0.042,0.979,-0.149,-1.556,-0.885,0.458,73.333,681193.000,1.000
2.377,0.191,-2.454,-3.841,-0.736,2.795,3.570,-0.503,-0.042,0.976,-0.150,-1.495,-0.854,0.488,73.333,681194.000,1.000
0.179,-0.240,-3.023,-3.240,-0.698,0.991,1.754,-1.720,-0.042,0.973,-0.150,-1.312,-1.007,0.549,73.333,681195.000,1.000
-1.870,-0.407,-3.188,-2.296,-0.535,-0.991,0.675,-3.007,-0.042,0.975,-0.148,-1.251,-1.099,0.610,73.333,681196.000,1.000
-3.244,0.074,-2.761,-1.096,0.072,-2.019,1.281,-3.705,-0.043,0.973,-0.146,-1.251,-1.160,0.763,73.333,681197.000,1.000
-3.562,1.204,-1.765,0.241,1.121,-1.524,3.291,-3.508,-0.043,0.976,-0.148,-1.190,-1.282,0.793,73.333,681198.000,1.000
-2.728,2.604,-0.387,1.644,2.411,0.361,5.700,-2.412,-0.044,0.977,-0.147,-1.068,-1.373,0.793,73.333,681199.000,1.000
-1.102,3.690,1.032,2.987,3.520,2.740,7.184,-0.866,-0.047,0.977,-0.148,-1.099,-1.373,0.793,73.333,681200.000,1.000
0.669,4.029,2.070,4.031,3.950,4.292,6.672,0.363,-0.045,0.976,-0.147,-1.038,-1.465,0.732,73.333,681201.000,1.000
2.107,3.738,2.424,4.583,3.675,4.460,4.536,0.922,-0.045,0.975,-0.147,-0.885,-1.556,0.702,73.333,681202.000,1.000
3.157,3.551,2.214,4.705,3.423,4.264,3.012,1.302,-0.044,0.976,-0.145,-0.885,-1.617,0.641,73.333,681203.000,1.000
4.008,4.294,1.954,4.669,4.071,5.311,4.458,2.183,-0.042,0.975,-0.143,-0.854,-1.770,0.671,73.333,681204.000,1.000
4.810,6.237,2.225,4.744,5.858,8.224,9.195,3.690,-0.042,0.975,-0.146,-0.854,-1.770,0.641,73.333,681205.000,1.000
5.603,8.890,3.317,5.076,8.281,12.280,15.219,5.483,-0.043,0.975,-0.145,-0.916,-1.801,0.610,73.333,681206.000,1.000
6.293,11.271,4.994,5.601,10.476,15.966,19.657,7.131,-0.043,0.973,-0.146,-0.793,-1.740,0.549,73.333,681207.000,1.000
6.565,12.306,6.517,5.981,11.538,17.495,20.391,8.190,-0.042,0.975,-0.146,-0.732,-1.709,0.580,73.333,681208.000,1.000
5.928,11.211,6.845,5.659,10.701,15.364,16.642,8.111,-0.043,0.975,-0.147,-0.793,-1.831,0.519,73.333,681209.000,1.000
4.019,7.842,5.136,4.101,7.657,9.316,9.022,6.330,-0.041,0.974,-0.147,-0.732,-1.740,0.519,73.333,681210.000,1.000
0.949,2.926,1.311,1.142,2.938,1.070,-0.308,2.686,-0.041,0.974,-0.147,-0.610,-1.801,0.458,73.333,681211.000,1.000
-2.572,-2.051,-3.654,-2.671,-1.961,-6.119,-7.993,-2.002,-0.041,0.974,-0.146,-0.519,-1.740,0.458,73.333,681212.000,1.000
-5.490,-5.389,-7.981,-6.111,-5.086,-8.920,-10.742,-5.963,-0.039,0.976,-0.146,-0.519,-1.801,0.458,73.333,681213.000,1.000
-6.970,-6.067,-10.058,-7.935,-5.156,-5.730,-7.156,-7.595,-0.040,0.976,-0.149,-0.397,-1.709,0.458,73.333,681214.000,1.000
-6.887,-4.468,-9.407,-7.710,-2.643,1.721,0.511,-6.687,-0.039,0.977,-0.147,-0.488,-1.678,0.488,73.333,681215.000,1.000
-5.879,-2.320,-7.003,-6.052,0.338,8.482,6.834,-4.350,-0.038,0.976,-0.148,-0.488,-1.678,0.488,73.333,681216.000,1.000
-4.858,-1.508,-4.596,-4.063,1.660,9.759,7.405,-1.807,-0.038,0.976,-0.149,-0.458,-1.587,0.488,73.333,681217.000,1.000
-4.363,-2.636,-3.437,-2.548,0.815,4.842,2.568,0.313,-0.037,0.976,-0.149,-0.366,-1.373,0.580,73.333,681218.000,1.000
-4.359,-4.814,-3.668,-1.707,-1.141,-2.814,-3.690,1.821,-0.037,0.978,-0.149,-0.305,-1.312,0.671,73.333,681219.000,1.000
-4.558,-6.727,-4.612,-1.313,-2.756,-8.838,-7.290,2.916,-0.036,0.979,-0.148,-0.183,-1.160,0.793,73.333,681220.000,1.000
-4.679,-7.621,-5.439,-1.014,-3.145,-10.766,-6.333,4.085,-0.035,0.978,-0.151,-0.244,-1.099,0.916,73.333,681221.000,1.000
-4.497,-7.525,-5.741,-0.594,-2.374,-8.756,-1.723,5.305,-0.037,0.980,-0.151,-0.244,-0.977,0.854,73.333,681222.000,1.000
-3.907,-6.975,-5.691,-0.184,-1.388,-4.764,3.303,5.455,-0.039,0.981,-0.152,-0.214,-0.824,0.977,73.333,681223.000,1.000
-2.939,-6.539,-5.693,-0.145,-1.317,-1.195,4.989,3.198,-0.037,0.980,-0.151,-0.275,-0.671,1.038,73.333,681224.000,1.000
-1.617,-6.327,-5.747,-0.591,-2.430,0.371,2.012,-1.352,-0.037,0.981,-0.154,-0.153,-0.702,0.946,73.333,681225.000,1.000
0.051,-5.992,-5.332,-1.086,-3.787,-0.251,-3.244,-6.134,-0.037,0.979,-0.157,-0.214,-0.610,0.946,73.333,681226.000,1.000
1.929,-5.235,-4.029,-1.008,-4.144,-2.515,-7.336,-8.611,-0.037,0.978,-0.155,-0.153,-0.549,0.916,73.333,681227.000,1.000
3.596,-4.248,-2.118,-0.216,-3.176,-6.058,-9.060,-7.752,-0.039,0.979,-0.153,-0.214,-0.519,1.099,73.333,681228.000,1.000
4.427,-3.607,-0.547,0.715,-1.658,-10.492,-9.271,-4.565,-0.039,0.979,-0.148,-0.183,-0.488,1.068,73.333,681229.000,1.000
4.072,-3.681,-0.094,1.078,-0.461,-14.736,-8.546,-0.775,-0.039,0.980,-0.151,-0.183,-0.427,0.946,73.333,681230.000,1.000
2.878,-4.222,-0.691,0.775,0.322,-17.267,-6.397,2.709,-0.040,0.981,-0.153,-0.275,-0.397,0.977,73.333,681231.000,1.000
1.698,-4.578,-1.657,0.356,1.193,-17.060,-2.445,5.961,-0.041,0.982,-0.153,-0.214,-0.458,1.038,73.333,681232.000,1.000
1.254,-4.226,-2.343,0.436,2.466,-14.152,2.652,9.029,-0.041,0.983,-0.153,-0.244,-0.427,1.038,73.333,681233.000,1.000
1.719,-3.086,-2.531,1.225,3.981,-9.363,7.769,11.278,-0.041,0.984,-0.154,-0.305,-0.305,1.007,73.333,681234.000,1.000
2.700,-1.471,-2.347,2.481,5.394,-3.781,12.228,11.848,-0.039,0.984,-0.151,-0.488,-0.336,1.007,73.333,681235.000,1.000
3.476,0.034,-2.109,3.653,6.251,1.013,15.204,10.340,-0.038,0.985,-0.148,-0.488,-0.336,0.977,73.333,681236.000,1.000
3.362,0.761,-2.232,4.139,5.937,2.940,14.989,6.979,-0.040,0.984,-0.152,-0.549,-0.275,1.038,73.333,681237.000,1.000
2.044,0.292,-2.954,3.643,4.065,0.698,10.339,2.544,-0.040,0.985,-0.151,-0.580,-0.366,0.977,73.333,681238.000,1.000
-0.298,-1.337,-4.205,2.362,0.868,-5.253,2.036,-1.839,-0.040,0.979,-0.153,-0.671,-0.397,0.946,73.333,681239.000,1.000
-3.045,-3.546,-5.598,0.927,-2.770,-12.935,-7.049,-5.019,-0.039,0.976,-0.151,-0.732,-0.305,1.068,73.333,681240.000,1.000
-5.337,-5.276,-6.514,0.108,-5.549,-19.433,-13.071,-6.213,-0.039,0.974,-0.149,-0.671,-0.305,1.038,73.333,681241.000,1.000
-6.508,-5.541,-6.471,0.301,-6.436,-22.224,-13.594,-5.392,-0.039,0.972,-0.154,-0.488,-0.366,1.038,73.333,681242.000,1.000
-6.484,-4.202,-5.514,1.232,-5.368,-20.938,-9.508,-3.256,-0.041,0.974,-0.157,-0.336,-0.275,0.946,73.333,681243.000,1.000
-5.723,-2.047,-4.225,2.237,-3.137,-17.268,-3.940,-0.732,-0.042,0.978,-0.158,-0.305,-0.275,0.946,73.333,681244.000,1.000
-4.776,-0.049,-3.194,2.860,-0.525,-12.879,0.723,1.688,-0.042,0.979,-0.155,-0.122,-0.427,0.977,73.333,681245.000,1.000
-3.973,1.268,-2.600,3.050,2.071,-8.278,4.010,3.928,-0.041,0.978,-0.155,-0.183,-0.427,1.007,73.333,681246.000,1.000
-3.493,1.702,-2.426,2.790,4.041,-4.020,5.753,5.387,-0.040,0.975,-0.151,-0.214,-0.519,1.007,73.333,681247.000,1.000
-3.445,1.140,-2.714,1.876,4.354,-1.603,5.040,4.809,-0.040,0.973,-0.155,-0.275,-0.458,1.007,73.333,681248.000,1.000
-3.657,-0.196,-3.396,0.321,2.613,-2.037,1.793,1.827,-0.040,0.969,-0.156,-0.061,-0.458,1.038,73.333,681249.000,1.000
-3.587,-1.571,-4.044,-1.348,-0.221,-4.338,-2.118,-2.119,-0.042,0.968,-0.156,0.122,-0.519,1.007,73.333,681250.000,1.000
-2.691,-2.205,-4.115,-2.503,-2.691,-6.422,-4.567,-5.018,-0.043,0.969,-0.155,0.214,-0.549,0.916,73.333,681251.000,1.000
-0.865,-1.800,-3.403,-2.923,-3.936,-6.945,-4.734,-5.720,-0.045,0.973,-0.159,0.397,-0.671,0.854,73.333,681252.000,1.000
1.490,-0.497,-2.036,-2.732,-3.719,-5.609,-2.391,-3.983,-0.047,0.974,-0.156,0.519,-0.763,0.641,73.333,681253.000,1.000
3.689,1.344,-0.400,-2.183,-2.258,-2.790,2.185,-0.392,-0.047,0.979,-0.152,0.458,-0.946,0.549,73.333,681254.000,1.000
4.944,3.010,0.774,-1.776,-0.626,0.006,6.651,3.226,-0.045,0.980,-0.151,0.275,-1.007,0.580,73.333,681255.000,1.000
4.610,3.534,0.604,-2.186,-0.454,0.592,7.333,4.587,-0.044,0.979,-0.154,0.275,-1.068,0.519,73.333,681256.000,1.000
2.694,2.514,-1.230,-3.605,-2.389,-1.634,3.080,2.986,-0.043,0.982,-0.154,0.244,-1.160,0.397,73.333,681257.000,1.000
0.070,0.641,-3.982,-5.389,-5.339,-4.736,-3.080,-0.113,-0.043,0.980,-0.156,0.214,-1.282,0.397,73.333,681258.000,1.000
-2.130,-0.929,-6.427,-6.638,-7.608,-6.187,-7.070,-2.694,-0.042,0.980,-0.157,0.183,-1.312,0.397,73.333,681259.000,1.000
-3.384,-1.536,-7.817,-6.956,-8.315,-4.863,-7.227,-3.838,-0.041,0.979,-0.154,0.061,-1.404,0.366,73.333,681260.000,1.000
-3.994,-1.257,-8.224,-6.604,-7.609,-0.954,-4.363,-3.856,-0.040,0.978,-0.156,0.031,-1.495,0.305,73.333,681261.000,1.000
-4.562,-0.558,-8.186,-6.054,-5.986,4.769,-0.070,-3.155,-0.040,0.978,-0.156,0.031,-1.495,0.336,73.333,681262.000,1.000
-5.519,-0.122,-8.252,-5.632,-4.051,10.477,3.874,-1.569,-0.039,0.979,-0.158,-0.092,-1.343,0.305,73.333,681263.000,1.000
-7.098,-0.855,-9.050,-5.674,-2.908,12.975,5.197,0.628,-0.040,0.979,-0.158,-0.183,-1.404,0.366,73.333,681264.000,1.000
-9.346,-3.364,-11.146,-6.586,-3.878,9.880,2.086,1.783,-0.039,0.980,-0.157,-0.153,-1.434,0.366,73.333,681265.000,1.000
-11.948,-7.203,-14.416,-8.418,-7.265,2.329,-4.920,0.065,-0.040,0.981,-0.156,-0.092,-1.465,0.458,73.333,681266.000,1.000
-14.224,-10.930,-17.745,-10.509,-11.695,-5.492,-12.675,-4.482,-0.039,0.983,-0.156,-0.153,-1.434,0.458,73.333,681267.000,1.000
-15.481,-13.059,-19.580,-11.790,-14.940,-9.459,-17.458,-9.603,-0.040,0.986,-0.157,-0.244,-1.434,0.458,73.333,681268.000,1.000
-15.353,-12.868,-18.938,-11.473,-15.272,-7.860,-17.077,-12.442,-0.040,0.985,-0.157,-0.458,-1.434,0.549,73.333,681269.000,1.000
-13.867,-10.491,-15.868,-9.462,-12.207,-1.628,-11.346,-11.286,-0.040,0.983,-0.158,-0.519,-1.465,0.610,73.333,681270.000,1.000
-11.409,-6.702,-11.271,-6.302,-6.604,6.578,-1.692,-6.325,-0.040,0.983,-0.156,-0.641,-1.465,0.549,73.333,681271.000,1.000
-8.663,-2.718,-6.481,-2.951,-0.413,13.657,8.975,0.366,-0.039,0.981,-0.156,-0.671,-1.465,0.549,73.333,681272.000,1.000
-6.336,0.198,-2.691,-0.472,4.040,17.338,16.509,5.591,-0.041,0.979,-0.158,-0.732,-1.495,0.580,73.333,681273.000,1.000
-4.804,1.296,-0.466,0.403,5.151,16.804,17.022,6.786,-0.041,0.979,-0.155,-0.916,-1.495,0.610,73.333,681274.000,1.000
-3.958,0.672,0.447,-0.348,2.942,12.655,9.439,3.738,-0.041,0.978,-0.153,-0.916,-1.404,0.549,73.333,681275.000,1.000
-3.392,-0.864,0.869,-2.056,-0.957,6.731,-3.051,-1.372,-0.041,0.980,-0.154,-0.977,-1.343,0.519,73.333,681276.000,1.000
-2.699,-2.176,1.682,-3.722,-4.174,1.834,-14.197,-5.534,-0.042,0.977,-0.155,-0.977,-1.404,0.488,73.333,681277.000,1.000
-1.670,-2.269,3.407,-4.468,-4.789,0.924,-17.965,-6.655,-0.040,0.977,-0.156,-0.977,-1.465,0.519,73.333,681278.000,1.000
-0.421,-0.870,5.852,-3.996,-2.382,5.524,-12.260,-4.472,-0.040,0.977,-0.155,-1.068,-1.312,0.397,73.333,681279.000,1.000
0.629,1.315,8.165,-2.698,1.778,14.322,-0.274,-0.252,-0.042,0.978,-0.155,-1.038,-1.404,0.427,73.333,681280.000,1.000
1.108,3.187,9.549,-1.166,5.824,23.818,12.264,4.415,-0.042,0.977,-0.154,-1.007,-1.434,0.427,73.333,681281.000,1.000
1.020,4.126,9.886,0.310,8.545,30.641,20.887,8.382,-0.043,0.977,-0.155,-0.977,-1.465,0.305,73.333,681282.000,1.000
0.613,4.083,9.521,1.582,9.412,32.789,23.224,10.611,-0.044,0.976,-0.154,-0.916,-1.404,0.244,73.333,681283.000,1.000
0.012,3.082,8.586,2.301,8.076,29.396,18.329,10.114,-0.043,0.975,-0.154,-0.854,-1.526,0.244,73.333,681284.000,1.000
-0.827,1.173,6.945,2.090,4.610,21.068,7.555,6.791,-0.044,0.974,-0.155,-0.854,-1.617,0.244,73.333,681285.000,1.000
-1.947,-1.283,4.611,0.906,-0.094,10.496,-4.979,1.593,-0.046,0.973,-0.154,-0.824,-1.648,0.214,73.333,681286.000,1.000
-3.301,-3.608,1.902,-0.916,-4.621,1.620,-14.361,-4.129,-0.046,0.974,-0.154,-0.885,-1.648,0.183,73.333,681287.000,1.000
-4.608,-4.952,-0.528,-2.725,-7.535,-2.199,-17.212,-8.776,-0.044,0.974,-0.157,-0.793,-1.801,0.122,73.333,681288.000,1.000
-5.263,-4.404,-1.760,-3.657,-7.664,0.635,-12.531,-10.407,-0.046,0.973,-0.157,-0.671,-1.770,0.092,73.333,681289.000,1.000
-4.676,-1.473,-1.070,-3.009,-4.563,9.531,-1.714,-7.585,-0.045,0.975,-0.154,-0.580,-1.892,0.092,73.333,681290.000,1.000
-2.840,3.209,1.377,-0.831,0.800,21.428,11.361,-0.893,-0.046,0.976,-0.151,-0.580,-1.984,0.122,73.333,681291.000,1.000
-0.449,7.857,4.370,1.919,6.071,31.482,21.222,6.641,-0.045,0.977,-0.152,-0.580,-2.045,0.122,73.333,681292.000,1.000
1.628,10.646,6.534,4.043,8.963,35.689,23.944,11.484,-0.047,0.976,-0.153,-0.610,-1.984,0.153,73.333,681293.000,1.000
2.943,11.012,7.374,4.977,8.941,33.565,19.961,12.329,-0.045,0.976,-0.154,-0.671,-2.106,0.153,73.333,681294.000,1.000
3.575,9.806,7.385,4.951,7.232,27.945,12.998,10.466,-0.044,0.976,-0.153,-0.702,-2.136,0.214,73.333,681295.000,1.000
3.796,8.274,7.274,4.381,5.232,22.128,6.315,7.613,-0.045,0.977,-0.154,-0.610,-2.197,0.275,73.333,681296.000,1.000
3.787,7.114,7.219,3.394,3.408,17.659,0.779,4.400,-0.046,0.976,-0.156,-0.549,-2.289,0.366,73.333,681297.000,1.000
3.666,6.487,7.044,2.042,1.831,14.825,-3.546,1.129,-0.046,0.979,-0.154,-0.549,-2.350,0.366,73.333,681298.000,1.000
3.615,6.455,6.727,0.724,0.986,14.015,-5.587,-1.223,-0.046,0.980,-0.153,-0.519,-2.441,0.336,73.333,681299.000,1.000
3.806,6.990,6.467,0.010,1.465,15.497,-4.232,-1.560,-0.045,0.980,-0.151,-0.610,-2.533,0.397,73.333,681300.000,1.000
4.148,7.595,6.263,-0.004,2.910,18.065,-0.740,-0.027,-0.045,0.979,-0.153,-0.610,-2.563,0.519,73.333,681301.000,1.000
4.289,7.406,5.771,0.141,3.875,19.116,1.284,1.766,-0.043,0.978,-0.154,-0.732,-2.533,0.458,73.333,681302.000,1.000
3.956,6.020,4.817,-0.107,3.155,16.980,-0.680,2.190,-0.044,0.978,-0.154,-0.671,-2.533,0.458,73.333,681303.000,1.000
3.190,3.979,3.723,-0.759,0.989,12.764,-5.284,0.956,-0.046,0.978,-0.152,-0.671,-2.533,0.458,73.333,681304.000,1.000
2.245,2.279,3.016,-1.399,-1.274,9.307,-8.633,-0.915,-0.046,0.979,-0.152,-0.671,-2.472,0.519,73.333,681305.000,1.000
1.389,1.529,2.933,-1.603,-2.418,8.570,-8.053,-1.971,-0.046,0.979,-0.152,-0.793,-2.594,0.519,73.333,681306.000,1.000
0.717,1.584,3.168,-1.315,-2.215,10.231,-4.221,-1.259,-0.044,0.981,-0.149,-0.732,-2.472,0.488,73.333,681307.000,1.000
0.059,1.772,3.130,-0.879,-1.302,12.397,0.167,1.121,-0.043,0.982,-0.153,-0.732,-2.563,0.610,73.333,681308.000,1.000
-0.849,1.465,2.439,-0.702,-0.513,13.340,2.859,3.994,-0.042,0.981,-0.151,-0.763,-2.563,0.610,73.333,681309.000,1.000
-2.086,0.507,1.150,-0.951,-0.378,12.598,2.989,5.702,-0.042,0.982,-0.153,-0.854,-2.533,0.549,73.333,681310.000,1.000
-3.446,-0.747,-0.374,-1.475,-0.936,10.865,0.923,5.324,-0.041,0.979,-0.155,-1.007,-2.502,0.549,73.333,681311.000,1.000
-4.505,-1.666,-1.687,-1.901,-1.723,9.240,-1.998,3.526,-0.041,0.978,-0.154,-0.916,-2.441,0.580,73.333,681312.000,1.000
-4.869,-1.835,-2.487,-1.952,-2.252,8.190,-4.334,1.772,-0.041,0.978,-0.155,-0.946,-2.319,0.580,73.333,681313.000,1.000
-4.490,-1.543,-2.921,-1.832,-2.682,6.925,-5.984,0.626,-0.039,0.978,-0.153,-0.977,-2.319,0.519,73.333,681314.000,1.000
-3.633,-1.445,-3.336,-1.982,-3.536,4.518,-7.853,-0.540,-0.040,0.978,-0.156,-0.885,-2.136,0.519,73.333,681315.000,1.000
-2.437,-1.584,-3.536,-2.358,-4.535,1.874,-9.524,-2.050,-0.042,0.979,-0.152,-0.977,-2.014,0.488,73.333,681316.000,1.000
-0.819,-1.220,-2.736,-2.262,-4.407,1.437,-8.794,-2.984,-0.041,0.981,-0.152,-0.977,-1.953,0.519,73.333,681317.000,1.000
1.073,0.078,-0.526,-1.160,-2.364,4.201,-4.631,-2.284,-0.040,0.982,-0.152,-0.946,-1.831,0.610,73.333,681318.000,1.000
2.624,1.687,2.394,0.607,0.806,8.067,0.899,-0.127,-0.040,0.980,-0.150,-1.007,-1.770,0.549,73.333,681319.000,1.000
3.251,2.688,4.837,2.236,3.677,10.276,5.076,2.493,-0.040,0.980,-0.153,-0.916,-1.801,0.610,73.333,681320.000,1.000
2.889,2.855,6.117,3.244,5.521,10.270,7.144,4.753,-0.040,0.981,-0.153,-1.068,-1.678,0.519,73.333,681321.000,1.000
1.831,2.466,6.093,3.531,6.197,8.968,7.260,6.032,-0.039,0.981,-0.152,-1.038,-1.587,0.519,73.333,681322.000,1.000
0.421,1.736,4.905,3.118,5.612,6.756,5.056,5.874,-0.039,0.979,-0.150,-1.160,-1.465,0.610,73.333,681323.000,1.000
-0.970,0.802,2.955,2.114,3.881,3.555,0.450,4.269,-0.040,0.978,-0.152,-1.160,-1.373,0.519,73.333,681324.000,1.000
-2.030,-0.164,0.810,0.685,1.470,-0.262,-5.407,1.543,-0.042,0.978,-0.150,-1.099,-1.160,0.458,73.333,681325.000,1.000
-2.675,-1.011,-1.004,-0.966,-0.937,-3.613,-10.282,-1.727,-0.040,0.977,-0.150,-1.038,-1.099,0.641,73.333,681326.000,1.000
-2.957,-1.532,-2.132,-2.487,-2.475,-4.772,-11.600,-4.551,-0.040,0.977,-0.148,-1.038,-1.038,0.641,73.333,681327.000,1.000
-2.934,-1.518,-2.429,-3.488,-2.483,-2.409,-8.196,-5.967,-0.040,0.978,-0.151,-1.038,-0.885,0.549,73.333,681328.000,1.000
-2.716,-1.147,-2.082,-3.873,-1.229,2.506,-2.116,-5.855,-0.040,0.977,-0.149,-0.946,-0.793,0.549,73.333,681329.000,1.000
-2.413,-0.990,-1.470,-3.811,0.212,6.693,2.432,-4.859,-0.041,0.979,-0.151,-0.854,-0.763,0.641,73.333,681330.000,1.000
-1.926,-1.446,-0.796,-3.348,1.003,7.143,2.557,-3.461,-0.042,0.977,-0.149,-1.038,-0.702,0.641,73.333,681331.000,1.000
-0.940,-2.270,0.032,-2.208,1.324,3.623,-0.851,-1.438,-0.045,0.976,-0.150,-0.854,-0.671,0.610,73.333,681332.000,1.000
0.780,-2.727,1.266,-0.065,2.057,-1.199,-3.970,1.542,-0.045,0.977,-0.150,-0.793,-0.671,0.580,73.333,681333.000,1.000
3.052,-2.232,2.923,2.967,3.761,-4.034,-3.514,4.976,-0.044,0.978,-0.151,-0.732,-0.610,0.519,73.333,681334.000,1.000
5.328,-0.760,4.617,6.265,6.178,-3.418,0.817,7.912,-0.045,0.978,-0.152,-0.702,-0.671,0.549,73.333,681335.000,1.000
7.020,1.256,5.844,9.051,8.581,-0.312,6.741,9.960,-0.045,0.975,-0.152,-0.732,-0.610,0.610,73.333,681336.000,1.000
7.722,3.144,6.203,10.594,10.113,2.972,11.085,10.932,-0.043,0.977,-0.151,-0.793,-0.641,0.641,73.333,681337.000,1.000
7.240,4.179,5.468,10.340,9.962,4.306,11.492,10.072,-0.043,0.979,-0.153,-0.610,-0.580,0.671,73.333,681338.000,1.000
5.744,3.896,3.706,8.301,7.860,2.859,7.616,6.861,-0.043,0.979,-0.152,-0.641,-0.549,0.763,73.333,681339.000,1.000
3.912,2.342,1.417,5.291,4.479,-0.826,1.054,2.209,-0.043,0.979,-0.153,-0.610,-0.458,0.702,73.333,681340.000,1.000
2.711,-0.002,-0.598,2.501,1.013,-5.703,-5.920,-2.043,-0.044,0.978,-0.152,-0.610,-0.458,0.732,73.333,681341.000,1.000
2.944,-2.385,-1.578,0.889,-1.460,-10.604,-11.341,-4.392,-0.042,0.977,-0.149,-0.580,-0.458,0.763,73.333,681342.000,1.000
4.933,-3.800,-0.944,0.994,-2.037,-13.555,-13.181,-3.968,-0.040,0.977,-0.153,-0.519,-0.549,0.763,73.333,681343.000,1.000
8.353,-3.239,1.532,2.895,-0.045,-11.869,-9.331,-0.545,-0.042,0.978,-0.152,-0.549,-0.610,0.793,73.333,681344.000,1.000
12.183,-0.408,5.383,5.967,4.240,-4.361,0.403,4.826,-0.043,0.978,-0.150,-0.549,-0.549,0.824,73.333,681345.000,1.000
14.946,3.775,9.393,8.898,9.150,6.615,12.720,9.754,-0.042,0.979,-0.148,-0.519,-0.549,1.007,73.333,681346.000,1.000
15.369,7.593,12.036,10.257,12.400,16.277,22.088,11.817,-0.044,0.978,-0.151,-0.519,-0.488,1.007,73.333,681347.000,1.000
13.069,9.442,12.199,9.107,12.219,20.238,23.340,9.712,-0.042,0.978,-0.153,-0.580,-0.519,0.977,73.333,681348.000,1.000
8.724,8.482,9.643,5.326,8.009,16.470,14.313,3.554,-0.042,0.979,-0.154,-0.610,-0.519,0.885,73.333,681349.000,1.000
3.775,5.003,5.176,-0.116,0.903,6.382,-2.020,-4.780,-0.041,0.978,-0.155,-0.641,-0.427,0.977,73.333,681350.000,1.000
-0.123,0.400,0.464,-5.263,-6.274,-5.506,-18.355,-11.766,-0.041,0.977,-0.152,-0.580,-0.458,1.007,73.333,681351.000,1.000
-1.761,-3.512,-2.792,-8.118,-10.391,-13.994,-27.356,-14.026,-0.043,0.977,-0.152,-0.580,-0.488,1.038,73.333,681352.000,1.000
-0.930,-5.458,-3.755,-7.872,-9.960,-16.020,-25.919,-10.751,-0.044,0.978,-0.156,-0.580,-0.458,1.007,73.333,681353.000,1.000
1.456,-5.262,-2.868,-5.304,-5.969,-11.896,-16.326,-4.315,-0.040,0.979,-0.152,-0.458,-0.488,1.038,73.333,681354.000,1.000
3.837,-3.636,-1.412,-2.020,-0.851,-4.408,-3.804,1.648,-0.041,0.979,-0.155,-0.610,-0.488,1.038,73.333,681355.000,1.000
4.893,-1.465,-0.451,0.692,3.400,3.480,7.409,4.915,-0.041,0.979,-0.153,-0.580,-0.458,1.038,73.333,681356.000,1.000
4.200,0.666,-0.310,2.341,6.120,9.927,15.599,5.599,-0.042,0.980,-0.152,-0.519,-0.427,0.885,73.333,681357.000,1.000
2.219,2.285,-0.841,2.923,7.306,13.476,19.957,4.903,-0.042,0.978,-0.152,-0.519,-0.427,0.885,73.333,681358.000,1.000
-0.167,2.881,-1.834,2.604,6.934,12.815,19.537,3.686,-0.043,0.978,-0.151,-0.549,-0.580,0.885,73.333,681359.000,1.000
-2.122,2.272,-3.060,1.752,5.227,8.189,14.603,2.348,-0.042,0.977,-0.150,-0.519,-0.549,0.977,73.333,681360.000,1.000
-3.201,0.765,-4.243,0.797,2.784,1.809,7.287,1.062,-0.043,0.978,-0.153,-0.336,-0.519,0.977,73.333,681361.000,1.000
-3.467,-1.202,-5.228,-0.035,0.155,-3.695,0.304,-0.269,-0.042,0.978,-0.154,-0.336,-0.549,0.854,73.333,681362.000,1.000
-3.261,-3.265,-5.884,-0.586,-2.148,-6.616,-3.931,-1.495,-0.042,0.975,-0.155,-0.275,-0.519,0.824,73.333,681363.000,1.000
-2.890,-5.081,-6.003,-0.608,-3.492,-6.623,-4.087,-1.835,-0.039,0.976,-0.155,-0.183,-0.610,0.793,73.333,681364.000,1.000
-2.581,-6.492,-5.557,-0.143,-3.729,-5.076,-1.567,-0.825,-0.040,0.977,-0.155,-0.305,-0.549,0.671,73.333,681365.000,1.000
-2.490,-7.605,-4.861,0.236,-3.547,-4.363,0.109,0.904,-0.040,0.980,-0.155,-0.275,-0.641,0.793,73.333,681366.000,1.000
-2.538,-8.394,-4.276,-0.044,-3.596,-5.714,-0.992,2.388,-0.041,0.979,-0.154,-0.275,-0.549,0.763,73.333,681367.000,1.000
-2.348,-8.370,-3.738,-0.928,-3.612,-7.712,-3.144,3.279,-0.043,0.979,-0.153,-0.183,-0.519,0.793,73.333,681368.000,1.000
-1.450,-6.916,-2.761,-1.820,-2.767,-7.519,-3.096,3.774,-0.041,0.980,-0.150,-0.153,-0.671,0.641,73.333,681369.000,1.000
0.395,-3.995,-0.962,-2.139,-0.707,-3.689,0.547,4.041,-0.040,0.977,-0.153,-0.061,-0.702,0.732,73.333,681370.000,1.000
2.960,-0.493,1.462,-1.746,1.855,2.206,6.017,3.804,-0.042,0.977,-0.153,-0.031,-0.702,0.641,73.333,681371.000,1.000
5.510,2.186,3.651,-1.004,3.487,6.522,9.593,2.423,-0.044,0.976,-0.155,0.031,-0.824,0.641,73.333,681372.000,1.000
7.070,2.909,4.567,-0.567,3.040,6.382,8.564,-0.368,-0.044,0.977,-0.153,-0.031,-0.610,0.671,73.333,681373.000,1.000
7.024,1.478,3.652,-0.974,0.584,2.090,3.791,-3.711,-0.044,0.977,-0.152,0.092,-0.732,0.641,73.333,681374.000,1.000
5.640,-1.265,1.277,-2.228,-2.576,-3.349,-1.097,-5.936,-0.044,0.978,-0.153,0.000,-0.702,0.641,73.333,681375.000,1.000
3.928,-3.959,-1.390,-3.741,-4.805,-6.819,-2.829,-5.756,-0.042,0.979,-0.151,0.092,-0.702,0.610,73.333,681376.000,1.000
2.816,-5.562,-3.289,-4.858,-5.209,-7.030,-0.631,-3.306,-0.041,0.978,-0.154,0.000,-0.732,0.610,73.333,681377.000,1.000
2.482,-5.910,-4.213,-5.416,-4.225,-5.113,3.306,-0.315,-0.041,0.976,-0.152,0.061,-0.824,0.671,73.333,681378.000,1.000
2.455,-5.510,-4.674,-5.700,-3.195,-3.710,5.255,0.924,-0.040,0.978,-0.153,0.000,-0.854,0.641,73.333,681379.000,1.000
2.176,-4.808,-5.173,-6.007,-3.131,-4.594,2.971,-0.764,-0.042,0.977,-0.157,-0.031,-0.854,0.580,73.333,681380.000,1.000
1.350,-3.946,-5.826,-6.442,-4.080,-7.413,-2.934,-4.807,-0.043,0.978,-0.156,0.183,-0.977,0.641,73.333,681381.000,1.000
-0.086,-3.102,-6.544,-6.966,-5.482,-10.720,-10.108,-9.551,-0.043,0.978,-0.157,0.031,-1.007,0.549,73.333,681382.000,1.000
-1.935,-2.467,-6.935,-7.205,-6.324,-12.974,-15.269,-12.766,-0.043,0.977,-0.158,0.153,-1.007,0.488,73.333,681383.000,1.000
-3.672,-1.877,-6.251,-6.406,-5.284,-12.801,-15.021,-12.230,-0.043,0.977,-0.157,0.244,-1.007,0.458,73.333,681384.000,1.000
-4.754,-0.994,-4.078,-4.165,-1.802,-9.752,-8.229,-7.415,-0.042,0.977,-0.156,0.305,-1.099,0.519,73.333,681385.000,1.000
-5.110,0.043,-1.065,-1.207,2.824,-5.188,1.920,-0.744,-0.042,0.977,-0.156,0.153,-1.190,0.458,73.333,681386.000,1.000
-5.183,0.496,1.332,0.993,6.087,-1.853,9.273,3.898,-0.044,0.979,-0.158,0.092,-1.251,0.458,73.333,681387.000,1.000
-5.344,-0.128,2.191,1.544,6.452,-1.756,9.630,4.437,-0.044,0.978,-0.158,0.061,-1.221,0.397,73.333,681388.000,1.000
-5.313,-1.253,2.051,0.953,4.744,-4.339,4.314,2.113,-0.045,0.978,-0.158,0.153,-1.282,0.336,73.333,681389.000,1.000
-4.358,-1.600,2.339,0.562,3.192,-7.223,-1.668,-0.226,-0.046,0.979,-0.155,0.031,-1.282,0.336,73.333,681390.000,1.000
-2.043,-0.282,4.153,1.361,3.460,-8.312,-3.930,-0.706,-0.046,0.978,-0.159,-0.031,-1.495,0.275,73.333,681391.000,1.000
1.294,2.651,7.520,3.345,5.675,-6.908,-1.161,0.591,-0.042,0.979,-0.158,0.000,-1.526,0.305,73.333,681392.000,1.000
4.717,6.404,11.534,5.721,8.709,-3.738,4.826,2.382,-0.043,0.979,-0.156,0.031,-1.434,0.336,73.333,681393.000,1.000
7.219,9.883,14.918,7.550,11.103,-0.368,10.604,3.565,-0.043,0.978,-0.156,-0.092,-1.465,0.275,73.333,681394.000,1.000
8.124,12.079,16.547,8.181,11.867,1.689,13.409,3.963,-0.045,0.979,-0.155,-0.092,-1.587,0.366,73.333,681395.000,1.000
7.334,12.433,15.918,7.342,10.755,1.577,12.617,3.858,-0.043,0.979,-0.156,-0.214,-1.556,0.305,73.333,681396.000,1.000
5.554,11.182,13.385,5.239,8.283,-0.585,9.507,3.385,-0.042,0.979,-0.155,-0.305,-1.556,0.336,73.333,681397.000,1.000
4.096,9.345,10.055,2.666,5.689,-3.409,6.358,2.747,-0.043,0.979,-0.157,-0.397,-1.556,0.366,73.333,681398.000,1.000
4.047,8.128,7.207,0.707,4.458,-4.662,5.513,2.461,-0.042,0.978,-0.153,-0.336,-1.587,0.336,73.333,681399.000,1.000
5.459,8.091,5.524,0.042,5.280,-3.089,7.686,2.883,-0.044,0.977,-0.157,-0.244,-1.648,0.427,73.333,681400.000,1.000
7.303,8.800,4.863,0.588,7.430,0.031,10.831,3.844,-0.043,0.977,-0.157,-0.397,-1.740,0.458,73.333,681401.000,1.000
8.265,9.386,4.658,1.794,9.472,2.077,11.971,5.017,-0.043,0.979,-0.155,-0.488,-1.648,0.366,73.333,681402.000,1.000
7.662,9.326,4.508,3.066,10.333,1.482,9.746,6.021,-0.042,0.977,-0.155,-0.458,-1.678,0.458,73.333,681403.000,1.000
5.721,8.537,4.228,3.874,9.579,-1.553,4.503,6.059,-0.042,0.976,-0.157,-0.397,-1.709,0.488,73.333,681404.000,1.000
3.202,7.134,3.632,3.856,7.324,-5.669,-2.441,4.326,-0.042,0.976,-0.157,-0.366,-1.709,0.488,73.333,681405.000,1.000
0.905,5.374,2.620,3.086,4.266,-9.107,-8.808,1.088,-0.042,0.977,-0.158,-0.458,-1.740,0.549,73.333,681406.000,1.000
-0.574,3.731,1.369,2.159,1.575,-10.459,-11.805,-1.943,-0.041,0.977,-0.154,-0.336,-1.740,0.458,73.333,681407.000,1.000
-0.947,2.742,0.360,1.853,0.302,-9.389,-9.709,-2.695,-0.043,0.978,-0.156,-0.366,-1.648,0.488,73.333,681408.000,1.000
-0.387,2.559,-0.017,2.513,0.503,-7.123,-3.795,-0.592,-0.043,0.979,-0.154,-0.397,-1.587,0.549,73.333,681409.000,1.000
0.546,2.774,0.197,3.773,1.156,-5.791,2.039,2.882,-0.042,0.979,-0.155,-0.427,-1.587,0.488,73.333,681410.000,1.000
1.343,2.784,0.754,4.879,1.155,-6.697,4.316,5.519,-0.043,0.979,-0.154,-0.397,-1.556,0.458,73.333,681411.000,1.000
1.873,2.239,1.418,5.192,0.166,-9.348,2.279,5.875,-0.042,0.979,-0.157,-0.519,-1.587,0.549,73.333,681412.000,1.000
2.333,1.221,2.083,4.610,-1.287,-12.008,-1.962,3.963,-0.042,0.980,-0.159,-0.488,-1.526,0.549,73.333,681413.000,1.000
3.027,0.130,2.839,3.671,-2.240,-13.177,-4.923,1.231,-0.042,0.982,-0.162,-0.549,-1.526,0.488,73.333,681414.000,1.000
4.134,-0.655,3.783,3.101,-2.031,-12.951,-4.318,-0.364,-0.042,0.981,-0.159,-0.488,-1.495,0.458,73.333,681415.000,1.000
5.578,-1.026,4.807,3.259,-0.790,-12.758,-0.607,0.241,-0.041,0.979,-0.160,-0.610,-1.526,0.549,73.333,681416.000,1.000
7.154,-0.998,5.641,4.055,0.804,-13.546,3.956,2.539,-0.040,0.978,-0.157,-0.671,-1.434,0.458,73.333,681417.000,1.000
8.728,-0.526,6.142,5.174,2.049,-14.799,7.097,4.888,-0.041,0.979,-0.158,-0.641,-1.404,0.549,73.333,681418.000,1.000
10.229,0.279,6.271,6.127,2.356,-15.605,7.233,5.343,-0.040,0.978,-0.157,-0.732,-1.312,0.610,73.333,681419.000,1.000
11.531,1.022,5.929,6.342,1.333,-15.881,3.830,2.607,-0.042,0.979,-0.156,-0.671,-1.221,0.580,73.333,681420.000,1.000
12.480,1.318,5.156,5.545,-0.912,-16.335,-2.271,-3.057,-0.040,0.978,-0.155,-0.702,-1.190,0.519,73.333,681421.000,1.000
12.890,1.031,4.177,3.985,-3.731,-17.892,-9.495,-9.623,-0.040,0.978,-0.160,-0.763,-1.099,0.458,73.333,681422.000,1.000
12.615,0.378,3.309,2.360,-6.058,-20.687,-15.826,-13.988,-0.040,0.979,-0.159,-0.793,-1.129,0.519,73.333,681423.000,1.000
11.773,-0.031,2.942,1.538,-6.674,-23.310,-18.726,-13.546,-0.042,0.978,-0.158,-0.793,-0.977,0.519,73.333,681424.000,1.000
10.639,0.251,3.162,1.887,-5.230,-24.251,-17.095,-8.385,-0.045,0.977,-0.156,-0.763,-0.977,0.519,73.333,681425.000,1.000
9.156,0.769,3.303,2.690,-3.112,-23.919,-13.334,-2.034,-0.043,0.977,-0.156,-0.763,-0.946,0.549,73.333,681426.000,1.000
6.864,0.488,2.246,2.614,-2.416,-23.897,-11.439,1.019,-0.044,0.976,-0.159,-0.732,-1.007,0.549,73.333,681427.000,1.000
3.411,-1.145,-0.548,0.891,-4.069,-24.931,-13.172,-1.122,-0.044,0.978,-0.158,-0.702,-0.977,0.458,73.333,681428.000,1.000
-1.057,-3.752,-4.526,-2.101,-7.305,-26.425,-17.071,-6.822,-0.047,0.976,-0.157,-0.641,-1.068,0.458,73.333,681429.000,1.000
-5.883,-6.316,-8.391,-5.095,-10.357,-26.776,-19.858,-12.533,-0.043,0.976,-0.156,-0.610,-1.007,0.580,73.333,681430.000,1.000
-10.079,-7.676,-10.677,-6.558,-11.280,-23.892,-18.101,-14.746,-0.043,0.977,-0.157,-0.519,-1.007,0.580,73.333,681431.000,1.000
-12.762,-7.200,-10.547,-5.584,-9.069,-16.875,-10.504,-11.751,-0.044,0.977,-0.156,-0.488,-0.977,0.488,73.333,681432.000,1.000
-13.785,-5.487,-8.476,-2.668,-4.744,-8.052,0.104,-4.842,-0.042,0.978,-0.156,-0.488,-0.946,0.488,73.333,681433.000,1.000
-13.839,-4.159,-6.060,0.504,-0.951,-2.272,7.936,2.399,-0.043,0.978,-0.156,-0.519,-0.977,0.458,73.333,681434.000,1.000
-13.738,-4.538,-4.881,2.322,0.117,-3.076,8.688,6.724,-0.043,0.977,-0.156,-0.519,-1.038,0.488,73.333,681435.000,1.000
-13.678,-6.496,-5.293,2.416,-1.563,-9.583,3.177,7.444,-0.043,0.976,-0.156,-0.580,-1.068,0.488,73.333,681436.000,1.000
-13.282,-8.659,-6.440,1.641,-4.155,-17.289,-3.701,6.217,-0.044,0.977,-0.157,-0.580,-1.007,0.580,73.333,681437.000,1.000
-12.258,-9.635,-7.253,1.034,-5.722,-21.613,-7.190,5.032,-0.043,0.980,-0.158,-0.549,-1.068,0.671,73.333,681438.000,1.000
-10.883,-9.015,-7.355,0.860,-5.594,-20.684,-5.660,4.522,-0.042,0.979,-0.159,-0.610,-1.038,0.549,73.333,681439.000,1.000
-9.831,-7.413,-7.202,0.538,-4.452,-15.691,-0.622,3.835,-0.043,0.978,-0.155,-0.549,-0.885,0.519,73.333,681440.000,1.000
-9.584,-5.826,-7.463,-0.656,-3.583,-9.647,4.808,1.752,-0.044,0.979,-0.155,-0.610,-0.885,0.549,73.333,681441.000,1.000
-9.991,-4.967,-8.447,-2.878,-3.992,-5.732,7.486,-2.130,-0.044,0.980,-0.156,-0.732,-0.977,0.580,73.333,681442.000,1.000
-10.346,-4.962,-9.877,-5.548,-5.844,-5.830,5.720,-7.046,-0.045,0.981,-0.157,-0.702,-1.007,0.641,73.333,681443.000,1.000
-9.881,-5.363,-11.074,-7.686,-8.354,-9.557,0.270,-11.374,-0.044,0.981,-0.159,-0.671,-0.946,0.763,73.333,681444.000,1.000
-8.273,-5.386,-11.375,-8.412,-10.164,-14.323,-5.972,-13.269,-0.045,0.980,-0.155,-0.824,-0.885,0.732,73.333,681445.000,1.000
-5.842,-4.419,-10.498,-7.384,-10.122,-16.925,-9.600,-11.628,-0.046,0.982,-0.155,-0.885,-0.946,0.763,73.333,681446.000,1.000
