EEG 1,EEG 2,EEG 3,EEG 4,EEG 5,EEG 6,EEG 7,EEG 8,Accelerometer X,Accelerometer Y,Accelerometer Z,Gyroscope X,Gyroscope Y,Gyroscope Z,Battery Level,Counter,Validation Indicator
10.040,9.921,10.207,6.006,4.363,5.377,-1.575,2.281,-0.010,0.992,-0.072,-0.977,-1.617,0.610,73.333,749505.000,1.000
9.198,9.379,9.675,4.012,5.126,7.104,-0.129,1.048,-0.010,0.993,-0.075,-0.977,-1.526,0.519,73.333,749506.000,1.000
7.766,8.130,8.422,1.392,4.655,7.365,0.378,-1.416,-0.009,0.993,-0.077,-0.946,-1.556,0.580,73.333,749507.000,1.000
5.621,5.708,6.093,-1.857,1.508,3.907,-3.885,-6.683,-0.010,0.993,-0.078,-1.007,-1.495,0.580,73.333,749508.000,1.000
3.075,2.542,3.114,-5.025,-3.826,-3.516,-13.272,-13.859,-0.010,0.992,-0.077,-0.946,-1.526,0.671,73.333,749509.000,1.000
0.902,0.016,0.855,-6.721,-8.676,-11.967,-23.532,-19.394,-0.011,0.992,-0.076,-0.946,-1.587,0.580,73.333,749510.000,1.000
-0.235,-0.653,0.588,-5.908,-10.277,-17.277,-29.138,-19.979,-0.012,0.991,-0.078,-0.946,-1.495,0.549,73.333,749511.000,1.000
-0.283,0.590,2.510,-2.654,-7.738,-16.974,-26.927,-14.968,-0.009,0.992,-0.078,-0.854,-1.556,0.641,73.333,749512.000,1.000
0.243,2.740,5.652,1.984,-2.301,-11.591,-17.542,-6.400,-0.010,0.993,-0.075,-0.885,-1.465,0.641,73.333,749513.000,1.000
0.618,4.468,8.531,6.538,3.622,-4.148,-5.000,2.426,-0.011,0.995,-0.076,-0.763,-1.495,0.671,73.333,749514.000,1.000
0.330,4.899,10.001,9.758,7.736,1.701,5.355,8.511,-0.012,0.997,-0.073,-0.824,-1.556,0.702,73.333,749515.000,1.000
-0.657,4.142,9.829,11.118,9.017,4.070,10.092,10.373,-0.011,0.999,-0.074,-0.793,-1.526,0.671,73.333,749516.000,1.000
-1.904,3.214,8.846,11.057,8.263,4.149,10.195,8.752,-0.012,1.000,-0.078,-0.763,-1.648,0.702,73.333,749517.000,1.000
-2.737,3.304,8.362,10.717,7.512,4.905,10.116,6.304,-0.012,0.999,-0.077,-0.854,-1.556,0.702,73.333,749518.000,1.000
-2.675,4.747,9.130,11.070,8.243,7.732,13.100,5.760,-0.012,0.998,-0.074,-1.007,-1.617,0.702,73.333,749519.000,1.000
-1.884,6.552,10.637,11.976,9.840,10.514,17.372,7.464,-0.013,0.996,-0.076,-1.099,-1.556,0.610,73.333,749520.000,1.000
-1.091,7.164,11.480,12.288,10.256,9.692,18.007,9.080,-0.013,0.995,-0.072,-1.068,-1.709,0.610,73.333,749521.000,1.000
-0.901,5.813,10.711,11.029,8.161,3.969,12.178,8.015,-0.016,0.994,-0.073,-1.129,-1.770,0.671,73.333,749522.000,1.000
-1.303,3.086,8.564,8.241,4.028,-4.278,1.640,3.472,-0.015,0.993,-0.073,-0.946,-1.709,0.580,73.333,749523.000,1.000
-1.794,0.404,6.083,4.879,-0.410,-10.633,-8.802,-3.315,-0.014,0.993,-0.073,-1.129,-1.709,0.519,73.333,749524.000,1.000
-1.818,-0.945,4.343,2.238,-3.316,-11.879,-14.730,-9.738,-0.013,0.990,-0.074,-1.160,-1.709,0.519,73.333,749525.000,1.000
-1.181,-0.685,3.748,1.209,-3.911,-8.590,-15.276,-13.282,-0.015,0.989,-0.078,-1.068,-1.770,0.458,73.333,749526.000,1.000
-0.262,0.311,3.923,1.749,-2.887,-4.490,-13.221,-13.159,-0.014,0.992,-0.078,-1.129,-1.892,0.488,73.333,749527.000,1.000
0.304,0.927,4.236,3.115,-1.458,-2.704,-11.639,-10.427,-0.012,0.992,-0.075,-1.099,-1.892,0.519,73.333,749528.000,1.000
0.229,0.877,4.421,4.588,-0.096,-2.720,-10.784,-6.656,-0.012,0.992,-0.071,-1.068,-1.862,0.488,73.333,749529.000,1.000
-0.222,0.635,4.534,5.781,1.403,-1.838,-8.746,-2.993,-0.011,0.993,-0.073,-0.916,-1.953,0.488,73.333,749530.000,1.000
-0.580,0.497,4.407,6.448,2.924,0.862,-4.599,-0.018,-0.010,0.991,-0.073,-0.916,-1.953,0.458,73.333,749531.000,1.000
-0.531,0.253,3.763,6.412,3.867,3.582,0.230,2.291,-0.010,0.993,-0.073,-0.916,-1.892,0.549,73.333,749532.000,1.000
-0.048,-0.422,2.583,5.555,3.704,4.108,3.240,4.003,-0.011,0.996,-0.074,-0.916,-1.709,0.519,73.333,749533.000,1.000
0.615,-1.655,1.103,3.858,2.379,1.648,2.860,4.667,-0.012,0.996,-0.077,-0.885,-1.831,0.580,73.333,749534.000,1.000
1.042,-3.248,-0.356,1.631,0.442,-2.830,-0.357,3.915,-0.011,0.995,-0.076,-0.824,-1.892,0.671,73.333,749535.000,1.000
0.782,-4.756,-1.593,-0.500,-1.186,-7.281,-4.146,2.191,-0.013,0.993,-0.073,-0.793,-1.953,0.671,73.333,749536.000,1.000
-0.420,-5.713,-2.533,-1.947,-1.749,-9.694,-5.944,0.525,-0.012,0.993,-0.075,-0.885,-1.892,0.671,73.333,749537.000,1.000
-2.397,-5.901,-3.212,-2.487,-1.064,-9.101,-4.371,-0.230,-0.012,0.994,-0.076,-0.732,-1.831,0.671,73.333,749538.000,1.000
-4.726,-5.589,-3.863,-2.463,0.198,-6.437,-0.363,-0.155,-0.011,0.994,-0.073,-0.885,-1.831,0.641,73.333,749539.000,1.000
-7.108,-5.424,-4.873,-2.674,0.737,-4.106,3.028,-0.433,-0.011,0.995,-0.074,-0.793,-1.740,0.610,73.333,749540.000,1.000
-9.394,-5.890,-6.464,-3.696,-0.336,-3.967,2.755,-2.203,-0.013,0.995,-0.073,-0.824,-1.678,0.610,73.333,749541.000,1.000
-11.404,-7.009,-8.353,-5.306,-2.753,-6.134,-1.931,-5.215,-0.011,0.995,-0.074,-0.854,-1.709,0.732,73.333,749542.000,1.000
-12.997,-8.615,-10.016,-6.760,-5.531,-9.683,-9.288,-8.045,-0.010,0.996,-0.073,-0.854,-1.709,0.763,73.333,749543.000,1.000
-14.128,-10.454,-11.027,-7.376,-7.634,-13.152,-15.978,-9.229,-0.012,0.994,-0.074,-0.793,-1.587,0.641,73.333,749544.000,1.000
-14.632,-11.863,-10.957,-6.704,-7.979,-14.119,-17.878,-7.789,-0.011,0.995,-0.074,-0.763,-1.587,0.610,73.333,749545.000,1.000
-14.231,-12.030,-9.629,-4.743,-5.872,-10.366,-12.478,-3.701,-0.012,0.995,-0.073,-0.793,-1.648,0.702,73.333,749546.000,1.000
-12.962,-10.934,-7.640,-2.326,-2.195,-2.788,-2.190,1.317,-0.012,0.994,-0.072,-0.854,-1.617,0.671,73.333,749547.000,1.000
-11.273,-9.483,-6.166,-0.731,0.785,4.368,6.622,4.490,-0.012,0.993,-0.072,-0.854,-1.617,0.671,73.333,749548.000,1.000
-9.643,-8.547,-5.938,-0.619,1.434,7.323,9.273,4.244,-0.011,0.994,-0.073,-0.885,-1.617,0.763,73.333,749549.000,1.000
-8.432,-8.410,-6.816,-1.728,-0.103,5.649,5.927,1.227,-0.013,0.992,-0.073,-0.885,-1.678,0.763,73.333,749550.000,1.000
-7.872,-8.966,-8.268,-3.413,-2.639,1.467,-0.399,-2.736,-0.015,0.993,-0.074,-0.916,-1.617,0.702,73.333,749551.000,1.000
-7.916,-9.788,-9.569,-4.992,-4.876,-2.556,-6.497,-5.944,-0.014,0.993,-0.073,-0.824,-1.678,0.671,73.333,749552.000,1.000
-8.176,-10.162,-9.962,-5.832,-5.850,-4.492,-9.961,-7.376,-0.015,0.993,-0.074,-0.916,-1.648,0.519,73.333,749553.000,1.000
-8.172,-9.550,-9.121,-5.577,-5.283,-3.932,-9.815,-6.778,-0.017,0.994,-0.075,-0.916,-1.648,0.519,73.333,749554.000,1.000
-7.657,-8.155,-7.480,-4.423,-3.852,-2.385,-7.307,-4.732,-0.016,0.994,-0.075,-0.854,-1.587,0.519,73.333,749555.000,1.000
-6.692,-6.832,-6.012,-3.042,-2.831,-2.473,-5.402,-2.489,-0.014,0.993,-0.075,-0.824,-1.587,0.519,73.333,749556.000,1.000
-5.456,-6.327,-5.444,-2.087,-3.144,-5.903,-6.578,-1.311,-0.013,0.991,-0.078,-0.671,-1.556,0.488,73.333,749557.000,1.000
-4.158,-6.759,-5.868,-1.864,-4.796,-12.153,-11.110,-1.851,-0.013,0.992,-0.078,-0.793,-1.648,0.580,73.333,749558.000,1.000
-3.081,-7.713,-6.828,-2.294,-6.978,-18.832,-17.030,-3.788,-0.011,0.992,-0.076,-0.702,-1.587,0.641,73.333,749559.000,1.000
-2.384,-8.448,-7.466,-2.942,-8.475,-22.910,-21.369,-5.897,-0.012,0.993,-0.075,-0.610,-1.587,0.641,73.333,749560.000,1.000
-1.901,-8.076,-6.925,-3.208,-8.208,-22.065,-21.719,-6.809,-0.010,0.994,-0.074,-0.519,-1.526,0.671,73.333,749561.000,1.000
-1.336,-6.043,-4.901,-2.723,-5.754,-15.844,-17.167,-5.745,-0.010,0.994,-0.075,-0.610,-1.434,0.610,73.333,749562.000,1.000
-0.673,-2.736,-2.058,-1.661,-1.737,-6.311,-8.975,-2.811,-0.011,0.996,-0.075,-0.580,-1.556,0.610,73.333,749563.000,1.000
-0.186,0.624,0.336,-0.578,2.443,2.970,-0.188,1.190,-0.012,0.996,-0.076,-0.580,-1.556,0.854,73.333,749564.000,1.000
-0.078,2.930,1.384,0.149,5.699,9.567,6.737,5.406,-0.011,0.997,-0.074,-0.610,-1.465,0.793,73.333,749565.000,1.000
-0.321,3.806,1.035,0.558,7.870,13.428,11.578,9.283,-0.012,0.996,-0.076,-0.763,-1.434,0.824,73.333,749566.000,1.000
-0.773,3.452,-0.101,0.844,9.240,15.509,15.271,12.345,-0.012,0.998,-0.076,-0.763,-1.404,0.793,73.333,749567.000,1.000
-1.233,2.337,-1.250,1.123,9.968,16.340,18.203,14.038,-0.014,1.000,-0.076,-0.793,-1.434,0.824,73.333,749568.000,1.000
-1.457,0.956,-1.936,1.385,9.984,15.760,19.577,13.960,-0.014,0.998,-0.073,-0.763,-1.373,0.671,73.333,749569.000,1.000
-1.284,-0.366,-2.138,1.606,9.162,13.171,17.851,12.418,-0.016,0.996,-0.070,-0.885,-1.495,0.732,73.333,749570.000,1.000
-0.610,-1.240,-1.937,2.033,7.940,8.964,13.016,10.840,-0.015,0.998,-0.070,-1.007,-1.343,0.793,73.333,749571.000,1.000
0.676,-0.911,-1.008,3.237,7.685,5.936,8.740,11.255,-0.014,0.998,-0.072,-1.099,-1.526,0.824,73.333,749572.000,1.000
2.417,1.068,0.913,5.403,9.474,7.130,9.470,14.457,-0.013,0.996,-0.074,-1.190,-1.404,0.824,73.333,749573.000,1.000
3.863,3.735,3.109,7.540,12.227,11.567,14.527,18.413,-0.014,0.994,-0.077,-1.129,-1.404,0.793,73.333,749574.000,1.000
3.966,5.016,4.005,7.882,13.055,14.314,17.939,19.248,-0.015,0.992,-0.074,-1.160,-1.434,0.793,73.333,749575.000,1.000
2.166,3.440,2.364,5.281,9.861,11.486,14.867,14.315,-0.015,0.990,-0.074,-1.038,-1.373,0.763,73.333,749576.000,1.000
-1.134,-0.742,-1.653,0.114,3.016,3.339,5.715,4.311,-0.015,0.990,-0.073,-1.038,-1.404,0.763,73.333,749577.000,1.000
-4.845,-5.989,-6.692,-6.015,-5.335,-7.206,-5.899,-7.310,-0.016,0.989,-0.073,-1.038,-1.434,0.732,73.333,749578.000,1.000
-7.822,-10.388,-11.047,-11.152,-12.613,-16.646,-16.120,-16.434,-0.014,0.988,-0.075,-0.916,-1.465,0.763,73.333,749579.000,1.000
-9.303,-12.320,-13.283,-13.726,-16.619,-21.738,-21.661,-20.131,-0.015,0.988,-0.074,-0.793,-1.465,0.732,73.333,749580.000,1.000
-9.108,-11.079,-12.808,-13.109,-16.289,-20.622,-20.616,-17.717,-0.014,0.988,-0.075,-0.702,-1.434,0.793,73.333,749581.000,1.000
-7.685,-7.298,-10.199,-9.983,-12.432,-14.114,-14.058,-11.021,-0.014,0.989,-0.076,-0.641,-1.434,0.854,73.333,749582.000,1.000
-5.899,-2.707,-6.968,-6.118,-7.516,-5.547,-6.047,-3.598,-0.015,0.991,-0.076,-0.549,-1.343,0.885,73.333,749583.000,1.000
-4.555,0.816,-4.662,-3.358,-4.186,1.092,-0.860,1.236,-0.017,0.993,-0.074,-0.458,-1.465,0.854,73.333,749584.000,1.000
-3.951,2.243,-3.925,-2.573,-3.758,3.223,-0.229,2.203,-0.015,0.995,-0.075,-0.427,-1.465,0.732,73.333,749585.000,1.000
-3.847,1.714,-4.468,-3.532,-5.958,0.566,-3.420,-0.024,-0.015,0.996,-0.078,-0.366,-1.434,0.763,73.333,749586.000,1.000
-3.709,0.285,-5.459,-5.356,-9.438,-4.788,-8.426,-3.971,-0.016,0.995,-0.074,-0.397,-1.495,0.763,73.333,749587.000,1.000
-2.855,-0.485,-5.870,-6.802,-12.145,-8.894,-12.183,-7.714,-0.015,0.996,-0.076,-0.549,-1.556,0.763,73.333,749588.000,1.000
-0.675,0.810,-4.850,-6.656,-12.042,-7.922,-11.479,-9.160,-0.016,0.998,-0.077,-0.519,-1.587,0.641,73.333,749589.000,1.000
2.964,4.588,-2.189,-4.409,-8.332,-0.629,-5.079,-7.235,-0.016,0.997,-0.076,-0.671,-1.648,0.580,73.333,749590.000,1.000
7.444,9.854,1.392,-0.624,-2.070,10.674,5.079,-2.602,-0.014,0.997,-0.072,-0.732,-1.648,0.549,73.333,749591.000,1.000
11.514,14.435,4.461,3.315,4.140,20.692,14.090,2.824,-0.012,0.994,-0.075,-0.916,-1.587,0.610,73.333,749592.000,1.000
13.934,16.095,5.605,5.937,7.433,23.659,16.452,6.951,-0.009,0.993,-0.076,-0.916,-1.617,0.671,73.333,749593.000,1.000
14.229,14.104,4.419,6.531,6.599,17.570,10.546,8.545,-0.008,0.991,-0.074,-0.885,-1.526,0.732,73.333,749594.000,1.000
12.865,9.741,1.787,5.342,2.704,5.820,0.005,7.365,-0.007,0.993,-0.076,-0.854,-1.404,0.793,73.333,749595.000,1.000
10.835,5.208,-0.905,3.116,-2.119,-5.849,-9.961,3.722,-0.007,0.993,-0.077,-0.885,-1.221,0.916,73.333,749596.000,1.000
9.126,2.191,-2.573,0.649,-6.034,-13.227,-15.947,-1.530,-0.009,0.991,-0.073,-0.916,-1.251,1.007,73.333,749597.000,1.000
8.353,1.288,-2.780,-1.320,-7.938,-14.805,-16.572,-6.892,-0.009,0.992,-0.077,-0.854,-1.129,1.099,73.333,749598.000,1.000
8.725,2.291,-1.545,-2.103,-7.395,-11.063,-11.955,-10.539,-0.012,0.994,-0.077,-0.885,-1.068,1.038,73.333,749599.000,1.000
10.088,4.513,0.849,-1.364,-4.807,-4.154,-4.293,-11.265,-0.011,0.994,-0.078,-0.916,-0.977,1.068,73.333,749600.000,1.000
11.863,6.939,3.689,0.427,-1.516,2.540,2.371,-9.441,-0.011,0.993,-0.080,-1.007,-0.885,1.129,73.333,749601.000,1.000
13.270,8.709,6.099,2.312,1.131,6.505,5.141,-6.510,-0.012,0.993,-0.081,-0.946,-1.007,1.282,73.333,749602.000,1.000
13.911,9.816,7.720,3.759,3.078,8.334,5.122,-3.346,-0.010,0.994,-0.078,-0.946,-0.885,1.404,73.333,749603.000,1.000
13.957,10.903,8.814,4.864,5.209,10.508,5.840,0.062,-0.010,0.995,-0.077,-0.977,-0.824,1.465,73.333,749604.000,1.000
13.652,12.122,9.572,5.686,7.629,13.557,8.835,3.400,-0.010,0.998,-0.076,-0.946,-0.854,1.373,73.333,749605.000,1.000
13.050,12.779,9.807,6.034,9.322,15.282,12.504,5.863,-0.013,1.000,-0.075,-1.038,-0.732,1.343,73.333,749606.000,1.000
12.205,12.205,9.447,5.866,9.406,13.771,14.592,7.008,-0.018,1.000,-0.075,-1.129,-0.580,1.282,73.333,749607.000,1.000
11.193,10.269,8.588,5.228,7.605,9.061,13.506,6.604,-0.018,0.999,-0.074,-1.221,-0.641,1.129,73.333,749608.000,1.000
9.968,7.208,7.236,4.017,4.029,2.506,8.601,4.387,-0.018,0.997,-0.074,-1.282,-0.916,1.007,73.333,749609.000,1.000
8.438,3.547,5.417,2.163,-0.634,-3.766,1.293,0.720,-0.019,0.997,-0.075,-1.282,-0.916,0.885,73.333,749610.000,1.000
6.612,0.102,3.297,-0.124,-5.068,-7.326,-4.875,-3.272,-0.016,0.998,-0.074,-1.434,-1.007,0.671,73.333,749611.000,1.000
4.705,-2.226,1.270,-2.312,-7.812,-6.622,-6.255,-6.156,-0.016,1.000,-0.072,-1.373,-1.038,0.610,73.333,749612.000,1.000
3.029,-3.013,-0.292,-3.822,-8.114,-2.524,-2.291,-6.746,-0.018,1.000,-0.073,-1.343,-1.099,0.519,73.333,749613.000,1.000
1.661,-2.773,-1.463,-4.559,-6.704,1.590,3.121,-5.159,-0.017,1.000,-0.074,-1.556,-1.160,0.427,73.333,749614.000,1.000
0.428,-2.506,-2.604,-4.905,-5.304,2.399,4.866,-3.162,-0.015,1.003,-0.073,-1.495,-1.221,0.336,73.333,749615.000,1.000
-0.709,-2.711,-3.763,-5.095,-5.084,-0.615,1.326,-2.570,-0.014,1.001,-0.072,-1.587,-1.251,0.305,73.333,749616.000,1.000
-1.470,-3.062,-4.418,-4.900,-5.817,-5.222,-4.756,-3.414,-0.015,1.003,-0.074,-1.648,-1.373,0.275,73.333,749617.000,1.000
-1.487,-2.900,-3.950,-3.975,-6.427,-8.639,-9.390,-4.137,-0.014,1.002,-0.074,-1.678,-1.373,0.244,73.333,749618.000,1.000
-0.655,-1.825,-2.215,-2.337,-6.002,-9.300,-10.260,-3.305,-0.011,0.999,-0.074,-1.801,-1.343,0.244,73.333,749619.000,1.000
0.752,0.089,0.326,-0.416,-4.295,-7.019,-7.192,-0.760,-0.010,0.998,-0.073,-1.740,-1.343,0.305,73.333,749620.000,1.000
2.260,2.405,2.810,1.282,-1.650,-2.449,-1.415,2.622,-0.009,0.996,-0.071,-1.709,-1.373,0.397,73.333,749621.000,1.000
3.480,4.597,4.478,2.493,1.267,3.153,5.090,5.758,-0.008,0.993,-0.073,-1.678,-1.282,0.488,73.333,749622.000,1.000
4.239,6.364,5.069,3.222,3.791,8.400,10.439,7.791,-0.009,0.991,-0.071,-1.556,-1.251,0.580,73.333,749623.000,1.000
4.530,7.725,4.854,3.572,5.563,12.651,14.015,8.213,-0.010,0.991,-0.069,-1.404,-1.190,0.549,73.333,749624.000,1.000
4.403,8.692,4.266,3.564,6.439,15.636,16.132,7.041,-0.012,0.991,-0.069,-1.343,-1.160,0.641,73.333,749625.000,1.000
3.900,8.927,3.445,3.035,6.089,16.146,16.127,4.679,-0.013,0.991,-0.068,-1.251,-1.129,0.702,73.333,749626.000,1.000
3.148,8.082,2.469,1.883,4.230,12.809,12.645,1.622,-0.013,0.991,-0.072,-1.160,-1.068,0.854,73.333,749627.000,1.000
2.478,6.423,1.749,0.487,1.405,6.498,6.323,-1.461,-0.015,0.992,-0.070,-1.007,-1.129,0.946,73.333,749628.000,1.000
2.297,4.802,1.884,-0.354,-0.993,0.489,0.445,-3.669,-0.016,0.990,-0.072,-0.885,-1.251,0.946,73.333,749629.000,1.000
2.852,4.065,3.197,-0.017,-1.662,-2.143,-1.718,-4.244,-0.016,0.989,-0.070,-0.793,-1.251,0.977,73.333,749630.000,1.000
4.081,4.501,5.420,1.428,-0.326,-0.895,0.045,-3.093,-0.017,0.989,-0.071,-0.702,-1.282,0.885,73.333,749631.000,1.000
5.600,5.688,7.806,3.215,2.076,2.136,2.808,-1.001,-0.016,0.988,-0.066,-0.549,-1.373,0.946,73.333,749632.000,1.000
6.903,6.883,9.537,4.376,4.195,4.440,3.740,0.846,-0.016,0.990,-0.069,-0.519,-1.373,0.946,73.333,749633.000,1.000
7.729,7.707,10.275,4.437,5.461,5.434,3.072,1.879,-0.016,0.987,-0.068,-0.305,-1.404,0.916,73.333,749634.000,1.000
8.268,8.384,10.373,3.747,6.386,6.543,3.450,2.580,-0.016,0.990,-0.074,-0.275,-1.465,0.946,73.333,749635.000,1.000
8.868,9.147,10.284,3.039,7.590,8.896,6.472,3.684,-0.013,0.991,-0.071,-0.183,-1.434,0.885,73.333,749636.000,1.000
9.539,9.606,10.003,2.771,8.835,11.469,10.662,5.187,-0.013,0.989,-0.072,-0.061,-1.465,0.916,73.333,749637.000,1.000
9.889,9.088,9.212,3.036,9.453,12.287,13.513,6.622,-0.013,0.990,-0.075,-0.092,-1.404,0.885,73.333,749638.000,1.000
9.575,7.517,7.901,3.937,9.431,10.991,14.640,8.024,-0.011,0.993,-0.074,0.000,-1.434,0.854,73.333,749639.000,1.000
8.594,5.456,6.448,5.488,9.243,8.903,15.335,9.661,-0.012,0.991,-0.070,-0.031,-1.343,0.946,73.333,749640.000,1.000
7.128,3.387,5.041,7.145,8.782,6.898,15.624,10.871,-0.013,0.991,-0.073,-0.092,-1.404,0.977,73.333,749641.000,1.000
5.421,1.503,3.656,8.017,7.429,4.804,14.013,10.349,-0.013,0.993,-0.075,0.061,-1.404,1.007,73.333,749642.000,1.000
3.783,0.008,2.416,7.653,5.077,2.415,9.807,7.696,-0.012,0.993,-0.075,-0.061,-1.434,1.129,73.333,749643.000,1.000
2.522,-0.983,1.571,6.329,2.247,-0.536,3.634,3.909,-0.011,0.993,-0.079,-0.061,-1.404,1.190,73.333,749644.000,1.000
1.890,-1.606,1.293,4.737,-0.508,-4.523,-3.421,0.473,-0.011,0.994,-0.077,-0.122,-1.312,1.099,73.333,749645.000,1.000
2.098,-1.862,1.711,3.676,-2.504,-8.643,-9.153,-1.414,-0.012,0.994,-0.077,0.031,-1.221,1.068,73.333,749646.000,1.000
3.193,-1.390,3.013,3.812,-2.811,-10.126,-10.329,-1.220,-0.010,0.995,-0.077,0.061,-1.129,1.160,73.333,749647.000,1.000
4.806,-0.081,5.055,5.254,-1.151,-7.480,-5.844,0.561,-0.010,0.995,-0.075,0.000,-1.068,1.129,73.333,749648.000,1.000
6.117,1.350,7.107,7.364,1.505,-3.111,1.463,2.904,-0.009,0.995,-0.076,-0.122,-1.038,1.343,73.333,749649.000,1.000
6.276,1.893,8.289,9.139,3.846,-0.804,7.507,5.156,-0.007,0.997,-0.077,-0.153,-0.946,1.404,73.333,749650.000,1.000
4.870,1.121,8.041,9.666,5.181,-1.618,10.126,6.754,-0.007,0.998,-0.074,-0.244,-0.916,1.312,73.333,749651.000,1.000
2.032,-0.722,6.210,8.374,5.323,-3.809,9.357,6.698,-0.009,0.997,-0.077,-0.244,-0.885,1.404,73.333,749652.000,1.000
-1.629,-3.107,2.987,5.351,4.322,-5.386,6.313,4.371,-0.009,0.995,-0.077,-0.305,-0.885,1.221,73.333,749653.000,1.000
-5.093,-5.409,-0.941,1.570,2.625,-5.473,2.437,0.639,-0.010,0.996,-0.073,-0.275,-0.763,1.190,73.333,749654.000,1.000
-7.316,-7.067,-4.472,-1.515,0.960,-4.402,-1.219,-2.525,-0.009,0.996,-0.078,-0.305,-0.824,1.282,73.333,749655.000,1.000
-7.858,-7.869,-6.751,-2.911,-0.187,-3.415,-4.328,-3.580,-0.009,0.996,-0.076,-0.458,-0.793,1.221,73.333,749656.000,1.000
-7.092,-7.976,-7.556,-2.630,-0.726,-3.459,-6.396,-2.361,-0.010,0.997,-0.075,-0.458,-0.702,1.160,73.333,749657.000,1.000
-5.793,-7.707,-7.293,-1.522,-0.841,-4.137,-6.531,-0.034,-0.011,0.996,-0.077,-0.519,-0.854,1.038,73.333,749658.000,1.000
-4.700,-7.509,-6.845,-0.866,-1.212,-4.477,-5.080,1.151,-0.012,0.996,-0.079,-0.610,-0.793,1.007,73.333,749659.000,1.000
-4.279,-7.838,-7.081,-1.670,-2.824,-4.172,-4.036,-0.926,-0.011,0.997,-0.077,-0.702,-0.854,1.007,73.333,749660.000,1.000
-4.483,-8.764,-8.175,-3.814,-5.923,-3.646,-4.844,-6.035,-0.011,0.997,-0.080,-0.793,-0.702,0.916,73.333,749661.000,1.000
-4.742,-9.795,-9.380,-6.063,-9.523,-3.433,-6.867,-11.333,-0.011,0.998,-0.077,-0.763,-0.732,0.763,73.333,749662.000,1.000
-4.351,-10.096,-9.645,-7.088,-12.019,-3.178,-7.983,-13.905,-0.011,0.998,-0.074,-0.732,-0.702,0.732,73.333,749663.000,1.000
-2.954,-8.895,-8.302,-6.343,-12.067,-1.341,-6.096,-12.902,-0.013,0.998,-0.076,-0.916,-0.824,0.610,73.333,749664.000,1.000
-0.795,-6.143,-5.458,-4.184,-9.431,2.607,-1.214,-9.310,-0.015,0.996,-0.073,-0.946,-0.946,0.549,73.333,749665.000,1.000
1.350,-2.929,-2.124,-1.565,-5.426,6.110,3.449,-4.760,-0.015,0.995,-0.075,-1.068,-0.885,0.488,73.333,749666.000,1.000
2.576,-0.857,0.305,0.359,-2.239,5.475,3.708,-0.993,-0.014,0.994,-0.075,-1.190,-1.038,0.488,73.333,749667.000,1.000
2.421,-0.818,0.901,0.773,-1.392,-0.227,-1.706,0.544,-0.010,0.991,-0.073,-1.282,-1.221,0.488,73.333,749668.000,1.000
1.233,-2.296,-0.150,-0.234,-2.528,-7.746,-9.497,-0.246,-0.010,0.991,-0.074,-1.099,-1.190,0.458,73.333,749669.000,1.000
0.002,-3.747,-1.612,-1.659,-3.698,-11.787,-13.998,-1.875,-0.009,0.990,-0.072,-1.007,-1.038,0.458,73.333,749670.000,1.000
-0.315,-3.889,-2.238,-2.429,-3.212,-9.240,-11.642,-2.907,-0.009,0.990,-0.071,-1.007,-1.007,0.427,73.333,749671.000,1.000
0.487,-2.789,-1.761,-2.239,-1.195,-2.076,-3.737,-3.199,-0.012,0.991,-0.074,-0.793,-1.099,0.488,73.333,749672.000,1.000
1.737,-1.644,-1.008,-1.598,0.751,4.374,4.674,-3.424,-0.012,0.993,-0.074,-0.763,-1.007,0.580,73.333,749673.000,1.000
2.450,-1.670,-1.116,-1.365,0.946,5.880,8.321,-4.495,-0.013,0.993,-0.076,-0.763,-1.007,0.610,73.333,749674.000,1.000
2.067,-3.207,-2.538,-2.102,-1.129,2.129,5.398,-7.003,-0.012,0.992,-0.076,-0.854,-1.007,0.641,73.333,749675.000,1.000
0.786,-5.552,-4.686,-3.571,-4.355,-3.789,-1.111,-10.118,-0.011,0.991,-0.076,-0.824,-1.099,0.702,73.333,749676.000,1.000
-0.700,-7.537,-6.435,-4.952,-6.855,-8.255,-6.367,-11.723,-0.012,0.990,-0.073,-0.885,-1.129,0.824,73.333,749677.000,1.000
-1.738,-8.431,-7.049,-5.650,-7.600,-9.747,-7.920,-10.478,-0.013,0.989,-0.076,-0.885,-1.068,0.824,73.333,749678.000,1.000
-2.065,-8.259,-6.528,-5.762,-7.017,-8.992,-6.538,-7.275,-0.018,0.991,-0.077,-0.885,-1.190,0.610,73.333,749679.000,1.000
-1.815,-7.410,-5.274,-5.724,-6.095,-7.275,-4.053,-4.163,-0.020,0.992,-0.074,-1.038,-1.282,0.671,73.333,749680.000,1.000
-1.318,-6.143,-3.711,-5.672,-5.186,-4.946,-1.530,-2.261,-0.021,0.993,-0.074,-1.038,-1.495,0.580,73.333,749681.000,1.000
-0.900,-4.493,-2.029,-5.293,-3.760,-1.426,1.049,-1.038,-0.021,0.995,-0.073,-0.854,-1.556,0.458,73.333,749682.000,1.000
-0.850,-2.647,-0.418,-4.340,-1.422,3.160,3.606,0.454,-0.019,0.995,-0.077,-0.916,-1.740,0.427,73.333,749683.000,1.000
-1.522,-1.301,0.535,-3.225,0.987,6.673,4.580,1.860,-0.017,0.995,-0.074,-1.038,-1.862,0.458,73.333,749684.000,1.000
-3.199,-1.249,0.155,-2.793,1.911,6.506,2.053,1.636,-0.015,0.994,-0.074,-1.251,-1.892,0.366,73.333,749685.000,1.000
-5.725,-2.561,-1.607,-3.424,0.774,2.409,-3.592,-0.966,-0.014,0.995,-0.076,-1.099,-1.953,0.366,73.333,749686.000,1.000
-8.432,-4.432,-3.875,-4.560,-1.379,-3.175,-9.390,-4.638,-0.012,0.996,-0.077,-1.129,-1.892,0.458,73.333,749687.000,1.000
-10.474,-5.769,-5.352,-5.041,-2.704,-7.189,-11.906,-6.608,-0.010,0.995,-0.078,-1.160,-1.892,0.488,73.333,749688.000,1.000
-11.270,-5.786,-5.085,-3.885,-1.748,-7.819,-9.196,-4.471,-0.012,0.997,-0.078,-1.068,-1.892,0.519,73.333,749689.000,1.000
-10.871,-4.403,-3.149,-1.122,1.513,-5.079,-1.998,1.584,-0.013,0.997,-0.077,-1.129,-1.801,0.458,73.333,749690.000,1.000
-9.979,-2.283,-0.800,1.971,5.482,-0.448,6.404,8.298,-0.011,0.996,-0.078,-1.160,-1.892,0.397,73.333,749691.000,1.000
-9.455,-0.429,0.392,3.686,7.950,3.928,12.031,11.618,-0.010,0.997,-0.076,-1.099,-1.923,0.458,73.333,749692.000,1.000
-9.665,0.358,-0.333,3.019,7.452,5.986,12.347,9.510,-0.012,0.998,-0.077,-1.129,-1.831,0.641,73.333,749693.000,1.000
-10.224,-0.053,-2.407,0.374,4.224,4.708,7.725,3.373,-0.012,0.997,-0.079,-1.190,-1.801,0.610,73.333,749694.000,1.000
-10.331,-0.972,-4.327,-2.614,0.212,1.043,1.437,-2.721,-0.010,0.999,-0.077,-1.099,-1.770,0.763,73.333,749695.000,1.000
-9.430,-1.386,-4.809,-4.210,-2.257,-2.506,-2.650,-5.068,-0.009,0.999,-0.076,-1.129,-1.740,0.793,73.333,749696.000,1.000
-7.658,-0.765,-3.623,-3.795,-2.201,-3.706,-3.012,-3.215,-0.011,1.000,-0.073,-1.282,-1.709,0.916,73.333,749697.000,1.000
-5.729,0.551,-1.621,-2.155,-0.479,-2.160,-1.178,0.237,-0.013,0.999,-0.074,-1.312,-1.678,0.946,73.333,749698.000,1.000
-4.398,1.684,-0.052,-0.724,1.266,0.760,0.397,2.423,-0.015,0.998,-0.072,-1.312,-1.740,0.885,73.333,749699.000,1.000
-3.828,2.047,0.419,-0.414,2.204,3.675,1.351,2.652,-0.014,0.997,-0.072,-1.312,-1.709,0.824,73.333,749700.000,1.000
-3.418,1.977,0.186,-1.000,2.999,6.947,4.127,2.444,-0.014,0.999,-0.074,-1.373,-1.709,0.885,73.333,749701.000,1.000
-2.502,2.104,0.051,-1.727,4.487,11.322,10.048,3.242,-0.014,0.998,-0.068,-1.373,-1.770,0.946,73.333,749702.000,1.000
-1.262,2.084,-0.016,-2.431,5.738,14.628,15.151,4.316,-0.014,0.997,-0.074,-1.251,-1.709,0.916,73.333,749703.000,1.000
-0.594,0.829,-0.804,-3.535,4.698,12.535,13.351,3.684,-0.011,0.994,-0.073,-1.282,-1.678,0.885,73.333,749704.000,1.000
-1.041,-1.896,-2.523,-5.047,0.883,3.700,3.671,0.893,-0.011,0.993,-0.073,-1.282,-1.709,0.854,73.333,749705.000,1.000
-2.154,-4.803,-4.243,-6.120,-3.525,-7.485,-8.026,-2.037,-0.010,0.992,-0.074,-1.099,-1.678,0.824,73.333,749706.000,1.000
-2.867,-6.101,-4.615,-5.733,-5.519,-14.142,-14.225,-2.604,-0.009,0.990,-0.070,-1.129,-1.678,0.824,73.333,749707.000,1.000
-2.383,-5.051,-3.099,-3.699,-3.995,-12.811,-12.154,-0.439,-0.009,0.989,-0.072,-1.129,-1.587,0.854,73.333,749708.000,1.000
-0.781,-2.531,-0.491,-0.956,-0.611,-6.161,-5.584,2.228,-0.009,0.989,-0.071,-1.007,-1.556,0.885,73.333,749709.000,1.000
1.101,-0.207,1.740,1.153,1.808,-0.139,-1.017,2.546,-0.008,0.989,-0.072,-0.854,-1.648,0.854,73.333,749710.000,1.000
2.390,0.816,2.654,1.970,1.688,1.097,-2.057,-0.241,-0.009,0.989,-0.073,-0.793,-1.465,0.854,73.333,749711.000,1.000
2.965,0.819,2.698,2.113,0.023,-1.870,-6.312,-3.550,-0.010,0.990,-0.076,-0.641,-1.434,0.793,73.333,749712.000,1.000
3.542,1.193,3.323,2.980,-0.431,-4.625,-7.625,-3.249,-0.010,0.991,-0.071,-0.519,-1.434,0.793,73.333,749713.000,1.000
4.938,3.176,5.642,5.494,2.369,-2.994,-2.101,2.741,-0.010,0.991,-0.073,-0.549,-1.434,0.793,73.333,749714.000,1.000
7.200,6.556,9.261,9.016,7.550,2.868,7.560,12.000,-0.012,0.992,-0.071,-0.366,-1.404,0.763,73.333,749715.000,1.000
9.446,9.616,12.271,11.434,11.551,8.338,13.779,18.493,-0.011,0.991,-0.073,-0.458,-1.434,0.824,73.333,749716.000,1.000
10.685,10.692,12.872,10.858,11.273,9.070,11.287,17.185,-0.014,0.991,-0.073,-0.397,-1.465,0.671,73.333,749717.000,1.000
10.790,9.825,11.068,7.448,7.191,5.782,2.721,8.559,-0.012,0.993,-0.072,-0.458,-1.465,0.610,73.333,749718.000,1.000
10.435,8.483,8.506,3.263,2.716,3.163,-4.395,-1.915,-0.012,0.994,-0.069,-0.397,-1.526,0.610,73.333,749719.000,1.000
10.193,7.844,6.789,0.443,0.796,4.304,-5.527,-8.266,-0.013,0.996,-0.072,-0.305,-1.495,0.671,73.333,749720.000,1.000
10.042,7.858,6.277,-0.223,1.769,7.708,-2.323,-7.842,-0.015,0.996,-0.073,-0.458,-1.556,0.610,73.333,749721.000,1.000
9.675,7.876,6.375,0.649,3.976,9.839,0.982,-2.323,-0.015,0.995,-0.073,-0.488,-1.495,0.549,73.333,749722.000,1.000
9.003,7.691,6.476,1.982,5.785,9.385,2.355,4.251,-0.013,0.998,-0.075,-0.549,-1.556,0.610,73.333,749723.000,1.000
8.239,7.774,6.537,3.166,6.936,8.331,3.146,8.847,-0.013,0.998,-0.077,-0.641,-1.526,0.580,73.333,749724.000,1.000
7.580,8.545,6.809,4.125,7.983,9.227,5.352,10.778,-0.013,0.998,-0.075,-0.732,-1.526,0.519,73.333,749725.000,1.000
7.051,9.813,7.294,4.883,9.154,12.394,9.161,10.766,-0.014,0.999,-0.075,-0.732,-1.617,0.610,73.333,749726.000,1.000
6.653,11.022,7.862,5.485,10.250,15.958,13.293,10.085,-0.014,1.001,-0.075,-0.885,-1.678,0.519,73.333,749727.000,1.000
6.374,11.663,8.437,6.035,11.014,17.681,15.976,10.022,-0.014,1.002,-0.075,-0.977,-1.740,0.519,73.333,749728.000,1.000
6.123,11.595,9.072,6.674,11.481,17.119,16.327,11.346,-0.013,1.002,-0.077,-1.129,-1.770,0.458,73.333,749729.000,1.000
5.816,11.122,9.933,7.509,11.934,15.819,15.059,13.866,-0.015,1.000,-0.074,-1.312,-1.892,0.427,73.333,749730.000,1.000
5.201,10.201,10.585,8.104,11.733,13.804,11.596,15.724,-0.015,0.997,-0.074,-1.495,-1.953,0.488,73.333,749731.000,1.000
3.638,7.875,9.694,7.338,8.973,7.770,2.897,14.006,-0.016,0.995,-0.072,-1.526,-1.953,0.458,73.333,749732.000,1.000
0.563,3.412,6.218,4.492,2.730,-4.249,-11.603,7.454,-0.017,0.996,-0.071,-1.465,-1.953,0.549,73.333,749733.000,1.000
-3.706,-2.241,0.859,0.342,-4.972,-18.263,-26.364,-1.769,-0.016,0.994,-0.073,-1.587,-2.014,0.549,73.333,749734.000,1.000
-7.779,-6.667,-3.963,-3.051,-10.171,-26.663,-33.204,-9.163,-0.015,0.994,-0.076,-1.648,-2.045,0.580,73.333,749735.000,1.000
-9.969,-7.749,-5.747,-3.681,-9.877,-24.693,-27.844,-10.592,-0.016,0.994,-0.075,-1.740,-2.167,0.610,73.333,749736.000,1.000
-9.590,-5.442,-3.780,-1.155,-4.457,-14.365,-13.498,-5.120,-0.014,0.993,-0.073,-1.709,-2.106,0.610,73.333,749737.000,1.000
-7.619,-2.027,0.131,2.672,2.225,-2.824,0.959,3.511,-0.015,0.993,-0.074,-1.740,-2.167,0.549,73.333,749738.000,1.000
-6.029,-0.536,2.818,4.810,5.254,2.723,6.680,8.687,-0.013,0.994,-0.072,-1.678,-2.197,0.549,73.333,749739.000,1.000
-6.297,-2.580,2.015,3.264,2.083,-0.475,0.573,5.638,-0.011,0.995,-0.073,-1.801,-2.258,0.671,73.333,749740.000,1.000
-8.318,-7.196,-2.091,-1.476,-5.596,-9.250,-12.628,-4.684,-0.013,0.994,-0.069,-1.831,-2.106,0.732,73.333,749741.000,1.000
-10.502,-11.480,-6.978,-6.769,-12.984,-16.663,-23.365,-16.171,-0.013,0.995,-0.071,-1.770,-2.136,0.824,73.333,749742.000,1.000
-10.908,-12.567,-9.548,-9.643,-15.508,-16.743,-23.750,-22.114,-0.011,0.995,-0.073,-1.709,-2.106,0.854,73.333,749743.000,1.000
-8.598,-9.650,-8.223,-8.769,-12.001,-8.922,-13.329,-19.778,-0.009,0.996,-0.072,-1.678,-2.106,0.885,73.333,749744.000,1.000
-4.366,-4.628,-3.961,-5.230,-5.370,1.450,0.508,-11.645,-0.009,0.994,-0.071,-1.587,-2.106,0.793,73.333,749745.000,1.000
-0.280,-0.693,0.540,-1.547,-0.169,7.599,8.609,-3.067,-0.010,0.994,-0.071,-1.678,-2.014,0.824,73.333,749746.000,1.000
1.847,0.167,3.022,0.329,1.014,6.976,7.670,1.718,-0.010,0.994,-0.073,-1.740,-2.075,0.793,73.333,749747.000,1.000
1.763,-1.509,3.137,0.285,-0.885,2.383,1.670,2.125,-0.009,0.992,-0.075,-1.709,-2.075,0.824,73.333,749748.000,1.000
0.544,-3.742,1.907,-0.586,-3.282,-2.084,-3.768,0.188,-0.010,0.990,-0.073,-1.678,-1.953,0.946,73.333,749749.000,1.000
-0.656,-5.097,0.334,-1.428,-4.700,-4.928,-6.610,-2.254,-0.011,0.991,-0.072,-1.556,-1.892,0.946,73.333,749750.000,1.000
-1.318,-5.278,-1.060,-1.970,-5.076,-6.643,-7.496,-4.284,-0.011,0.991,-0.073,-1.465,-1.984,0.885,73.333,749751.000,1.000
-1.337,-4.311,-1.687,-1.895,-4.275,-6.954,-6.099,-4.827,-0.012,0.993,-0.073,-1.434,-1.984,0.977,73.333,749752.000,1.000
-0.753,-2.184,-0.982,-0.856,-1.907,-4.862,-1.328,-3.001,-0.011,0.995,-0.070,-1.404,-1.862,0.946,73.333,749753.000,1.000
0.037,0.422,0.673,0.728,1.298,-1.346,5.231,0.323,-0.010,0.995,-0.071,-1.343,-1.831,0.977,73.333,749754.000,1.000
0.168,1.855,1.708,1.482,3.168,0.187,8.782,2.488,-0.010,0.993,-0.070,-1.404,-1.801,1.007,73.333,749755.000,1.000
-1.072,0.749,0.583,0.174,1.920,-2.618,5.478,1.107,-0.008,0.993,-0.071,-1.434,-1.678,1.099,73.333,749756.000,1.000
-3.457,-2.578,-2.670,-2.987,-1.952,-8.147,-3.599,-3.820,-0.008,0.993,-0.073,-1.465,-1.648,0.946,73.333,749757.000,1.000
-5.768,-6.194,-6.324,-6.252,-5.796,-12.040,-12.825,-9.522,-0.009,0.995,-0.073,-1.465,-1.617,1.099,73.333,749758.000,1.000
-6.505,-7.814,-8.123,-7.489,-6.546,-10.635,-15.611,-11.935,-0.010,0.995,-0.072,-1.404,-1.556,1.068,73.333,749759.000,1.000
-4.913,-6.297,-6.750,-5.729,-2.867,-3.534,-8.756,-8.610,-0.010,0.994,-0.070,-1.343,-1.617,0.977,73.333,749760.000,1.000
-1.606,-2.443,-2.787,-1.945,3.662,6.124,4.900,-1.147,-0.009,0.994,-0.070,-1.282,-1.587,0.977,73.333,749761.000,1.000
1.789,1.573,1.687,1.644,9.433,13.517,17.830,5.737,-0.009,0.996,-0.068,-1.434,-1.526,0.946,73.333,749762.000,1.000
3.597,3.559,4.327,3.054,11.081,14.602,22.205,7.783,-0.008,0.998,-0.068,-1.495,-1.495,0.916,73.333,749763.000,1.000
2.971,2.565,3.800,1.686,7.653,8.524,15.251,4.220,-0.009,0.999,-0.071,-1.465,-1.465,0.854,73.333,749764.000,1.000
0.376,-0.467,0.607,-1.320,1.451,-1.041,2.174,-1.784,-0.010,0.996,-0.071,-1.434,-1.343,0.916,73.333,749765.000,1.000
-2.838,-3.510,-3.512,-4.036,-3.763,-8.369,-7.997,-5.879,-0.011,0.995,-0.071,-1.526,-1.282,0.824,73.333,749766.000,1.000
-5.599,-5.217,-7.088,-5.368,-5.862,-10.323,-10.152,-6.245,-0.011,0.993,-0.069,-1.526,-1.373,0.793,73.333,749767.000,1.000
-7.678,-5.541,-9.641,-5.494,-5.207,-7.480,-5.227,-4.183,-0.014,0.994,-0.073,-1.556,-1.282,0.702,73.333,749768.000,1.000
-9.204,-4.930,-11.117,-4.953,-3.121,-1.804,3.308,-1.680,-0.015,0.995,-0.072,-1.617,-1.312,0.763,73.333,749769.000,1.000
-10.142,-3.755,-11.367,-3.958,-0.738,4.698,11.909,0.267,-0.014,0.994,-0.068,-1.556,-1.465,0.824,73.333,749770.000,1.000
-10.180,-2.219,-10.214,-2.429,1.258,10.277,17.733,1.637,-0.014,0.995,-0.068,-1.617,-1.434,0.732,73.333,749771.000,1.000
-8.930,-0.296,-7.585,-0.228,2.732,14.134,19.607,2.880,-0.013,0.995,-0.070,-1.648,-1.404,0.702,73.333,749772.000,1.000
-6.455,1.888,-3.960,2.419,3.582,15.716,17.429,4.173,-0.014,0.994,-0.070,-1.465,-1.465,0.763,73.333,749773.000,1.000
-3.508,3.698,-0.445,4.801,3.352,13.668,11.325,5.120,-0.017,0.992,-0.069,-1.587,-1.495,0.732,73.333,749774.000,1.000
-1.007,4.650,2.056,6.307,1.999,7.744,2.987,5.219,-0.016,0.992,-0.069,-1.495,-1.495,0.732,73.333,749775.000,1.000
0.590,5.045,3.439,6.924,0.441,0.780,-4.021,4.250,-0.013,0.992,-0.070,-1.343,-1.587,0.641,73.333,749776.000,1.000
1.304,5.483,4.152,7.048,-0.276,-3.519,-7.081,2.450,-0.014,0.992,-0.067,-1.282,-1.678,0.702,73.333,749777.000,1.000
1.329,6.086,4.573,7.053,0.061,-3.916,-6.570,0.582,-0.015,0.993,-0.068,-1.343,-1.801,0.671,73.333,749778.000,1.000
0.948,6.614,4.936,7.190,1.073,-1.517,-4.337,-0.306,-0.013,0.994,-0.066,-1.343,-1.770,0.641,73.333,749779.000,1.000
0.630,7.040,5.559,7.711,2.549,2.372,-1.305,0.600,-0.013,0.993,-0.065,-1.312,-1.740,0.763,73.333,749780.000,1.000
0.805,7.554,6.579,8.668,4.506,7.041,2.768,3.218,-0.013,0.994,-0.065,-1.312,-1.801,0.702,73.333,749781.000,1.000
1.555,8.140,7.639,9.684,6.652,11.498,7.472,6.399,-0.012,0.996,-0.069,-1.251,-1.831,0.641,73.333,749782.000,1.000
2.669,8.357,8.008,10.111,8.043,13.659,10.229,8.459,-0.011,0.997,-0.071,-1.190,-1.892,0.793,73.333,749783.000,1.000
3.889,7.640,7.089,9.429,7.511,11.498,7.925,7.967,-0.011,0.996,-0.070,-1.221,-1.831,0.793,73.333,749784.000,1.000
4.995,5.833,4.855,7.604,4.678,5.200,0.277,4.649,-0.012,0.994,-0.071,-1.160,-1.892,0.854,73.333,749785.000,1.000
5.849,3.440,1.860,5.291,0.619,-2.549,-9.267,0.210,-0.013,0.995,-0.072,-1.129,-1.801,0.824,73.333,749786.000,1.000
6.522,1.470,-0.908,3.650,-2.562,-8.255,-15.668,-2.326,-0.013,0.994,-0.071,-1.038,-1.831,0.854,73.333,749787.000,1.000
7.229,0.908,-2.468,3.499,-3.139,-9.261,-15.449,-1.203,-0.014,0.995,-0.073,-0.977,-1.709,0.763,73.333,749788.000,1.000
7.978,2.145,-2.428,4.593,-0.946,-4.510,-8.498,2.323,-0.013,0.994,-0.072,-0.916,-1.892,0.885,73.333,749789.000,1.000
8.378,4.585,-1.326,5.777,2.475,4.462,1.847,5.142,-0.013,0.994,-0.071,-1.038,-1.862,0.977,73.333,749790.000,1.000
7.828,6.658,-0.547,5.707,4.559,12.681,9.810,4.739,-0.013,0.996,-0.071,-0.946,-1.801,0.946,73.333,749791.000,1.000
6.040,6.733,-1.340,3.726,3.368,14.432,10.683,0.900,-0.013,0.995,-0.070,-0.885,-1.892,1.068,73.333,749792.000,1.000
3.439,4.452,-3.716,0.443,-0.685,8.459,5.056,-4.208,-0.012,0.994,-0.070,-0.885,-1.892,1.068,73.333,749793.000,1.000
0.893,0.992,-6.388,-2.639,-5.076,-0.815,-1.727,-7.651,-0.012,0.994,-0.068,-0.977,-1.801,0.946,73.333,749794.000,1.000
-0.976,-2.016,-7.851,-4.253,-7.285,-7.531,-4.867,-7.720,-0.013,0.994,-0.069,-1.099,-1.862,0.885,73.333,749795.000,1.000
-2.192,-3.662,-7.616,-4.277,-6.624,-8.857,-3.881,-4.878,-0.011,0.993,-0.069,-0.946,-1.862,0.824,73.333,749796.000,1.000
-3.248,-4.062,-6.423,-3.704,-4.381,-5.990,-1.716,-1.332,-0.014,0.994,-0.069,-1.038,-1.770,0.854,73.333,749797.000,1.000
-4.584,-3.882,-5.491,-3.750,-2.510,-2.314,-1.608,0.566,-0.015,0.993,-0.071,-1.068,-1.831,0.732,73.333,749798.000,1.000
-6.095,-3.564,-5.432,-4.780,-1.912,-0.409,-4.061,0.162,-0.014,0.993,-0.071,-1.038,-1.892,0.671,73.333,749799.000,1.000
-7.117,-2.940,-5.737,-5.945,-1.766,-0.128,-6.073,-0.993,-0.013,0.993,-0.074,-0.946,-1.831,0.671,73.333,749800.000,1.000
-7.017,-1.683,-5.453,-5.957,-0.644,0.330,-4.271,-0.605,-0.015,0.995,-0.072,-0.946,-1.801,0.702,73.333,749801.000,1.000
-5.794,-0.009,-4.159,-4.266,1.805,1.837,1.159,2.195,-0.014,0.995,-0.069,-0.916,-1.862,0.702,73.333,749802.000,1.000
-4.113,1.218,-2.419,-1.549,4.338,3.225,6.200,5.976,-0.012,0.993,-0.069,-0.977,-1.862,0.610,73.333,749803.000,1.000
-2.836,1.088,-1.378,0.816,5.137,2.445,6.437,8.239,-0.010,0.995,-0.070,-1.038,-1.740,0.488,73.333,749804.000,1.000
-2.445,-0.530,-1.784,1.789,3.398,-1.107,0.870,7.508,-0.011,0.992,-0.069,-1.068,-1.831,0.519,73.333,749805.000,1.000
-2.835,-2.718,-3.411,1.246,-0.014,-5.536,-7.360,4.235,-0.011,0.993,-0.072,-1.007,-1.801,0.458,73.333,749806.000,1.000
-3.642,-4.206,-5.349,-0.280,-3.373,-7.971,-13.494,0.037,-0.015,0.993,-0.072,-0.977,-1.831,0.366,73.333,749807.000,1.000
-4.530,-4.180,-6.690,-2.047,-5.166,-6.704,-14.043,-3.305,-0.013,0.994,-0.068,-0.946,-1.831,0.336,73.333,749808.000,1.000
-5.161,-2.580,-6.904,-3.335,-4.718,-2.171,-8.723,-4.444,-0.014,0.993,-0.066,-0.916,-1.831,0.336,73.333,749809.000,1.000
-5.231,-0.072,-5.979,-3.771,-2.592,3.160,-1.032,-3.262,-0.014,0.995,-0.066,-1.038,-1.740,0.336,73.333,749810.000,1.000
-4.601,2.332,-4.382,-3.509,-0.215,6.431,4.213,-1.068,-0.014,0.995,-0.065,-1.068,-1.801,0.397,73.333,749811.000,1.000
-3.361,3.848,-2.704,-3.007,1.151,6.447,4.685,0.439,-0.014,0.997,-0.067,-1.007,-1.862,0.458,73.333,749812.000,1.000
-1.909,4.079,-1.543,-2.776,0.905,3.722,1.317,0.161,-0.015,0.997,-0.071,-0.977,-1.770,0.397,73.333,749813.000,1.000
-0.802,3.030,-1.319,-3.082,-0.802,-0.543,-3.430,-1.937,-0.015,0.997,-0.072,-1.068,-1.709,0.366,73.333,749814.000,1.000
-0.299,1.403,-1.766,-3.542,-2.797,-4.393,-6.609,-4.565,-0.015,0.998,-0.071,-1.099,-1.709,0.397,73.333,749815.000,1.000
-0.190,0.489,-1.968,-3.275,-3.170,-4.938,-5.295,-5.615,-0.014,0.998,-0.072,-1.160,-1.709,0.458,73.333,749816.000,1.000
-0.307,1.028,-1.275,-1.855,-0.848,-0.459,1.444,-3.723,-0.013,0.996,-0.069,-1.221,-1.709,0.427,73.333,749817.000,1.000
-1.016,2.117,-0.268,-0.077,2.860,6.664,10.230,0.315,-0.013,0.998,-0.067,-1.343,-1.678,0.519,73.333,749818.000,1.000
-2.721,2.071,-0.125,0.819,5.397,11.448,15.717,4.419,-0.015,0.999,-0.068,-1.251,-1.648,0.549,73.333,749819.000,1.000
-4.939,0.433,-0.990,0.605,5.761,11.501,16.141,7.443,-0.015,0.998,-0.069,-1.282,-1.587,0.580,73.333,749820.000,1.000
-6.538,-1.760,-1.918,0.027,4.886,8.313,13.779,9.223,-0.015,0.998,-0.069,-1.282,-1.556,0.641,73.333,749821.000,1.000
-6.825,-3.441,-2.128,-0.340,3.724,4.019,10.878,9.258,-0.015,0.997,-0.070,-1.434,-1.465,0.763,73.333,749822.000,1.000
-5.956,-4.310,-1.565,-0.424,2.475,-0.490,7.904,7.212,-0.015,0.997,-0.068,-1.526,-1.465,0.763,73.333,749823.000,1.000
-4.555,-4.602,-0.563,-0.312,1.066,-5.124,4.328,3.889,-0.014,0.996,-0.071,-1.587,-1.465,0.824,73.333,749824.000,1.000
-3.286,-4.810,0.401,-0.261,-0.765,-10.116,-0.856,0.316,-0.015,0.997,-0.072,-1.556,-1.373,0.885,73.333,749825.000,1.000
-2.541,-5.368,0.939,-0.580,-3.193,-15.405,-8.075,-3.014,-0.015,0.995,-0.067,-1.587,-1.343,0.977,73.333,749826.000,1.000
-2.206,-6.087,1.290,-1.031,-5.370,-19.532,-14.999,-5.117,-0.014,0.994,-0.067,-1.526,-1.312,1.007,73.333,749827.000,1.000
-1.810,-6.145,2.147,-0.866,-5.582,-19.719,-16.942,-4.635,-0.012,0.995,-0.069,-1.434,-1.160,1.129,73.333,749828.000,1.000
-1.062,-5.057,3.625,0.137,-3.172,-14.499,-11.649,-1.962,-0.012,0.994,-0.072,-1.465,-1.251,1.221,73.333,749829.000,1.000
-0.164,-3.444,4.844,1.261,0.382,-6.131,-2.459,0.515,-0.012,0.994,-0.069,-1.465,-1.251,1.312,73.333,749830.000,1.000
0.495,-2.399,4.885,1.805,3.075,1.189,5.213,1.256,-0.013,0.996,-0.068,-1.312,-1.190,1.251,73.333,749831.000,1.000
0.767,-2.395,3.838,1.892,4.234,4.959,8.728,1.213,-0.012,0.995,-0.068,-1.251,-1.129,1.282,73.333,749832.000,1.000
0.716,-3.256,2.422,1.978,4.196,4.923,8.227,2.029,-0.012,0.995,-0.071,-1.190,-1.068,1.251,73.333,749833.000,1.000
0.422,-4.634,1.135,2.086,3.290,1.871,4.854,3.860,-0.012,0.996,-0.070,-1.190,-1.099,1.312,73.333,749834.000,1.000
-0.018,-6.145,0.170,1.855,1.776,-2.522,0.427,5.412,-0.013,0.996,-0.068,-1.129,-0.977,1.343,73.333,749835.000,1.000
-0.399,-7.355,-0.304,1.111,0.154,-5.976,-2.885,5.437,-0.014,0.995,-0.067,-1.129,-1.007,1.373,73.333,749836.000,1.000
-0.346,-7.738,0.118,0.299,-0.770,-6.595,-3.440,3.992,-0.013,0.995,-0.067,-1.099,-0.946,1.282,73.333,749837.000,1.000
0.451,-6.884,1.749,0.141,-0.364,-3.909,-1.214,2.037,-0.014,0.996,-0.069,-1.160,-0.885,1.282,73.333,749838.000,1.000
1.763,-5.032,4.167,0.829,1.107,0.501,1.896,0.207,-0.014,0.994,-0.070,-1.068,-0.854,1.282,73.333,749839.000,1.000
2.790,-3.087,6.349,1.877,2.733,3.901,3.866,-1.104,-0.014,0.995,-0.070,-1.007,-0.732,1.190,73.333,749840.000,1.000
2.793,-1.813,7.482,2.657,3.899,4.712,4.482,-1.220,-0.013,0.995,-0.068,-1.038,-0.702,1.068,73.333,749841.000,1.000
1.672,-1.237,7.485,2.727,4.514,3.748,4.772,-0.080,-0.012,0.996,-0.069,-1.129,-0.763,1.099,73.333,749842.000,1.000
0.014,-0.861,6.768,1.952,4.710,3.059,5.550,1.346,-0.013,0.997,-0.068,-1.129,-0.793,1.068,73.333,749843.000,1.000
-1.270,-0.150,5.936,0.816,4.974,4.244,7.655,2.725,-0.012,0.997,-0.068,-1.190,-0.732,1.129,73.333,749844.000,1.000
-1.460,1.106,5.584,0.251,6.002,7.556,11.781,5.109,-0.012,0.997,-0.065,-1.221,-0.732,1.038,73.333,749845.000,1.000
-0.598,2.356,5.715,0.600,7.487,11.054,16.189,8.747,-0.013,0.996,-0.066,-1.282,-0.732,1.068,73.333,749846.000,1.000
0.398,2.383,5.520,0.959,7.562,11.027,16.568,11.272,-0.014,0.998,-0.070,-1.221,-0.702,1.129,73.333,749847.000,1.000
0.471,0.476,4.166,0.104,4.656,5.520,10.502,9.800,-0.015,0.998,-0.069,-1.312,-0.610,1.068,73.333,749848.000,1.000
-0.665,-2.595,1.776,-2.096,-0.361,-2.690,1.021,4.493,-0.014,0.995,-0.069,-1.312,-0.549,1.129,73.333,749849.000,1.000
-2.451,-5.253,-0.718,-4.661,-4.848,-8.214,-5.800,-1.529,-0.015,0.995,-0.068,-1.312,-0.641,1.099,73.333,749850.000,1.000
-4.045,-6.512,-2.552,-6.610,-6.894,-7.845,-6.281,-5.468,-0.014,0.994,-0.065,-1.404,-0.580,0.977,73.333,749851.000,1.000
-4.846,-6.575,-3.628,-7.624,-6.701,-3.176,-2.139,-6.684,-0.014,0.994,-0.067,-1.373,-0.610,0.916,73.333,749852.000,1.000
-4.784,-6.435,-4.431,-7.996,-6.010,0.750,1.307,-5.987,-0.012,0.993,-0.069,-1.312,-0.427,0.946,73.333,749853.000,1.000
-4.313,-6.987,-5.611,-8.331,-6.597,-0.306,-0.119,-4.808,-0.013,0.994,-0.067,-1.251,-0.519,0.977,73.333,749854.000,1.000
-4.072,-8.414,-7.513,-9.205,-9.171,-6.553,-6.624,-4.899,-0.013,0.993,-0.066,-1.160,-0.458,1.038,73.333,749855.000,1.000
-4.437,-10.229,-9.955,-10.765,-13.108,-14.776,-15.108,-7.225,-0.012,0.992,-0.066,-1.251,-0.488,1.099,73.333,749856.000,1.000
-5.184,-11.605,-12.121,-12.414,-16.645,-20.870,-20.884,-10.545,-0.013,0.993,-0.069,-1.160,-0.366,1.160,73.333,749857.000,1.000
-5.533,-11.674,-12.931,-13.015,-17.641,-21.766,-19.912,-11.913,-0.012,0.994,-0.066,-1.038,-0.397,1.129,73.333,749858.000,1.000
-4.715,-9.996,-11.814,-11.757,-15.108,-16.854,-11.843,-9.440,-0.013,0.997,-0.066,-1.038,-0.427,1.099,73.333,749859.000,1.000
-2.611,-6.980,-9.195,-8.971,-10.300,-8.652,-1.017,-4.451,-0.012,0.995,-0.067,-0.977,-0.458,1.160,73.333,749860.000,1.000
0.211,-3.611,-6.114,-5.866,-5.791,-1.240,6.827,-0.383,-0.011,0.995,-0.068,-0.916,-0.397,1.160,73.333,749861.000,1.000
3.063,-0.673,-3.309,-3.458,-3.315,2.713,8.986,0.313,-0.014,0.994,-0.067,-0.916,-0.366,1.129,73.333,749862.000,1.000
5.543,1.634,-0.926,-2.004,-2.786,3.433,6.772,-2.234,-0.014,0.995,-0.069,-0.916,-0.366,1.221,73.333,749863.000,1.000
7.458,3.412,1.112,-1.261,-3.105,2.741,3.010,-6.075,-0.014,0.996,-0.069,-0.885,-0.397,1.221,73.333,749864.000,1.000
8.722,4.739,2.855,-0.825,-3.271,1.851,-0.290,-8.749,-0.014,0.997,-0.069,-1.129,-0.427,1.099,73.333,749865.000,1.000
9.380,5.672,4.279,-0.305,-2.703,0.955,-2.011,-8.306,-0.013,0.997,-0.066,-1.221,-0.427,1.099,73.333,749866.000,1.000
9.533,6.339,5.284,0.438,-1.246,0.383,-1.411,-4.488,-0.012,0.998,-0.067,-1.190,-0.458,1.007,73.333,749867.000,1.000
9.297,6.938,5.768,1.259,0.861,1.137,1.612,0.952,-0.014,0.999,-0.066,-1.282,-0.488,1.068,73.333,749868.000,1.000
8.916,7.701,5.862,2.076,3.278,4.028,6.406,5.825,-0.014,0.999,-0.067,-1.373,-0.549,1.099,73.333,749869.000,1.000
8.732,8.723,5.903,2.941,5.679,8.448,11.536,8.967,-0.012,1.000,-0.067,-1.373,-0.580,1.068,73.333,749870.000,1.000
8.946,9.816,6.018,3.699,7.489,12.467,14.709,9.808,-0.013,1.001,-0.068,-1.404,-0.580,1.129,73.333,749871.000,1.000
9.514,10.718,6.078,3.992,8.056,14.303,13.849,7.858,-0.011,1.002,-0.068,-1.495,-0.580,1.129,73.333,749872.000,1.000
10.292,11.427,6.073,3.762,7.420,13.851,9.140,3.480,-0.009,1.002,-0.068,-1.556,-0.519,1.160,73.333,749873.000,1.000
11.145,12.233,6.307,3.435,6.515,12.664,3.347,-1.684,-0.008,1.002,-0.069,-1.740,-0.397,1.160,73.333,749874.000,1.000
11.875,13.300,7.012,3.497,6.252,11.986,-0.657,-5.657,-0.008,1.001,-0.069,-1.740,-0.397,1.129,73.333,749875.000,1.000
12.179,14.362,7.906,4.094,6.715,11.369,-2.160,-7.158,-0.009,1.001,-0.068,-1.801,-0.336,1.221,73.333,749876.000,1.000
11.791,14.937,8.428,5.073,7.381,9.782,-2.173,-5.890,-0.009,0.998,-0.068,-1.831,-0.336,1.221,73.333,749877.000,1.000
10.652,14.747,8.268,6.189,7.815,7.316,-1.492,-2.331,-0.009,0.998,-0.066,-1.831,-0.366,1.190,73.333,749878.000,1.000
8.934,13.873,7.570,7.215,8.003,5.212,0.239,2.549,-0.008,0.996,-0.065,-1.862,-0.366,1.251,73.333,749879.000,1.000
6.866,12.494,6.586,7.859,7.998,4.569,3.479,7.305,-0.007,0.995,-0.066,-1.740,-0.366,1.343,73.333,749880.000,1.000
4.535,10.578,5.214,7.711,7.523,5.371,7.442,10.176,-0.007,0.994,-0.065,-1.648,-0.305,1.404,73.333,749881.000,1.000
1.885,7.921,3.109,6.379,6.080,6.386,10.177,9.824,-0.007,0.992,-0.064,-1.556,-0.244,1.465,73.333,749882.000,1.000
-1.119,4.458,0.136,3.710,3.341,5.801,9.663,5.949,-0.010,0.990,-0.066,-1.495,-0.244,1.556,73.333,749883.000,1.000
-4.305,0.562,-3.250,0.029,-0.513,2.326,4.768,-0.540,-0.010,0.990,-0.066,-1.312,-0.275,1.587,73.333,749884.000,1.000
-7.284,-3.024,-6.110,-3.764,-4.728,-4.046,-4.174,-7.570,-0.010,0.989,-0.067,-1.190,-0.336,1.678,73.333,749885.000,1.000
-9.550,-5.444,-7.579,-6.432,-8.064,-11.505,-14.437,-12.353,-0.010,0.989,-0.067,-1.038,-0.488,1.770,73.333,749886.000,1.000
-10.559,-5.974,-7.213,-6.920,-9.081,-16.467,-20.983,-12.524,-0.011,0.989,-0.063,-0.824,-0.549,1.801,73.333,749887.000,1.000
-9.981,-4.494,-5.243,-5.065,-7.136,-15.801,-19.888,-7.735,-0.012,0.990,-0.061,-0.610,-0.427,1.740,73.333,749888.000,1.000
-8.070,-1.887,-2.647,-2.000,-3.368,-9.682,-12.089,-0.568,-0.011,0.992,-0.063,-0.610,-0.549,1.892,73.333,749889.000,1.000
-5.535,0.434,-0.592,0.470,-0.083,-1.522,-2.528,4.788,-0.012,0.994,-0.063,-0.488,-0.549,1.801,73.333,749890.000,1.000
-2.951,1.604,0.381,1.248,1.192,4.938,4.354,5.746,-0.012,0.994,-0.065,-0.427,-0.641,1.740,73.333,749891.000,1.000
-0.423,1.906,0.752,0.734,0.908,8.275,7.757,3.359,-0.015,0.995,-0.065,-0.519,-0.732,1.770,73.333,749892.000,1.000
2.148,2.247,1.416,0.176,0.639,9.433,9.445,0.702,-0.013,0.997,-0.063,-0.427,-0.916,1.740,73.333,749893.000,1.000
4.596,3.087,2.670,0.301,1.192,9.716,10.606,-0.669,-0.014,0.999,-0.064,-0.458,-1.007,1.648,73.333,749894.000,1.000
6.440,4.000,3.949,0.751,1.812,9.179,10.313,-1.922,-0.014,0.998,-0.064,-0.458,-1.129,1.648,73.333,749895.000,1.000
7.347,4.244,4.521,0.801,1.256,6.875,6.638,-4.571,-0.014,0.996,-0.066,-0.549,-1.160,1.465,73.333,749896.000,1.000
7.575,3.680,4.351,0.403,-0.526,2.878,-0.468,-7.924,-0.011,0.992,-0.065,-0.610,-1.190,1.373,73.333,749897.000,1.000
7.897,3.092,4.118,0.364,-1.992,-0.456,-7.550,-9.444,-0.009,0.993,-0.062,-0.702,-1.312,1.343,73.333,749898.000,1.000
8.964,3.333,4.384,1.424,-1.571,-0.799,-10.233,-7.152,-0.005,0.991,-0.063,-0.641,-1.343,1.434,73.333,749899.000,1.000
10.663,4.191,4.886,3.264,0.447,0.770,-7.814,-1.652,-0.003,0.989,-0.065,-0.641,-1.373,1.434,73.333,749900.000,1.000
12.226,4.489,4.757,4.609,1.990,0.462,-4.069,3.962,-0.001,0.987,-0.064,-0.580,-1.343,1.434,73.333,749901.000,1.000
12.981,3.349,3.546,4.391,1.234,-4.056,-3.239,6.387,-0.003,0.990,-0.064,-0.519,-1.282,1.495,73.333,749902.000,1.000
12.869,1.043,1.663,2.660,-1.809,-11.234,-6.378,4.482,-0.005,0.991,-0.064,-0.336,-1.312,1.465,73.333,749903.000,1.000
12.270,-1.253,-0.047,0.478,-5.445,-16.858,-11.062,-0.168,-0.006,0.993,-0.065,-0.336,-1.160,1.495,73.333,749904.000,1.000
11.590,-2.227,-0.863,-0.799,-7.478,-16.991,-13.261,-4.317,-0.006,0.992,-0.068,-0.244,-1.190,1.434,73.333,749905.000,1.000
11.016,-1.227,-0.554,-0.375,-6.588,-10.764,-10.231,-5.074,-0.005,0.995,-0.070,-0.275,-1.251,1.556,73.333,749906.000,1.000
10.456,1.298,0.567,1.377,-3.314,-1.249,-2.860,-2.076,-0.004,0.994,-0.072,-0.183,-1.190,1.587,73.333,749907.000,1.000
9.599,3.972,1.782,3.077,0.121,6.379,4.451,1.989,-0.003,0.994,-0.072,-0.092,-1.099,1.556,73.333,749908.000,1.000
8.187,5.366,2.439,3.451,1.505,8.388,7.138,3.724,-0.001,0.993,-0.070,-0.092,-1.129,1.465,73.333,749909.000,1.000
6.412,5.136,2.607,2.544,0.710,5.582,4.925,2.302,-0.005,0.993,-0.070,-0.092,-1.099,1.556,73.333,749910.000,1.000
4.897,4.213,3.019,1.660,-0.219,2.525,2.082,0.049,-0.006,0.996,-0.070,-0.122,-0.977,1.495,73.333,749911.000,1.000
4.052,3.599,4.139,1.939,0.592,2.576,2.249,-0.131,-0.010,0.999,-0.069,-0.061,-0.977,1.404,73.333,749912.000,1.000
3.664,3.434,5.467,3.238,2.978,4.831,4.693,2.534,-0.011,1.000,-0.070,-0.092,-1.038,1.282,73.333,749913.000,1.000
3.215,3.437,6.062,4.445,5.398,6.654,6.623,6.225,-0.014,0.999,-0.070,-0.183,-1.129,1.038,73.333,749914.000,1.000
2.342,3.554,5.480,4.517,6.554,7.114,6.827,8.127,-0.014,1.002,-0.069,-0.122,-1.282,0.916,73.333,749915.000,1.000
0.925,3.773,3.903,3.158,6.033,6.818,5.818,6.600,-0.012,1.004,-0.068,-0.366,-1.282,0.763,73.333,749916.000,1.000
-0.988,3.749,1.778,0.863,4.049,5.893,4.181,2.311,-0.010,1.004,-0.069,-0.458,-1.404,0.641,73.333,749917.000,1.000
-3.148,2.968,-0.510,-1.482,1.161,3.627,2.104,-2.408,-0.010,1.006,-0.070,-0.580,-1.495,0.519,73.333,749918.000,1.000
-5.070,1.317,-2.698,-3.090,-1.694,0.265,0.331,-5.149,-0.009,1.007,-0.073,-0.763,-1.556,0.366,73.333,749919.000,1.000
-6.263,-0.701,-4.617,-3.667,-3.445,-2.050,0.328,-4.938,-0.008,1.007,-0.071,-0.763,-1.526,0.092,73.333,749920.000,1.000
-6.620,-2.542,-6.378,-3.643,-3.852,-1.653,2.350,-3.008,-0.008,1.006,-0.071,-0.977,-1.556,0.031,73.333,749921.000,1.000
-6.502,-4.151,-8.258,-3.850,-3.863,0.273,4.472,-1.796,-0.006,1.005,-0.072,-0.977,-1.556,-0.031,73.333,749922.000,1.000
-6.309,-5.652,-10.213,-4.658,-4.407,1.214,4.686,-2.564,-0.006,1.003,-0.070,-1.190,-1.587,-0.061,73.333,749923.000,1.000
-6.087,-6.943,-11.706,-5.612,-5.437,-0.260,2.569,-4.278,-0.006,1.002,-0.068,-1.129,-1.587,-0.061,73.333,749924.000,1.000
-5.664,-7.927,-12.234,-6.116,-6.570,-4.356,-1.684,-5.316,-0.006,1.001,-0.064,-1.282,-1.373,-0.031,73.333,749925.000,1.000
-5.001,-8.651,-11.858,-6.181,-7.808,-10.111,-7.761,-5.725,-0.007,0.997,-0.064,-1.343,-1.373,0.000,73.333,749926.000,1.000
-4.293,-9.037,-10.997,-6.272,-9.151,-14.921,-14.122,-6.954,-0.007,0.995,-0.066,-1.343,-1.251,0.031,73.333,749927.000,1.000
-3.780,-8.873,-10.045,-6.646,-10.151,-15.959,-18.267,-9.703,-0.007,0.995,-0.067,-1.160,-1.221,0.061,73.333,749928.000,1.000
-3.549,-8.098,-9.125,-7.007,-10.184,-12.680,-18.589,-12.752,-0.010,0.995,-0.064,-1.190,-1.129,0.061,73.333,749929.000,1.000
-3.483,-6.859,-7.988,-6.771,-8.902,-7.167,-15.196,-13.946,-0.009,0.994,-0.064,-1.007,-1.129,0.183,73.333,749930.000,1.000
-3.336,-5.329,-6.224,-5.585,-6.357,-2.019,-9.225,-11.995,-0.010,0.992,-0.067,-0.824,-1.099,0.092,73.333,749931.000,1.000
-2.803,-3.586,-3.597,-3.544,-2.870,1.628,-1.870,-7.175,-0.011,0.991,-0.067,-0.763,-1.221,0.183,73.333,749932.000,1.000
-1.653,-1.702,-0.356,-1.032,1.059,4.064,5.877,-0.771,-0.013,0.993,-0.066,-0.763,-1.221,0.244,73.333,749933.000,1.000
0.023,0.073,2.774,1.442,4.704,5.747,12.764,5.575,-0.013,0.995,-0.066,-0.610,-1.160,0.183,73.333,749934.000,1.000
1.720,1.347,5.014,3.365,7.272,6.762,17.212,10.221,-0.012,0.995,-0.065,-0.519,-1.251,0.366,73.333,749935.000,1.000
2.803,1.926,6.015,4.431,8.390,7.330,18.445,12.079,-0.012,0.994,-0.070,-0.397,-1.251,0.427,73.333,749936.000,1.000
2.938,2.027,6.071,4.713,8.376,8.031,17.317,11.209,-0.014,0.994,-0.067,-0.366,-1.343,0.580,73.333,749937.000,1.000
2.220,1.969,5.736,4.458,7.730,9.007,15.106,8.552,-0.013,0.991,-0.068,-0.458,-1.404,0.519,73.333,749938.000,1.000
0.976,1.714,5.299,3.775,6.544,9.372,12.158,5.137,-0.014,0.990,-0.065,-0.366,-1.434,0.610,73.333,749939.000,1.000
-0.401,0.945,4.707,2.724,4.734,7.995,8.553,1.902,-0.015,0.990,-0.066,-0.244,-1.434,0.610,73.333,749940.000,1.000
-1.466,-0.427,3.815,1.620,2.608,4.806,5.193,-0.155,-0.015,0.990,-0.066,-0.183,-1.404,0.702,73.333,749941.000,1.000
-1.804,-1.999,2.691,0.933,0.811,1.083,3.399,-0.539,-0.015,0.989,-0.067,-0.092,-1.495,0.732,73.333,749942.000,1.000
-1.301,-3.189,1.635,0.836,-0.259,-1.446,3.806,0.025,-0.012,0.990,-0.067,-0.061,-1.495,0.732,73.333,749943.000,1.000
-0.275,-3.729,0.963,1.046,-0.730,-1.838,5.938,0.189,-0.010,0.990,-0.067,0.031,-1.526,0.763,73.333,749944.000,1.000
0.720,-3.856,0.781,1.146,-1.059,-0.590,8.422,-0.678,-0.011,0.990,-0.068,0.092,-1.434,0.854,73.333,749945.000,1.000
1.195,-4.101,0.845,0.925,-1.642,0.817,9.715,-2.043,-0.010,0.990,-0.067,0.031,-1.434,0.977,73.333,749946.000,1.000
0.841,-4.989,0.692,0.395,-2.653,0.704,8.804,-2.898,-0.010,0.991,-0.071,0.092,-1.495,0.946,73.333,749947.000,1.000
-0.502,-6.843,-0.107,-0.420,-4.227,-2.335,5.068,-2.870,-0.009,0.992,-0.072,0.061,-1.526,1.038,73.333,749948.000,1.000
-2.639,-9.434,-1.482,-1.461,-6.317,-8.445,-1.169,-2.460,-0.007,0.991,-0.071,0.061,-1.495,1.129,73.333,749949.000,1.000
-4.824,-11.755,-2.679,-2.404,-8.326,-15.621,-7.732,-2.257,-0.008,0.992,-0.069,0.122,-1.373,1.160,73.333,749950.000,1.000
-6.162,-12.638,-3.018,-2.894,-9.601,-20.983,-12.355,-2.691,-0.005,0.992,-0.068,0.122,-1.343,1.282,73.333,749951.000,1.000
-6.319,-11.640,-2.552,-2.894,-10.123,-22.944,-14.931,-4.096,-0.007,0.995,-0.069,0.031,-1.190,1.434,73.333,749952.000,1.000
-5.566,-9.128,-1.725,-2.484,-10.143,-21.550,-16.462,-6.175,-0.007,0.996,-0.067,-0.031,-1.007,1.434,73.333,749953.000,1.000
-4.247,-5.767,-0.706,-1.589,-9.580,-17.579,-16.964,-7.846,-0.007,0.996,-0.069,-0.061,-0.946,1.495,73.333,749954.000,1.000
-2.473,-2.202,0.630,-0.073,-8.038,-12.040,-15.403,-7.711,-0.006,0.995,-0.070,0.061,-1.038,1.495,73.333,749955.000,1.000
-0.299,0.990,2.273,2.049,-5.215,-6.056,-10.966,-4.678,-0.008,0.996,-0.067,0.031,-1.038,1.404,73.333,749956.000,1.000
1.984,3.297,3.913,4.414,-1.470,-0.834,-4.311,0.923,-0.007,0.996,-0.064,0.000,-1.129,1.434,73.333,749957.000,1.000
3.804,4.345,5.064,6.287,1.966,2.389,2.081,6.818,-0.008,0.998,-0.068,-0.031,-1.068,1.495,73.333,749958.000,1.000
4.566,4.090,5.378,7.007,3.775,2.808,5.330,10.413,-0.009,0.996,-0.071,-0.244,-1.129,1.434,73.333,749959.000,1.000
4.000,2.874,4.888,6.485,3.583,0.715,4.273,10.867,-0.011,0.997,-0.069,-0.397,-1.038,1.495,73.333,749960.000,1.000
2.383,1.231,3.888,5.142,2.025,-2.417,-0.010,8.922,-0.008,0.996,-0.070,-0.427,-0.977,1.526,73.333,749961.000,1.000
0.517,-0.249,2.840,3.602,0.177,-4.466,-5.039,5.599,-0.009,0.997,-0.067,-0.397,-0.885,1.404,73.333,749962.000,1.000
-0.553,-0.893,2.351,2.587,-0.769,-3.590,-7.962,2.128,-0.010,0.997,-0.068,-0.519,-0.824,1.404,73.333,749963.000,1.000
-0.032,-0.094,3.029,2.814,0.306,0.721,-6.534,0.523,-0.010,0.998,-0.069,-0.671,-0.885,1.221,73.333,749964.000,1.000
2.129,2.279,5.150,4.664,3.899,7.101,-0.271,2.930,-0.010,0.998,-0.069,-0.641,-0.885,1.190,73.333,749965.000,1.000
4.997,5.372,8.109,7.620,9.023,12.456,8.237,9.609,-0.010,0.998,-0.069,-0.732,-0.885,1.129,73.333,749966.000,1.000
6.974,7.440,10.371,10.090,13.111,13.427,13.912,17.477,-0.011,0.999,-0.069,-0.885,-0.885,1.068,73.333,749967.000,1.000
6.695,6.895,10.307,10.183,13.477,8.943,12.773,21.234,-0.011,0.999,-0.065,-1.038,-0.946,1.007,73.333,749968.000,1.000
3.883,3.433,7.356,7.033,9.234,1.164,5.121,16.981,-0.012,1.000,-0.069,-1.068,-0.977,0.916,73.333,749969.000,1.000
-0.437,-1.664,2.552,1.645,2.093,-6.103,-4.680,5.632,-0.013,0.998,-0.068,-1.129,-1.068,0.763,73.333,749970.000,1.000
-4.519,-6.173,-2.064,-3.556,-4.466,-9.283,-10.818,-7.190,-0.012,0.997,-0.067,-1.373,-1.068,0.702,73.333,749971.000,1.000
-7.020,-8.309,-4.743,-6.379,-7.419,-6.784,-9.767,-15.148,-0.010,0.992,-0.068,-1.343,-1.099,0.641,73.333,749972.000,1.000
-7.849,-8.011,-5.198,-6.362,-6.364,-0.815,-3.234,-15.473,-0.009,0.992,-0.067,-1.251,-1.099,0.519,73.333,749973.000,1.000
-7.904,-6.676,-4.433,-4.700,-3.435,3.742,3.064,-10.016,-0.008,0.990,-0.068,-1.282,-1.099,0.549,73.333,749974.000,1.000
-8.018,-5.585,-3.512,-2.932,-1.118,3.748,4.245,-3.155,-0.009,0.990,-0.068,-1.221,-1.099,0.549,73.333,749975.000,1.000
-8.296,-4.924,-2.794,-1.855,-0.439,0.188,-0.211,1.204,-0.007,0.990,-0.068,-1.343,-1.038,0.641,73.333,749976.000,1.000
-8.311,-4.210,-2.077,-1.369,-0.937,-4.131,-7.100,1.676,-0.007,0.991,-0.069,-1.251,-1.068,0.671,73.333,749977.000,1.000
-7.662,-3.124,-1.129,-0.929,-1.626,-7.576,-12.577,-0.435,-0.008,0.992,-0.070,-1.129,-1.007,0.671,73.333,749978.000,1.000
-6.329,-1.773,0.055,-0.107,-1.784,-9.885,-14.611,-2.761,-0.009,0.992,-0.067,-1.007,-1.007,0.610,73.333,749979.000,1.000
-4.708,-0.493,1.264,1.036,-1.290,-10.873,-13.566,-4.001,-0.009,0.989,-0.069,-1.068,-1.007,0.671,73.333,749980.000,1.000
-3.303,0.464,2.229,2.082,-0.350,-9.878,-10.823,-4.311,-0.009,0.989,-0.069,-0.977,-1.038,0.732,73.333,749981.000,1.000
-2.329,1.121,2.918,2.784,0.983,-6.408,-7.138,-4.030,-0.010,0.988,-0.067,-0.885,-0.946,0.671,73.333,749982.000,1.000
-1.676,1.610,3.473,3.223,2.648,-1.308,-2.945,-3.179,-0.011,0.990,-0.068,-0.702,-0.916,0.702,73.333,749983.000,1.000
-1.167,2.022,3.983,3.569,4.322,3.389,0.857,-1.901,-0.015,0.991,-0.067,-0.702,-1.007,0.641,73.333,749984.000,1.000
-0.653,2.489,4.511,3.965,5.669,6.076,3.360,-0.547,-0.015,0.993,-0.067,-0.824,-1.099,0.549,73.333,749985.000,1.000
-0.021,3.173,5.081,4.467,6.579,6.621,4.327,0.581,-0.015,0.994,-0.069,-0.732,-1.282,0.458,73.333,749986.000,1.000
0.696,4.077,5.617,4.923,7.134,6.160,4.428,1.403,-0.014,0.995,-0.068,-0.793,-1.251,0.366,73.333,749987.000,1.000
1.205,4.979,5.876,5.007,7.563,6.437,4.896,2.077,-0.014,0.997,-0.067,-0.763,-1.282,0.366,73.333,749988.000,1.000
1.114,5.637,5.613,4.556,8.218,8.944,6.862,3.158,-0.014,1.000,-0.069,-0.885,-1.282,0.244,73.333,749989.000,1.000
0.205,5.946,4.825,3.800,9.385,13.781,10.787,5.429,-0.014,1.004,-0.071,-0.824,-1.404,0.305,73.333,749990.000,1.000
-1.451,5.804,3.641,3.021,10.825,19.013,15.796,8.767,-0.012,1.004,-0.068,-0.946,-1.404,0.305,73.333,749991.000,1.000
-3.552,4.980,2.131,2.162,11.581,21.454,19.256,11.432,-0.010,1.002,-0.067,-1.068,-1.495,0.366,73.333,749992.000,1.000
-5.645,3.350,0.407,1.070,10.739,18.948,18.266,11.629,-0.010,1.003,-0.069,-1.282,-1.526,0.336,73.333,749993.000,1.000
-7.209,1.296,-1.090,0.024,8.581,12.587,12.751,9.717,-0.009,1.002,-0.069,-1.312,-1.434,0.336,73.333,749994.000,1.000
-7.913,-0.475,-1.832,-0.482,6.320,5.984,5.858,7.546,-0.008,1.001,-0.069,-1.312,-1.465,0.397,73.333,749995.000,1.000
-7.847,-1.536,-1.853,-0.445,4.692,2.038,0.783,5.952,-0.008,1.000,-0.067,-1.404,-1.495,0.488,73.333,749996.000,1.000
-7.358,-1.819,-1.601,-0.313,3.593,1.455,-1.171,4.217,-0.009,0.998,-0.070,-1.495,-1.495,0.580,73.333,749997.000,1.000
-6.759,-1.434,-1.471,-0.477,2.614,3.343,-0.535,1.387,-0.009,0.997,-0.071,-1.434,-1.373,0.671,73.333,749998.000,1.000
-6.314,-0.910,-1.787,-1.143,1.133,5.197,0.177,-2.814,-0.008,0.998,-0.068,-1.373,-1.282,0.671,73.333,749999.000,1.000
-6.293,-1.245,-2.884,-2.448,-1.603,3.383,-2.700,-7.877,-0.010,0.998,-0.067,-1.312,-1.282,0.732,73.333,750000.000,1.000
-6.805,-3.153,-4.812,-4.261,-5.737,-4.226,-11.051,-12.523,-0.011,0.997,-0.069,-1.282,-1.282,0.763,73.333,750001.000,1.000
-7.608,-6.211,-6.954,-5.899,-10.092,-15.747,-22.362,-14.813,-0.010,0.996,-0.071,-1.282,-1.343,0.763,73.333,750002.000,1.000
-8.235,-9.076,-8.425,-6.542,-12.822,-26.072,-31.031,-13.378,-0.010,0.995,-0.069,-1.190,-1.495,0.763,73.333,750003.000,1.000
-8.369,-10.634,-8.990,-6.146,-13.122,-30.638,-33.117,-9.253,-0.011,0.997,-0.065,-1.099,-1.404,0.793,73.333,750004.000,1.000
-8.000,-10.682,-9.180,-5.521,-11.765,-28.253,-28.832,-5.453,-0.011,0.995,-0.065,-1.038,-1.312,0.824,73.333,750005.000,1.000
-7.214,-9.512,-9.404,-5.243,-9.720,-20.545,-20.282,-3.832,-0.011,0.995,-0.065,-0.946,-1.373,0.793,73.333,750006.000,1.000
-5.994,-7.327,-9.246,-4.873,-6.966,-10.046,-8.979,-3.182,-0.010,0.995,-0.063,-0.854,-1.373,0.732,73.333,750007.000,1.000
-4.365,-4.398,-8.058,-3.638,-3.278,0.479,3.153,-1.304,-0.011,0.996,-0.068,-0.793,-1.434,0.763,73.333,750008.000,1.000
-2.678,-1.518,-5.961,-1.625,0.371,7.783,12.200,1.728,-0.010,0.995,-0.065,-0.702,-1.434,0.763,73.333,750009.000,1.000
-1.530,0.216,-3.855,0.131,2.084,9.008,13.969,3.375,-0.011,0.993,-0.065,-0.671,-1.404,0.763,73.333,750010.000,1.000
-1.169,0.461,-2.420,0.798,0.970,4.109,7.758,1.573,-0.007,0.994,-0.065,-0.488,-1.373,0.732,73.333,750011.000,1.000
-1.147,0.147,-1.410,0.593,-1.740,-3.158,-2.317,-3.010,-0.010,0.990,-0.065,-0.458,-1.373,0.732,73.333,750012.000,1.000
-0.795,0.537,-0.263,0.313,-3.850,-8.066,-10.402,-7.638,-0.008,0.993,-0.068,-0.275,-1.343,0.763,73.333,750013.000,1.000
0.153,2.179,1.130,0.534,-3.853,-8.249,-12.676,-9.451,-0.006,0.994,-0.067,-0.275,-1.251,0.671,73.333,750014.000,1.000
1.507,4.892,2.533,1.375,-1.448,-3.837,-8.478,-7.084,-0.010,0.996,-0.066,-0.183,-1.068,0.641,73.333,750015.000,1.000
2.797,7.976,3.615,2.529,2.426,3.594,-0.094,-1.557,-0.010,0.994,-0.068,-0.122,-1.129,0.671,73.333,750016.000,1.000
3.433,10.288,4.025,3.390,5.861,11.042,8.188,4.383,-0.008,0.994,-0.067,-0.153,-1.099,0.702,73.333,750017.000,1.000
3.112,10.886,3.626,3.525,7.227,15.146,12.862,8.403,-0.008,0.995,-0.066,-0.153,-1.068,0.702,73.333,750018.000,1.000
2.183,9.922,2.822,3.097,6.549,14.840,14.005,10.109,-0.009,0.995,-0.070,-0.122,-1.038,0.763,73.333,750019.000,1.000
1.388,8.552,2.338,2.641,5.242,12.197,14.294,10.435,-0.009,0.995,-0.066,-0.031,-1.068,0.763,73.333,750020.000,1.000
1.214,7.904,2.557,2.353,4.445,10.306,15.132,9.793,-0.007,0.995,-0.063,-0.122,-1.007,0.793,73.333,750021.000,1.000
1.639,8.246,3.247,1.770,3.866,10.366,14.711,7.191,-0.007,0.996,-0.066,-0.061,-1.038,0.793,73.333,750022.000,1.000
2.403,8.890,3.718,0.264,2.256,10.381,9.945,1.493,-0.012,0.993,-0.064,0.031,-1.007,0.763,73.333,750023.000,1.000
3.291,8.858,3.289,-2.156,-1.094,7.265,0.064,-6.546,-0.014,0.994,-0.071,-0.092,-0.916,0.732,73.333,750024.000,1.000
4.114,7.679,1.768,-4.665,-5.419,0.520,-11.784,-14.090,-0.014,0.995,-0.067,-0.031,-0.946,0.549,73.333,750025.000,1.000
4.617,5.652,-0.402,-6.210,-8.981,-6.966,-20.451,-18.187,-0.013,0.994,-0.068,0.031,-1.007,0.488,73.333,750026.000,1.000
4.655,3.634,-2.286,-6.165,-10.209,-11.336,-22.062,-17.696,-0.013,0.995,-0.071,-0.122,-1.038,0.519,73.333,750027.000,1.000
4.419,2.662,-2.913,-4.500,-8.391,-10.185,-15.825,-13.450,-0.013,0.996,-0.068,-0.031,-1.190,0.366,73.333,750028.000,1.000
4.289,3.359,-1.891,-1.682,-3.913,-3.754,-4.058,-7.261,-0.013,0.996,-0.066,-0.153,-1.251,0.305,73.333,750029.000,1.000
4.371,5.305,0.180,1.341,1.573,4.818,8.365,-1.366,-0.014,0.997,-0.068,-0.183,-1.221,0.366,73.333,750030.000,1.000
4.347,7.162,1.971,3.430,5.719,11.051,15.794,2.112,-0.014,0.997,-0.068,-0.305,-1.282,0.275,73.333,750031.000,1.000
3.930,7.751,2.483,4.055,7.064,12.107,15.396,2.677,-0.014,0.996,-0.066,-0.366,-1.404,0.305,73.333,750032.000,1.000
3.167,6.868,1.718,3.670,6.010,8.386,9.133,2.042,-0.015,0.996,-0.068,-0.549,-1.465,0.336,73.333,750033.000,1.000
2.183,5.034,0.295,2.998,3.864,2.531,1.085,1.922,-0.014,0.996,-0.070,-0.488,-1.465,0.305,73.333,750034.000,1.000
0.933,2.748,-1.264,2.192,1.312,-2.934,-6.549,1.853,-0.012,0.997,-0.070,-0.519,-1.526,0.397,73.333,750035.000,1.000
-0.602,0.292,-2.706,1.000,-1.527,-6.912,-13.369,0.411,-0.012,0.995,-0.067,-0.458,-1.526,0.458,73.333,750036.000,1.000
-2.165,-1.886,-3.742,-0.524,-4.006,-8.923,-18.142,-2.308,-0.013,0.995,-0.066,-0.488,-1.465,0.488,73.333,750037.000,1.000
-3.381,-3.160,-4.113,-1.951,-4.962,-8.320,-18.898,-4.763,-0.012,0.996,-0.066,-0.488,-1.526,0.488,73.333,750038.000,1.000
-3.995,-3.132,-3.796,-2.818,-3.604,-4.956,-14.848,-5.443,-0.014,0.995,-0.070,-0.488,-1.587,0.519,73.333,750039.000,1.000
-3.873,-1.839,-2.893,-2.781,0.022,0.031,-6.978,-3.524,-0.012,0.996,-0.066,-0.458,-1.556,0.519,73.333,750040.000,1.000
-3.064,0.175,-1.629,-1.841,4.863,4.342,2.011,0.703,-0.013,0.997,-0.070,-0.427,-1.617,0.549,73.333,750041.000,1.000
-1.973,1.917,-0.464,-0.591,8.982,5.659,8.261,5.432,-0.013,0.997,-0.067,-0.610,-1.740,0.610,73.333,750042.000,1.000
-1.250,2.492,0.071,0.087,10.605,3.565,9.253,8.119,-0.011,0.997,-0.068,-0.702,-1.648,0.549,73.333,750043.000,1.000
-1.336,1.789,-0.159,-0.260,9.450,0.430,6.451,7.288,-0.013,0.997,-0.071,-0.702,-1.587,0.671,73.333,750044.000,1.000
-2.131,0.446,-0.789,-1.343,6.734,-0.739,3.954,3.620,-0.012,0.996,-0.070,-0.824,-1.678,0.702,73.333,750045.000,1.000
-3.209,-0.915,-1.532,-2.620,3.757,0.525,3.977,-0.923,-0.010,0.995,-0.070,-0.824,-1.587,0.793,73.333,750046.000,1.000
-4.277,-2.217,-2.550,-3.892,0.910,1.982,4.892,-4.763,-0.011,0.993,-0.068,-0.916,-1.587,0.824,73.333,750047.000,1.000
-5.268,-3.700,-4.120,-5.217,-1.928,1.376,3.709,-7.213,-0.009,0.993,-0.070,-0.946,-1.587,0.854,73.333,750048.000,1.000
-6.098,-5.422,-6.072,-6.487,-4.645,-1.560,-0.684,-7.961,-0.009,0.993,-0.068,-0.946,-1.587,0.854,73.333,750049.000,1.000
-6.591,-7.089,-7.808,-7.454,-6.906,-5.377,-6.789,-7.064,-0.009,0.993,-0.070,-0.854,-1.526,0.793,73.333,750050.000,1.000
-6.691,-8.302,-8.893,-8.092,-8.585,-8.401,-12.198,-5.293,-0.010,0.994,-0.069,-0.885,-1.587,0.885,73.333,750051.000,1.000
-6.469,-8.744,-9.262,-8.534,-9.748,-9.683,-15.320,-3.621,-0.010,0.992,-0.071,-0.885,-1.526,0.793,73.333,750052.000,1.000
-5.871,-8.123,-8.932,-8.710,-10.243,-8.850,-15.564,-2.398,-0.009,0.992,-0.069,-0.824,-1.465,0.854,73.333,750053.000,1.000
-4.708,-6.209,-7.837,-8.336,-9.698,-5.795,-12.832,-1.403,-0.009,0.994,-0.070,-0.763,-1.373,0.916,73.333,750054.000,1.000
-2.965,-3.126,-6.018,-7.260,-7.958,-0.845,-7.445,-0.355,-0.009,0.995,-0.069,-0.793,-1.312,0.977,73.333,750055.000,1.000
-0.939,0.433,-3.837,-5.621,-5.368,4.981,-0.429,0.978,-0.008,0.995,-0.067,-0.885,-1.190,0.885,73.333,750056.000,1.000
0.927,3.400,-1.811,-3.731,-2.700,10.003,6.487,2.761,-0.009,0.993,-0.067,-1.038,-1.160,0.885,73.333,750057.000,1.000
2.246,4.772,-0.427,-2.004,-0.938,12.324,11.132,4.645,-0.009,0.994,-0.070,-1.099,-1.129,0.885,73.333,750058.000,1.000
2.780,3.975,-0.086,-0.922,-1.005,10.325,11.005,5.614,-0.008,0.994,-0.070,-1.007,-1.068,0.946,73.333,750059.000,1.000
2.560,1.082,-0.958,-0.796,-3.295,3.340,4.400,4.819,-0.008,0.994,-0.069,-1.068,-1.007,0.916,73.333,750060.000,1.000
1.955,-3.004,-2.741,-1.485,-7.031,-6.883,-6.896,2.508,-0.009,0.993,-0.070,-1.068,-1.038,0.854,73.333,750061.000,1.000
1.520,-6.692,-4.616,-2.479,-10.388,-15.783,-17.141,-0.282,-0.009,0.993,-0.068,-1.038,-1.007,0.916,73.333,750062.000,1.000
1.666,-8.432,-5.700,-3.187,-11.647,-18.748,-20.717,-2.534,-0.010,0.995,-0.066,-1.099,-0.793,0.977,73.333,750063.000,1.000
2.449,-7.624,-5.555,-3.125,-10.213,-14.617,-16.273,-3.262,-0.009,0.994,-0.064,-1.068,-0.671,0.885,73.333,750064.000,1.000
3.571,-5.017,-4.409,-2.136,-6.822,-6.394,-7.045,-1.791,-0.009,0.997,-0.064,-1.007,-0.671,0.732,73.333,750065.000,1.000
4.545,-2.251,-3.118,-0.650,-3.166,0.970,1.623,1.182,-0.009,0.997,-0.068,-1.007,-0.610,0.763,73.333,750066.000,1.000
4.994,-0.704,-2.544,0.574,-0.875,3.845,5.702,3.753,-0.009,0.997,-0.070,-0.916,-0.610,0.824,73.333,750067.000,1.000
4.899,-0.563,-2.823,1.117,-0.390,1.974,4.710,4.576,-0.009,0.997,-0.070,-1.129,-0.671,0.763,73.333,750068.000,1.000
4.631,-0.910,-3.243,1.202,-0.840,-2.028,1.133,3.888,-0.008,0.997,-0.070,-1.160,-0.641,0.824,73.333,750069.000,1.000
4.754,-0.537,-2.780,1.415,-0.847,-4.603,-1.425,2.891,-0.006,0.998,-0.070,-1.190,-0.427,0.793,73.333,750070.000,1.000
5.684,1.186,-0.894,2.239,0.598,-3.186,0.085,2.751,-0.008,0.996,-0.069,-1.190,-0.458,0.763,73.333,750071.000,1.000
7.355,3.742,1.980,3.652,3.380,2.091,5.938,3.880,-0.009,0.998,-0.067,-1.190,-0.336,0.854,73.333,750072.000,1.000
9.142,5.582,4.514,4.954,6.007,8.035,12.396,5.470,-0.010,0.996,-0.070,-1.282,-0.305,0.793,73.333,750073.000,1.000
10.259,5.267,5.375,5.191,6.658,10.911,14.615,5.854,-0.009,0.995,-0.070,-1.282,-0.458,0.702,73.333,750074.000,1.000
10.345,2.803,4.303,4.055,4.855,9.725,11.262,4.007,-0.012,0.994,-0.069,-1.221,-0.305,0.732,73.333,750075.000,1.000
9.645,-0.339,2.257,2.336,1.925,6.127,5.226,0.998,-0.010,0.994,-0.072,-1.343,-0.244,0.763,73.333,750076.000,1.000
8.736,-2.383,0.691,1.396,-0.070,2.024,0.526,-0.418,-0.010,0.993,-0.069,-1.282,-0.305,0.732,73.333,750077.000,1.000
8.143,-2.344,0.555,2.051,0.172,-1.107,-0.495,1.567,-0.010,0.995,-0.067,-1.190,-0.336,0.732,73.333,750078.000,1.000
8.036,-0.594,1.606,3.756,2.120,-2.169,1.607,5.547,-0.009,0.997,-0.070,-1.190,-0.305,0.763,73.333,750079.000,1.000
8.127,1.265,2.616,4.964,3.613,-1.767,3.545,7.984,-0.011,0.995,-0.070,-1.221,-0.244,0.824,73.333,750080.000,1.000
7.953,1.511,2.381,4.473,2.651,-2.198,1.792,6.616,-0.010,0.994,-0.072,-1.343,-0.183,0.977,73.333,750081.000,1.000
7.279,-0.380,0.658,2.369,-0.872,-4.812,-4.110,2.212,-0.010,0.994,-0.071,-1.312,-0.183,1.007,73.333,750082.000,1.000
6.129,-3.608,-1.977,-0.311,-5.369,-8.700,-11.312,-2.752,-0.011,0.995,-0.069,-1.251,-0.275,0.916,73.333,750083.000,1.000
4.591,-6.956,-4.834,-2.538,-9.104,-12.309,-16.499,-6.239,-0.010,0.995,-0.067,-1.190,-0.275,0.946,73.333,750084.000,1.000
2.767,-9.461,-7.383,-3.826,-11.118,-14.720,-18.136,-7.471,-0.010,0.995,-0.070,-1.221,-0.305,0.916,73.333,750085.000,1.000
0.843,-10.507,-9.132,-4.108,-11.068,-15.290,-16.325,-6.441,-0.011,0.996,-0.069,-1.160,-0.336,1.007,73.333,750086.000,1.000
-0.916,-9.883,-9.620,-3.433,-8.920,-13.417,-11.579,-3.270,-0.011,0.999,-0.068,-1.221,-0.366,1.007,73.333,750087.000,1.000
-2.314,-8.078,-8.838,-2.006,-5.195,-9.310,-4.655,1.558,-0.011,0.999,-0.069,-1.160,-0.427,1.038,73.333,750088.000,1.000
-3.344,-6.311,-7.491,-0.427,-1.324,-4.601,2.556,6.384,-0.011,0.999,-0.067,-1.190,-0.519,1.007,73.333,750089.000,1.000
-4.041,-5.772,-6.500,0.492,0.965,-1.322,7.443,8.740,-0.010,0.998,-0.065,-1.221,-0.580,0.885,73.333,750090.000,1.000
-4.257,-6.677,-6.262,0.396,1.006,-0.168,8.760,7.419,-0.011,0.998,-0.067,-1.221,-0.641,0.977,73.333,750091.000,1.000
-3.750,-8.163,-6.418,-0.290,-0.321,-0.317,7.567,3.874,-0.011,0.994,-0.065,-1.190,-0.610,1.038,73.333,750092.000,1.000
-2.511,-9.027,-6.287,-0.779,-1.518,-0.661,5.853,0.991,-0.011,0.995,-0.066,-1.190,-0.702,1.099,73.333,750093.000,1.000
-0.987,-8.518,-5.451,-0.593,-1.665,-0.591,4.872,0.568,-0.009,0.996,-0.065,-1.221,-0.671,1.038,73.333,750094.000,1.000
0.001,-6.725,-4.106,0.025,-0.960,-0.066,4.521,1.937,-0.010,0.995,-0.068,-1.221,-0.732,1.007,73.333,750095.000,1.000
-0.171,-4.293,-2.855,0.426,-0.180,0.794,4.147,2.970,-0.009,0.994,-0.070,-1.129,-0.732,0.977,73.333,750096.000,1.000
-1.259,-1.761,-1.968,0.376,0.406,2.346,4.045,2.532,-0.009,0.996,-0.069,-1.007,-0.610,1.007,73.333,750097.000,1.000
-2.284,0.576,-1.189,0.223,1.198,5.013,5.224,1.559,-0.006,0.996,-0.068,-1.007,-0.641,0.946,73.333,750098.000,1.000
-2.356,2.402,-0.197,0.359,2.557,8.353,8.162,1.825,-0.008,0.995,-0.068,-1.038,-0.702,1.038,73.333,750099.000,1.000
-1.195,3.481,1.133,0.915,4.506,11.325,12.774,4.412,-0.007,0.997,-0.066,-0.885,-0.641,1.068,73.333,750100.000,1.000
0.778,3.681,2.514,1.649,6.445,12.540,17.753,8.683,-0.006,0.997,-0.064,-1.038,-0.641,1.007,73.333,750101.000,1.000
2.508,2.633,3.077,1.732,6.702,10.047,19.277,11.624,-0.009,0.999,-0.065,-1.038,-0.549,1.068,73.333,750102.000,1.000
2.843,-0.011,1.920,0.284,3.579,2.732,13.447,9.590,-0.007,0.997,-0.065,-1.068,-0.610,1.007,73.333,750103.000,1.000
1.491,-3.564,-0.692,-2.344,-2.322,-7.284,1.451,2.321,-0.006,0.994,-0.066,-1.129,-0.580,0.916,73.333,750104.000,1.000
-0.586,-6.072,-3.019,-4.332,-7.590,-14.694,-9.650,-5.728,-0.008,0.994,-0.065,-1.068,-0.580,1.007,73.333,750105.000,1.000
-1.924,-5.715,-3.201,-3.889,-8.620,-14.726,-12.684,-9.090,-0.006,0.994,-0.067,-1.129,-0.519,0.946,73.333,750106.000,1.000
-1.799,-2.516,-0.890,-0.911,-4.685,-7.252,-6.379,-5.944,-0.008,0.993,-0.065,-1.038,-0.641,0.916,73.333,750107.000,1.000
-0.689,1.590,2.485,2.920,1.643,3.078,4.347,0.900,-0.010,0.996,-0.068,-1.099,-0.610,0.946,73.333,750108.000,1.000
0.386,4.351,4.997,5.512,6.753,10.618,12.868,6.860,-0.009,0.995,-0.066,-1.190,-0.610,1.007,73.333,750109.000,1.000
0.730,4.622,5.563,5.710,8.335,12.212,14.998,8.880,-0.007,0.996,-0.066,-1.221,-0.702,0.977,73.333,750110.000,1.000
0.214,2.542,4.129,3.600,6.120,7.888,10.235,6.616,-0.007,0.994,-0.067,-1.160,-0.610,0.946,73.333,750111.000,1.000
-0.945,-0.938,1.277,0.123,1.497,0.050,1.326,1.795,-0.008,0.994,-0.072,-1.129,-0.610,0.977,73.333,750112.000,1.000
-2.410,-4.527,-2.139,-3.480,-3.313,-7.662,-7.195,-3.182,-0.008,0.993,-0.071,-1.221,-0.610,1.038,73.333,750113.000,1.000
-3.837,-7.100,-5.229,-6.220,-6.411,-12.162,-11.732,-6.617,-0.007,0.994,-0.067,-1.190,-0.519,0.885,73.333,750114.000,1.000
-4.951,-8.093,-7.239,-7.636,-6.995,-12.275,-11.377,-7.921,-0.009,0.993,-0.065,-1.160,-0.610,0.885,73.333,750115.000,1.000
-5.494,-7.438,-7.632,-7.648,-5.087,-8.107,-6.664,-7.046,-0.010,0.994,-0.067,-1.068,-0.580,1.007,73.333,750116.000,1.000
-5.190,-5.360,-6.206,-6.414,-1.197,-0.292,1.750,-4.355,-0.011,0.995,-0.066,-1.038,-0.702,0.977,73.333,750117.000,1.000
-3.988,-2.589,-3.497,-4.532,3.292,8.817,11.722,-1.068,-0.012,0.996,-0.066,-1.038,-0.702,0.854,73.333,750118.000,1.000
-2.343,-0.395,-0.815,-3.010,6.215,14.872,18.836,1.099,-0.014,0.996,-0.064,-1.190,-0.763,0.763,73.333,750119.000,1.000
-1.050,0.100,0.541,-2.712,5.918,14.474,19.091,0.983,-0.010,0.996,-0.067,-1.190,-0.732,0.854,73.333,750120.000,1.000
-0.812,-1.417,0.001,-3.949,2.283,7.767,11.913,-1.702,-0.010,0.994,-0.066,-1.190,-0.763,0.885,73.333,750121.000,1.000
-1.931,-4.428,-2.162,-6.462,-3.419,-2.199,0.286,-6.431,-0.009,0.993,-0.066,-1.190,-0.916,0.793,73.333,750122.000,1.000
-4.066,-7.726,-4.956,-9.345,-8.951,-11.273,-10.746,-11.366,-0.010,0.995,-0.066,-1.221,-0.885,0.793,73.333,750123.000,1.000
-6.181,-9.610,-6.829,-11.067,-11.572,-15.559,-15.852,-13.345,-0.010,0.994,-0.067,-1.190,-0.916,0.793,73.333,750124.000,1.000
-7.166,-8.836,-6.512,-10.367,-9.599,-13.367,-12.634,-10.102,-0.010,0.996,-0.067,-1.068,-1.007,0.671,73.333,750125.000,1.000
-6.781,-5.798,-4.219,-7.529,-4.247,-6.887,-4.540,-3.111,-0.011,0.997,-0.066,-1.068,-1.038,0.641,73.333,750126.000,1.000
-5.738,-2.245,-1.459,-4.246,1.009,-0.614,1.586,3.030,-0.010,0.997,-0.066,-1.160,-1.068,0.671,73.333,750127.000,1.000
-4.820,0.344,0.427,-2.035,3.513,2.718,2.080,4.737,-0.010,0.996,-0.069,-1.099,-1.129,0.610,73.333,750128.000,1.000
-4.344,1.629,1.132,-1.196,3.243,3.762,-0.904,2.165,-0.008,0.997,-0.070,-1.099,-1.129,0.610,73.333,750129.000,1.000
-4.411,1.744,0.870,-1.278,1.584,4.107,-3.428,-2.208,-0.008,0.997,-0.069,-1.160,-1.038,0.671,73.333,750130.000,1.000
-5.056,0.738,-0.201,-1.805,-0.335,4.087,-3.858,-6.178,-0.009,0.996,-0.068,-1.190,-1.068,0.732,73.333,750131.000,1.000
-5.835,-0.905,-1.527,-2.181,-1.499,3.881,-1.997,-8.256,-0.011,0.996,-0.065,-1.251,-1.007,0.702,73.333,750132.000,1.000
-5.700,-1.957,-1.876,-1.468,-0.580,4.729,2.704,-7.053,-0.010,0.996,-0.067,-1.190,-1.068,0.610,73.333,750133.000,1.000
-3.831,-1.506,-0.322,0.926,2.838,7.135,9.399,-2.152,-0.009,0.997,-0.066,-1.160,-1.160,0.702,73.333,750134.000,1.000
-0.554,-0.036,2.649,4.365,7.069,9.139,14.370,4.430,-0.009,0.995,-0.067,-1.160,-1.129,0.641,73.333,750135.000,1.000
2.904,1.162,5.561,7.400,9.577,8.262,14.113,9.238,-0.009,0.995,-0.064,-1.282,-1.190,0.641,73.333,750136.000,1.000
5.379,1.365,7.363,9.003,9.260,4.477,8.966,10.220,-0.009,0.995,-0.065,-1.251,-1.251,0.641,73.333,750137.000,1.000
6.330,0.851,8.037,9.056,7.021,0.549,2.607,7.733,-0.008,0.995,-0.067,-1.312,-1.221,0.671,73.333,750138.000,1.000
5.882,0.464,8.236,8.015,4.716,0.079,-0.493,3.257,-0.009,0.994,-0.065,-1.251,-1.251,0.610,73.333,750139.000,1.000
4.649,0.930,8.633,6.537,3.776,4.450,2.182,-1.595,-0.008,0.996,-0.069,-1.404,-1.221,0.610,73.333,750140.000,1.000
3.278,2.162,9.224,5.069,4.050,10.500,8.242,-5.562,-0.009,0.997,-0.067,-1.373,-1.282,0.549,73.333,750141.000,1.000
1.989,3.110,9.176,3.458,3.644,11.939,10.659,-8.582,-0.008,0.995,-0.068,-1.373,-1.282,0.549,73.333,750142.000,1.000
0.651,2.568,7.524,1.210,0.517,4.328,3.332,-11.638,-0.009,0.994,-0.067,-1.251,-1.282,0.549,73.333,750143.000,1.000
-0.676,0.362,4.223,-1.649,-5.330,-10.654,-12.888,-15.064,-0.010,0.993,-0.065,-1.160,-1.373,0.610,73.333,750144.000,1.000
-1.520,-2.309,0.491,-4.201,-11.401,-25.660,-29.970,-17.642,-0.010,0.994,-0.064,-1.190,-1.373,0.549,73.333,750145.000,1.000
-1.418,-3.814,-2.092,-5.360,-14.628,-32.725,-38.498,-17.815,-0.009,0.995,-0.065,-1.129,-1.373,0.580,73.333,750146.000,1.000
-0.451,-3.330,-2.711,-4.803,-13.676,-28.671,-34.217,-15.338,-0.009,0.997,-0.070,-1.282,-1.343,0.580,73.333,750147.000,1.000
0.694,-1.313,-1.699,-3.138,-9.583,-16.655,-20.358,-11.479,-0.009,0.997,-0.068,-1.160,-1.373,0.671,73.333,750148.000,1.000
1.105,0.960,-0.113,-1.400,-4.692,-3.403,-4.570,-7.881,-0.008,0.995,-0.063,-1.099,-1.343,0.641,73.333,750149.000,1.000
0.219,2.284,1.009,-0.405,-1.039,5.245,6.493,-5.332,-0.008,0.996,-0.065,-1.099,-1.343,0.580,73.333,750150.000,1.000
-1.709,2.353,1.288,-0.216,0.777,7.401,10.599,-3.398,-0.009,0.997,-0.066,-1.099,-1.282,0.671,73.333,750151.000,1.000
-3.682,1.885,1.177,-0.180,1.520,5.195,9.644,-1.279,-0.008,1.000,-0.064,-1.129,-1.282,0.641,73.333,750152.000,1.000
-4.647,1.917,1.372,0.373,2.202,2.381,7.045,0.919,-0.009,1.001,-0.062,-1.190,-1.221,0.641,73.333,750153.000,1.000
-4.122,3.011,2.222,1.640,3.257,1.790,5.524,2.232,-0.008,1.001,-0.062,-1.190,-1.160,0.610,73.333,750154.000,1.000
-2.301,5.015,3.699,3.526,4.693,4.233,6.275,2.251,-0.010,1.002,-0.062,-1.251,-1.282,0.580,73.333,750155.000,1.000
0.153,7.207,5.530,5.864,6.400,8.534,8.888,1.949,-0.008,1.000,-0.062,-1.251,-1.160,0.610,73.333,750156.000,1.000
2.350,8.594,7.244,8.304,8.087,12.411,11.996,2.925,-0.010,0.998,-0.065,-1.312,-1.099,0.580,73.333,750157.000,1.000
3.536,8.416,8.320,10.309,9.354,14.188,14.613,6.053,-0.009,0.998,-0.067,-1.373,-1.129,0.671,73.333,750158.000,1.000
3.441,6.634,8.521,11.462,10.036,14.110,16.918,10.797,-0.008,0.996,-0.063,-1.434,-1.099,0.702,73.333,750159.000,1.000
2.222,3.824,7.872,11.476,10.034,13.663,19.083,15.061,-0.008,0.996,-0.063,-1.495,-1.099,0.763,73.333,750160.000,1.000
0.035,0.437,6.081,9.802,8.620,13.429,19.663,15.583,-0.009,0.995,-0.062,-1.465,-1.099,0.671,73.333,750161.000,1.000
-3.130,-3.592,2.572,5.873,4.710,11.756,16.382,10.224,-0.010,0.990,-0.060,-1.312,-1.068,0.641,73.333,750162.000,1.000
-7.052,-8.315,-2.574,0.105,-1.779,5.863,8.331,0.564,-0.011,0.990,-0.064,-1.404,-1.129,0.702,73.333,750163.000,1.000
-10.907,-13.053,-8.024,-5.840,-9.289,-5.208,-3.379,-8.916,-0.009,0.988,-0.062,-1.221,-1.099,0.763,73.333,750164.000,1.000
-13.521,-16.430,-11.845,-10.076,-15.527,-18.616,-16.313,-14.533,-0.009,0.985,-0.064,-1.160,-1.099,0.793,73.333,750165.000,1.000
-14.029,-17.168,-12.762,-11.604,-18.706,-29.004,-27.243,-15.702,-0.009,0.986,-0.062,-1.038,-1.190,0.854,73.333,750166.000,1.000
-12.248,-14.729,-10.670,-10.435,-17.979,-31.707,-32.659,-13.879,-0.009,0.986,-0.065,-0.916,-1.190,0.885,73.333,750167.000,1.000
-8.561,-9.426,-6.330,-7.149,-13.380,-25.239,-30.273,-10.443,-0.006,0.990,-0.065,-0.763,-1.160,0.977,73.333,750168.000,1.000
-3.884,-2.593,-1.125,-2.866,-6.253,-12.422,-21.325,-6.399,-0.009,0.993,-0.067,-0.610,-1.160,0.946,73.333,750169.000,1.000
0.363,3.532,3.130,0.728,0.671,0.644,-10.705,-3.145,-0.009,0.993,-0.066,-0.610,-1.129,0.824,73.333,750170.000,1.000
2.986,7.097,5.117,2.392,5.021,8.720,-2.899,-1.641,-0.011,0.995,-0.064,-0.549,-1.129,0.977,73.333,750171.000,1.000
3.835,7.950,5.057,2.335,6.580,11.058,1.491,-1.165,-0.011,0.998,-0.063,-0.641,-1.190,0.824,73.333,750172.000,1.000
3.450,7.146,4.155,1.529,6.523,10.203,3.913,-0.499,-0.011,1.000,-0.066,-0.671,-1.190,0.763,73.333,750173.000,1.000
2.164,5.585,3.226,0.456,5.631,8.402,4.720,0.333,-0.013,1.000,-0.065,-0.671,-1.190,0.702,73.333,750174.000,1.000
0.069,3.672,2.428,-0.814,4.230,6.421,3.676,0.813,-0.014,1.000,-0.064,-0.824,-1.129,0.580,73.333,750175.000,1.000
-2.417,1.867,1.851,-1.788,3.127,4.642,2.016,1.635,-0.011,1.000,-0.064,-0.916,-1.251,0.641,73.333,750176.000,1.000
-4.503,0.812,1.760,-1.652,3.415,3.654,1.984,4.274,-0.009,0.997,-0.063,-0.977,-1.343,0.580,73.333,750177.000,1.000
-5.588,0.768,2.124,-0.290,5.118,3.496,3.980,8.675,-0.003,0.995,-0.063,-0.946,-1.221,0.671,73.333,750178.000,1.000
-5.637,1.284,2.376,1.263,6.727,3.325,5.670,12.279,-0.001,0.993,-0.065,-1.038,-1.282,0.732,73.333,750179.000,1.000
-4.886,1.830,2.095,1.841,6.822,2.878,5.283,12.410,-0.003,0.993,-0.065,-0.916,-1.129,0.854,73.333,750180.000,1.000
-3.346,2.583,1.750,1.473,5.893,3.662,4.554,9.517,-0.003,0.993,-0.063,-1.007,-0.946,0.763,73.333,750181.000,1.000
-0.904,4.092,2.323,1.244,5.694,7.254,6.501,6.850,-0.007,0.995,-0.061,-0.946,-0.854,0.854,73.333,750182.000,1.000
2.112,6.283,4.085,1.915,6.953,12.661,11.109,6.833,-0.009,0.997,-0.060,-1.038,-0.824,0.885,73.333,750183.000,1.000
4.812,8.273,6.171,3.196,8.635,16.589,15.086,8.955,-0.010,0.997,-0.066,-1.068,-0.793,0.763,73.333,750184.000,1.000
6.284,9.151,7.390,4.290,9.306,16.265,15.194,11.016,-0.009,0.996,-0.063,-1.129,-0.702,0.793,73.333,750185.000,1.000
6.200,8.673,7.164,4.667,8.533,11.623,10.787,11.228,-0.009,0.996,-0.066,-1.190,-0.732,0.854,73.333,750186.000,1.000
5.003,7.291,5.855,4.338,7.052,5.171,4.057,9.231,-0.007,0.996,-0.067,-1.221,-0.793,0.977,73.333,750187.000,1.000
3.561,5.760,4.329,3.640,6.012,0.161,-1.485,5.868,-0.006,0.996,-0.068,-1.190,-0.854,0.946,73.333,750188.000,1.000
2.636,4.741,3.356,2.928,6.132,-1.431,-3.378,2.491,-0.007,0.996,-0.068,-1.190,-0.824,1.007,73.333,750189.000,1.000
2.595,4.579,3.357,2.496,7.345,0.007,-1.899,0.409,-0.006,0.997,-0.067,-1.251,-0.793,1.038,73.333,750190.000,1.000
3.346,5.185,4.308,2.469,8.849,2.245,0.245,0.055,-0.008,0.998,-0.065,-1.160,-0.763,1.007,73.333,750191.000,1.000
4.392,6.180,5.805,2.642,9.662,3.359,0.501,0.529,-0.011,1.000,-0.067,-1.068,-0.702,0.885,73.333,750192.000,1.000
5.141,7.278,7.347,2.737,9.577,3.642,-0.765,0.869,-0.012,1.000,-0.063,-1.129,-0.732,0.824,73.333,750193.000,1.000
5.307,8.429,8.604,2.787,9.410,4.857,-0.721,1.601,-0.012,0.997,-0.063,-1.312,-0.854,0.732,73.333,750194.000,1.000
4.896,9.448,9.350,2.920,9.870,7.532,2.376,3.928,-0.011,1.001,-0.063,-1.404,-0.916,0.671,73.333,750195.000,1.000
3.895,9.696,9.204,2.807,10.382,9.774,6.702,7.406,-0.011,1.001,-0.064,-1.495,-1.007,0.580,73.333,750196.000,1.000
2.252,8.467,7.803,1.769,9.461,9.027,8.206,9.492,-0.010,1.001,-0.064,-1.526,-1.038,0.488,73.333,750197.000,1.000
0.309,5.861,5.380,-0.378,6.376,4.711,4.399,7.927,-0.009,1.001,-0.066,-1.526,-0.977,0.397,73.333,750198.000,1.000
-0.988,3.169,3.085,-2.709,2.331,-0.864,-2.669,3.351,-0.007,1.001,-0.065,-1.465,-1.068,0.275,73.333,750199.000,1.000
-0.607,2.196,2.509,-3.606,-0.102,-3.939,-7.166,-0.749,-0.007,1.001,-0.065,-1.434,-1.190,0.275,73.333,750200.000,1.000
1.738,4.056,4.555,-1.972,1.102,-1.745,-4.098,-0.933,-0.006,1.001,-0.066,-1.373,-1.038,0.305,73.333,750201.000,1.000
5.222,8.327,8.618,1.737,5.636,5.519,5.797,2.910,-0.007,1.001,-0.061,-1.495,-0.946,0.336,73.333,750202.000,1.000
8.391,13.136,12.739,5.728,10.781,14.202,15.835,7.245,-0.007,1.000,-0.059,-1.526,-0.946,0.336,73.333,750203.000,1.000
10.150,16.299,14.936,8.331,13.523,19.135,19.061,8.384,-0.006,1.001,-0.059,-1.526,-0.885,0.214,73.333,750204.000,1.000
10.382,16.693,14.571,9.154,12.760,17.117,13.704,5.732,-0.008,1.000,-0.060,-1.495,-0.916,0.244,73.333,750205.000,1.000
9.668,14.656,12.364,8.772,9.396,8.878,2.875,1.145,-0.007,0.997,-0.063,-1.648,-0.946,0.305,73.333,750206.000,1.000
8.646,11.410,9.587,7.948,5.212,-1.879,-8.613,-3.225,-0.008,0.996,-0.062,-1.648,-0.885,0.305,73.333,750207.000,1.000
7.815,8.411,7.452,7.435,2.169,-10.561,-16.148,-5.665,-0.007,0.995,-0.060,-1.617,-0.885,0.336,73.333,750208.000,1.000
7.555,6.830,6.711,7.787,1.621,-13.746,-17.033,-5.406,-0.010,0.996,-0.061,-1.556,-0.793,0.366,73.333,750209.000,1.000
7.963,7.023,7.304,8.866,3.385,-10.861,-12.163,-3.333,-0.010,0.997,-0.062,-1.434,-0.885,0.397,73.333,750210.000,1.000
8.815,8.550,8.549,10.019,6.202,-3.904,-4.786,-0.931,-0.012,0.994,-0.060,-1.434,-1.007,0.427,73.333,750211.000,1.000
9.825,10.760,9.886,10.900,9.184,4.415,2.628,1.720,-0.015,0.995,-0.060,-1.465,-1.068,0.519,73.333,750212.000,1.000
10.736,13.029,11.107,11.684,12.136,11.734,9.117,5.782,-0.014,0.996,-0.057,-1.373,-1.068,0.458,73.333,750213.000,1.000
11.201,14.583,11.932,12.406,14.658,16.222,13.733,11.300,-0.013,0.996,-0.059,-1.312,-1.190,0.458,73.333,750214.000,1.000
10.915,14.735,11.905,12.599,15.906,17.399,15.405,16.086,-0.014,0.994,-0.061,-1.404,-1.251,0.488,73.333,750215.000,1.000
9.977,13.522,10.910,11.847,15.446,16.631,14.264,17.626,-0.013,0.994,-0.058,-1.282,-1.312,0.488,73.333,750216.000,1.000
8.880,11.681,9.506,10.303,13.647,15.508,11.374,15.430,-0.013,0.993,-0.057,-1.312,-1.465,0.458,73.333,750217.000,1.000
8.053,9.935,8.449,8.482,11.101,13.904,7.328,11.008,-0.013,0.990,-0.058,-1.190,-1.495,0.366,73.333,750218.000,1.000
7.584,8.623,8.140,6.916,8.324,10.716,2.542,6.480,-0.012,0.990,-0.061,-1.190,-1.434,0.427,73.333,750219.000,1.000
7.349,7.834,8.555,6.052,5.934,5.957,-1.754,3.558,-0.011,0.988,-0.060,-1.068,-1.587,0.488,73.333,750220.000,1.000
7.224,7.551,9.378,6.202,4.634,1.379,-3.755,3.175,-0.008,0.987,-0.061,-0.854,-1.526,0.580,73.333,750221.000,1.000
7.101,7.716,10.177,7.425,4.963,-0.526,-1.907,5.387,-0.008,0.988,-0.063,-0.671,-1.587,0.549,73.333,750222.000,1.000
6.758,8.139,10.413,9.288,6.746,1.601,3.725,9.045,-0.010,0.989,-0.064,-0.580,-1.556,0.610,73.333,750223.000,1.000
5.861,8.305,9.464,10.840,8.712,6.368,10.343,11.982,-0.010,0.993,-0.061,-0.427,-1.434,0.580,73.333,750224.000,1.000
4.222,7.553,6.992,11.131,9.193,10.186,13.822,12.452,-0.010,0.993,-0.061,-0.397,-1.373,0.641,73.333,750225.000,1.000
2.009,5.535,3.272,9.784,7.313,9.722,11.601,10.332,-0.010,0.992,-0.063,-0.366,-1.404,0.763,73.333,750226.000,1.000
-0.396,2.402,-0.915,7.011,3.295,4.029,4.037,6.554,-0.007,0.993,-0.065,-0.336,-1.465,0.824,73.333,750227.000,1.000
-2.618,-1.194,-4.652,3.391,-1.835,-4.702,-6.011,1.988,-0.007,0.992,-0.063,-0.366,-1.404,0.977,73.333,750228.000,1.000
-4.262,-4.105,-7.041,-0.115,-6.391,-11.989,-14.099,-2.485,-0.007,0.992,-0.064,-0.275,-1.282,0.977,73.333,750229.000,1.000
-4.867,-5.121,-7.355,-2.330,-8.480,-13.696,-15.854,-5.411,-0.007,0.992,-0.063,-0.305,-1.221,1.038,73.333,750230.000,1.000
-4.211,-3.852,-5.535,-2.548,-7.244,-8.967,-9.681,-5.363,-0.008,0.995,-0.063,-0.275,-1.099,1.099,73.333,750231.000,1.000
-2.671,-1.214,-2.544,-1.195,-3.829,-1.002,1.367,-2.459,-0.007,0.998,-0.062,-0.336,-1.068,1.007,73.333,750232.000,1.000
-1.159,1.087,-0.060,0.321,-0.833,5.171,11.046,1.174,-0.007,0.998,-0.062,-0.305,-1.160,1.068,73.333,750233.000,1.000
-0.586,1.680,0.499,0.536,-0.447,6.207,14.235,2.859,-0.007,0.997,-0.063,-0.305,-1.068,1.068,73.333,750234.000,1.000
-1.307,0.300,-1.124,-1.171,-3.005,2.432,10.219,1.292,-0.006,0.997,-0.061,-0.427,-1.038,1.160,73.333,750235.000,1.000
-2.882,-2.157,-3.920,-4.243,-6.940,-2.913,2.464,-2.640,-0.006,0.998,-0.062,-0.580,-1.038,1.160,73.333,750236.000,1.000
-4.242,-4.192,-6.189,-7.217,-9.807,-6.046,-3.918,-6.287,-0.008,0.998,-0.060,-0.580,-0.946,1.038,73.333,750237.000,1.000
-4.354,-4.666,-6.613,-8.603,-9.813,-5.130,-5.337,-6.879,-0.007,0.998,-0.061,-0.519,-0.977,1.068,73.333,750238.000,1.000
-3.010,-3.563,-5.150,-7.974,-7.129,-1.399,-2.109,-3.732,-0.008,0.999,-0.063,-0.610,-0.946,1.068,73.333,750239.000,1.000
-0.965,-1.808,-2.901,-6.205,-3.726,1.996,1.944,1.107,-0.008,0.998,-0.063,-0.702,-0.946,1.038,73.333,750240.000,1.000
0.777,-0.311,-1.031,-4.462,-1.524,2.672,3.313,4.981,-0.009,0.997,-0.064,-0.885,-0.916,0.916,73.333,750241.000,1.000
1.719,0.734,0.103,-3.192,-0.752,0.993,2.261,7.004,-0.008,0.995,-0.064,-0.977,-0.916,0.824,73.333,750242.000,1.000
1.901,1.605,0.676,-2.307,-0.407,-0.528,1.839,7.647,-0.009,0.997,-0.061,-0.946,-0.885,0.885,73.333,750243.000,1.000
1.517,2.456,0.776,-1.826,0.220,0.340,4.171,7.011,-0.008,0.997,-0.060,-1.007,-0.885,0.916,73.333,750244.000,1.000
0.679,2.999,0.286,-1.927,0.825,3.401,8.109,4.693,-0.009,1.000,-0.062,-1.068,-0.885,0.793,73.333,750245.000,1.000
-0.591,2.568,-1.020,-2.711,0.375,5.775,9.750,0.614,-0.010,1.000,-0.066,-1.129,-0.824,0.854,73.333,750246.000,1.000
-2.210,0.615,-3.275,-4.106,-2.073,4.119,5.595,-4.790,-0.011,1.002,-0.064,-1.099,-0.824,0.671,73.333,750247.000,1.000
-3.815,-2.629,-6.183,-5.769,-6.289,-2.060,-3.880,-10.366,-0.011,1.002,-0.064,-1.190,-0.916,0.580,73.333,750248.000,1.000
-4.701,-5.928,-8.815,-6.981,-10.440,-9.244,-13.713,-13.970,-0.011,1.000,-0.063,-1.404,-0.885,0.549,73.333,750249.000,1.000
-4.218,-7.763,-10.050,-6.967,-12.245,-12.626,-18.170,-13.619,-0.010,0.998,-0.059,-1.434,-0.946,0.519,73.333,750250.000,1.000
-2.484,-7.619,-9.620,-5.727,-11.088,-10.387,-15.547,-9.792,-0.010,0.994,-0.064,-1.434,-0.946,0.549,73.333,750251.000,1.000
-0.457,-6.408,-8.305,-4.195,-8.551,-4.976,-8.857,-5.498,-0.008,0.993,-0.065,-1.495,-0.916,0.519,73.333,750252.000,1.000
1.039,-5.300,-6.818,-3.080,-6.347,-0.013,-1.686,-2.926,-0.008,0.994,-0.063,-1.556,-0.946,0.549,73.333,750253.000,1.000
1.986,-4.570,-5.078,-2.107,-4.597,3.028,4.800,-1.288,-0.005,0.994,-0.068,-1.373,-0.977,0.732,73.333,750254.000,1.000
2.583,-4.053,-3.008,-0.977,-2.947,4.403,9.950,0.739,-0.006,0.995,-0.066,-1.373,-0.916,0.824,73.333,750255.000,1.000
2.606,-4.059,-1.386,-0.313,-2.156,3.946,11.497,2.225,-0.007,0.994,-0.068,-1.343,-0.854,0.885,73.333,750256.000,1.000
1.768,-5.094,-1.184,-0.990,-3.370,1.148,7.614,1.230,-0.009,0.995,-0.066,-1.221,-0.824,0.977,73.333,750257.000,1.000
0.328,-7.008,-2.492,-2.986,-6.503,-3.337,-0.340,-2.522,-0.009,0.995,-0.065,-1.282,-0.763,1.007,73.333,750258.000,1.000
-0.981,-8.941,-4.404,-5.330,-10.141,-7.882,-8.662,-7.278,-0.009,0.994,-0.065,-1.373,-0.763,1.007,73.333,750259.000,1.000
-1.408,-9.915,-5.705,-6.837,-12.624,-11.161,-14.047,-10.567,-0.010,0.991,-0.060,-1.221,-0.824,1.099,73.333,750260.000,1.000
-0.524,-9.296,-5.557,-6.734,-12.853,-12.281,-14.883,-10.377,-0.011,0.992,-0.064,-1.160,-0.824,1.099,73.333,750261.000,1.000
1.528,-7.040,-3.866,-4.973,-10.637,-10.474,-11.226,-6.090,-0.014,0.993,-0.063,-1.099,-0.854,1.007,73.333,750262.000,1.000
3.896,-3.916,-1.460,-2.400,-6.988,-5.880,-4.905,0.736,-0.017,0.993,-0.063,-1.129,-0.854,1.007,73.333,750263.000,1.000
5.358,-1.306,0.234,-0.421,-3.826,-0.317,1.185,6.857,-0.018,0.996,-0.061,-1.160,-0.977,0.854,73.333,750264.000,1.000
5.046,-0.394,0.089,-0.142,-2.791,3.534,4.829,9.406,-0.018,0.994,-0.063,-1.160,-1.068,0.763,73.333,750265.000,1.000
2.900,-1.476,-2.069,-1.802,-4.352,3.788,4.983,7.400,-0.017,0.996,-0.062,-1.221,-1.282,0.610,73.333,750266.000,1.000
-0.354,-3.822,-5.399,-4.802,-7.763,0.604,1.330,1.539,-0.017,0.995,-0.063,-1.373,-1.434,0.458,73.333,750267.000,1.000
-3.483,-5.991,-8.398,-7.806,-11.124,-3.631,-4.687,-5.911,-0.014,0.994,-0.063,-1.343,-1.495,0.519,73.333,750268.000,1.000
-5.285,-6.603,-9.544,-9.055,-11.915,-5.801,-9.322,-11.113,-0.013,0.996,-0.062,-1.343,-1.526,0.397,73.333,750269.000,1.000
-5.294,-5.274,-8.193,-7.388,-8.728,-4.443,-9.365,-10.787,-0.010,0.998,-0.063,-1.404,-1.648,0.458,73.333,750270.000,1.000
-4.161,-2.962,-5.207,-3.250,-2.792,-0.935,-5.401,-5.175,-0.009,0.998,-0.060,-1.434,-1.709,0.366,73.333,750271.000,1.000
-3.155,-1.212,-2.347,1.575,2.905,1.923,-0.685,2.243,-0.008,0.997,-0.063,-1.434,-1.648,0.427,73.333,750272.000,1.000
-3.055,-0.830,-0.769,5.388,6.210,2.706,2.675,8.097,-0.008,0.998,-0.062,-1.434,-1.648,0.488,73.333,750273.000,1.000
-3.616,-1.407,-0.316,7.487,6.954,2.252,4.560,11.117,-0.007,0.997,-0.065,-1.434,-1.465,0.519,73.333,750274.000,1.000
-4.135,-2.100,-0.288,7.819,5.892,1.997,4.884,11.211,-0.007,0.997,-0.064,-1.495,-1.495,0.519,73.333,750275.000,1.000
-4.119,-2.343,-0.330,6.563,3.907,2.822,3.875,8.667,-0.006,0.999,-0.062,-1.465,-1.465,0.641,73.333,750276.000,1.000
-3.408,-1.890,-0.384,4.240,2.101,5.086,3.411,4.637,-0.005,0.999,-0.063,-1.495,-1.434,0.671,73.333,750277.000,1.000
-2.138,-0.905,-0.518,1.595,1.160,8.014,4.818,0.714,-0.006,1.000,-0.063,-1.465,-1.373,0.610,73.333,750278.000,1.000
-0.731,-0.008,-0.910,-0.844,0.626,9.553,6.463,-2.324,-0.005,0.998,-0.064,-1.465,-1.282,0.824,73.333,750279.000,1.000
0.328,0.148,-1.645,-2.879,-0.470,7.985,5.678,-4.700,-0.007,0.999,-0.066,-1.465,-1.282,0.854,73.333,750280.000,1.000
0.831,-0.621,-2.533,-4.411,-2.504,3.395,1.754,-6.740,-0.008,1.000,-0.066,-1.434,-1.282,0.854,73.333,750281.000,1.000
1.023,-1.885,-3.114,-5.248,-4.907,-2.309,-3.710,-8.199,-0.008,0.998,-0.063,-1.343,-1.190,0.916,73.333,750282.000,1.000
1.352,-2.962,-3.000,-5.260,-6.740,-6.683,-8.477,-8.608,-0.010,0.998,-0.063,-1.373,-1.190,0.793,73.333,750283.000,1.000
1.932,-3.604,-2.354,-4.788,-7.652,-8.690,-11.340,-8.121,-0.010,0.998,-0.063,-1.373,-1.160,0.824,73.333,750284.000,1.000
2.432,-4.108,-1.773,-4.575,-8.046,-9.118,-12.174,-7.585,-0.010,0.998,-0.065,-1.251,-1.221,0.916,73.333,750285.000,1.000
2.573,-4.635,-1.565,-5.062,-8.251,-8.893,-11.034,-7.524,-0.010,0.996,-0.063,-1.221,-1.221,0.885,73.333,750286.000,1.000
2.437,-4.894,-1.423,-5.900,-8.082,-8.137,-8.129,-7.404,-0.009,0.996,-0.063,-1.221,-1.312,0.916,73.333,750287.000,1.000
2.174,-4.665,-0.989,-6.356,-7.416,-7.095,-4.574,-6.452,-0.010,0.997,-0.059,-1.129,-1.434,0.854,73.333,750288.000,1.000
1.735,-4.174,-0.396,-6.010,-6.678,-6.684,-2.363,-4.821,-0.006,0.996,-0.058,-1.099,-1.251,0.671,73.333,750289.000,1.000
1.029,-3.717,-0.002,-4.895,-6.336,-7.406,-2.955,-3.265,-0.007,0.998,-0.063,-1.160,-1.221,0.732,73.333,750290.000,1.000
0.178,-3.223,0.123,-3.225,-6.200,-8.292,-5.698,-2.161,-0.006,0.996,-0.063,-1.099,-1.282,0.763,73.333,750291.000,1.000
-0.555,-2.453,0.224,-1.327,-5.691,-7.572,-8.236,-1.627,-0.007,0.993,-0.060,-1.068,-1.251,0.763,73.333,750292.000,1.000
-1.046,-1.458,0.421,0.330,-4.630,-4.354,-8.657,-1.953,-0.007,0.993,-0.062,-0.946,-1.099,0.793,73.333,750293.000,1.000
-1.420,-0.702,0.466,1.354,-3.456,0.364,-6.826,-3.102,-0.009,0.992,-0.064,-0.854,-1.068,0.702,73.333,750294.000,1.000
-1.936,-0.768,-0.039,1.727,-2.755,4.214,-3.764,-4.097,-0.007,0.993,-0.064,-0.732,-1.129,0.763,73.333,750295.000,1.000
-2.841,-1.981,-1.375,1.748,-2.828,4.983,-0.709,-3.516,-0.008,0.995,-0.063,-0.732,-1.099,0.732,73.333,750296.000,1.000
-4.345,-4.276,-3.646,1.520,-3.890,1.812,0.774,-1.236,-0.010,0.994,-0.060,-0.702,-1.068,0.885,73.333,750297.000,1.000
-6.531,-7.212,-6.766,0.597,-6.220,-4.221,-0.835,0.612,-0.012,0.995,-0.062,-0.671,-1.068,0.763,73.333,750298.000,1.000
-9.055,-9.931,-10.124,-1.431,-9.449,-10.091,-4.899,-0.401,-0.010,0.995,-0.063,-0.732,-1.068,0.824,73.333,750299.000,1.000
-11.101,-11.408,-12.558,-4.119,-12.131,-12.452,-8.117,-4.227,-0.014,0.997,-0.060,-0.824,-1.099,0.763,73.333,750300.000,1.000
-11.915,-11.131,-13.127,-6.341,-12.758,-10.337,-7.753,-8.285,-0.011,0.997,-0.061,-0.793,-1.038,0.702,73.333,750301.000,1.000
-11.378,-9.560,-11.906,-7.296,-11.220,-6.197,-4.703,-10.029,-0.010,0.997,-0.060,-0.824,-1.160,0.671,73.333,750302.000,1.000
-10.059,-7.870,-10.023,-7.182,-9.086,-4.039,-2.811,-9.262,-0.011,0.996,-0.060,-0.916,-1.160,0.641,73.333,750303.000,1.000
-8.704,-7.062,-8.854,-6.791,-8.220,-6.034,-5.263,-7.846,-0.011,0.994,-0.061,-0.854,-1.160,0.610,73.333,750304.000,1.000
-7.659,-7.189,-8.980,-6.603,-9.048,-10.537,-11.347,-7.483,-0.010,0.994,-0.060,-1.038,-1.190,0.763,73.333,750305.000,1.000
-6.749,-7.514,-9.898,-6.471,-10.321,-13.642,-16.801,-8.272,-0.010,0.994,-0.063,-0.885,-1.251,0.641,73.333,750306.000,1.000
-5.566,-7.211,-10.450,-5.940,-10.279,-12.607,-17.205,-8.870,-0.010,0.992,-0.063,-0.854,-1.221,0.671,73.333,750307.000,1.000
-3.822,-5.876,-9.621,-4.661,-7.932,-7.971,-11.313,-7.553,-0.011,0.996,-0.062,-0.854,-1.221,0.671,73.333,750308.000,1.000
-1.704,-3.873,-7.366,-2.860,-3.966,-3.144,-2.504,-3.878,-0.009,0.996,-0.059,-0.824,-1.312,0.671,73.333,750309.000,1.000
0.109,-2.208,-4.747,-1.493,-0.579,-1.746,3.173,0.199,-0.010,0.995,-0.058,-0.854,-1.343,0.671,73.333,750310.000,1.000
1.043,-1.581,-2.967,-1.507,0.341,-4.490,2.090,1.724,-0.009,0.995,-0.061,-0.793,-1.434,0.671,73.333,750311.000,1.000
1.195,-1.563,-2.260,-2.807,-0.936,-8.527,-3.545,-0.239,-0.009,0.996,-0.057,-0.885,-1.343,0.702,73.333,750312.000,1.000
1.102,-1.067,-1.944,-4.302,-2.365,-10.082,-8.093,-3.708,-0.009,0.994,-0.061,-0.824,-1.404,0.671,73.333,750313.000,1.000
1.085,0.442,-1.345,-4.954,-2.239,-7.703,-7.905,-5.968,-0.011,0.995,-0.062,-0.763,-1.526,0.549,73.333,750314.000,1.000
1.005,2.418,-0.388,-4.472,-0.493,-3.013,-3.660,-5.746,-0.010,0.997,-0.062,-0.854,-1.556,0.549,73.333,750315.000,1.000
0.524,3.698,0.452,-3.180,1.649,0.839,1.364,-3.391,-0.011,0.995,-0.060,-0.854,-1.434,0.641,73.333,750316.000,1.000
-0.613,3.262,0.538,-1.669,2.620,0.895,3.645,-0.227,-0.013,0.994,-0.059,-0.824,-1.465,0.641,73.333,750317.000,1.000
-2.458,0.823,-0.520,-0.618,1.351,-4.077,1.060,1.890,-0.011,0.997,-0.062,-0.732,-1.312,0.519,73.333,750318.000,1.000
-4.648,-2.783,-2.404,-0.434,-1.951,-12.158,-5.416,1.316,-0.010,0.997,-0.061,-0.671,-1.465,0.580,73.333,750319.000,1.000
-6.244,-5.644,-3.867,-0.709,-5.372,-18.260,-10.935,-1.905,-0.009,0.997,-0.059,-0.793,-1.495,0.610,73.333,750320.000,1.000
-6.224,-5.788,-3.423,-0.307,-6.115,-17.000,-9.358,-5.358,-0.010,0.998,-0.057,-0.885,-1.526,0.671,73.333,750321.000,1.000
-4.456,-2.875,-0.685,1.503,-2.875,-7.391,0.939,-6.243,-0.010,0.998,-0.060,-0.977,-1.526,0.610,73.333,750322.000,1.000
-2.062,1.148,2.944,4.028,2.472,5.159,13.819,-4.201,-0.010,0.999,-0.061,-1.007,-1.556,0.580,73.333,750323.000,1.000
-0.612,3.516,5.271,5.677,6.327,12.772,20.096,-1.260,-0.010,0.999,-0.061,-1.099,-1.465,0.610,73.333,750324.000,1.000
-0.990,2.803,5.004,5.343,6.441,11.224,15.357,0.420,-0.013,1.000,-0.060,-1.190,-1.556,0.641,73.333,750325.000,1.000
-2.930,-0.300,2.413,3.054,3.207,2.239,2.462,-0.123,-0.011,0.999,-0.059,-1.160,-1.556,0.610,73.333,750326.000,1.000
-5.289,-3.655,-1.011,-0.189,-1.033,-8.373,-11.170,-2.323,-0.010,0.999,-0.061,-1.160,-1.587,0.702,73.333,750327.000,1.000
-6.721,-4.940,-3.364,-2.867,-3.317,-14.001,-17.654,-4.148,-0.007,0.997,-0.063,-1.129,-1.556,0.641,73.333,750328.000,1.000
-6.458,-3.001,-3.382,-3.761,-1.763,-10.881,-13.059,-3.378,-0.007,0.997,-0.059,-1.099,-1.556,0.732,73.333,750329.000,1.000
-4.732,1.393,-1.186,-2.773,3.021,-0.664,-0.099,0.506,-0.008,0.996,-0.057,-1.190,-1.495,0.763,73.333,750330.000,1.000
-2.430,6.094,1.895,-0.934,8.310,10.605,13.821,5.862,-0.006,0.997,-0.060,-1.282,-1.404,0.885,73.333,750331.000,1.000
-0.365,8.975,4.295,0.409,11.220,16.676,21.647,10.176,-0.005,0.997,-0.059,-1.221,-1.373,0.916,73.333,750332.000,1.000
1.124,9.039,5.033,0.370,10.391,14.889,20.423,11.386,-0.004,0.999,-0.061,-1.221,-1.282,0.946,73.333,750333.000,1.000
2.140,6.797,4.095,-1.109,6.525,7.309,12.278,8.667,-0.007,0.997,-0.062,-1.251,-1.282,0.885,73.333,750334.000,1.000
3.106,3.962,2.512,-3.151,1.971,-1.037,2.750,3.191,-0.005,0.995,-0.061,-1.251,-1.190,0.916,73.333,750335.000,1.000
4.418,2.325,1.678,-4.518,-0.853,-5.899,-3.347,-2.463,-0.005,0.993,-0.058,-1.190,-1.068,0.916,73.333,750336.000,1.000
5.886,2.439,2.183,-4.763,-1.378,-6.560,-5.306,-6.822,-0.004,0.993,-0.061,-1.221,-1.007,0.946,73.333,750337.000,1.000
6.794,3.475,3.433,-4.495,-0.884,-5.047,-5.492,-10.425,-0.004,0.994,-0.059,-1.160,-0.946,1.007,73.333,750338.000,1.000
6.665,4.415,4.576,-4.224,-0.438,-3.333,-5.316,-13.347,-0.005,0.996,-0.059,-1.038,-0.977,1.007,73.333,750339.000,1.000
5.729,4.972,5.375,-3.548,0.368,-1.781,-3.441,-13.618,-0.006,0.995,-0.060,-0.946,-0.854,1.007,73.333,750340.000,1.000
4.543,5.263,5.946,-1.836,2.254,0.080,1.434,-9.498,-0.005,0.995,-0.062,-0.977,-0.793,1.007,73.333,750341.000,1.000
3.480,5.172,6.239,0.778,4.787,2.356,7.809,-2.179,-0.004,0.996,-0.060,-1.007,-0.702,0.946,73.333,750342.000,1.000
2.723,4.536,6.132,3.545,6.873,4.971,13.162,5.056,-0.005,0.996,-0.062,-1.007,-0.641,0.916,73.333,750343.000,1.000
2.385,3.465,5.621,5.777,7.885,7.660,16.353,9.557,-0.007,0.997,-0.058,-0.885,-0.671,0.885,73.333,750344.000,1.000
2.394,2.047,4.579,6.949,7.556,9.098,16.686,10.302,-0.007,0.998,-0.062,-0.946,-0.641,0.763,73.333,750345.000,1.000
2.498,0.235,2.753,6.727,5.772,7.568,13.413,7.565,-0.012,0.999,-0.059,-0.885,-0.610,0.885,73.333,750346.000,1.000
2.473,-1.833,0.276,5.335,3.053,2.977,7.565,3.054,-0.011,1.000,-0.059,-0.977,-0.763,0.671,73.333,750347.000,1.000
2.231,-3.757,-2.208,3.606,0.681,-2.538,2.554,-0.377,-0.010,0.999,-0.059,-0.977,-0.702,0.702,73.333,750348.000,1.000
1.830,-5.056,-3.922,2.429,-0.007,-5.916,2.084,-0.324,-0.011,0.997,-0.058,-1.007,-0.732,0.641,73.333,750349.000,1.000
1.470,-5.345,-4.354,2.166,1.449,-5.070,7.181,3.441,-0.009,0.996,-0.060,-1.160,-0.702,0.580,73.333,750350.000,1.000
1.352,-4.558,-3.529,2.456,4.181,-0.318,14.927,8.704,-0.011,0.997,-0.060,-1.038,-0.702,0.702,73.333,750351.000,1.000
1.482,-3.157,-1.992,2.547,6.437,5.383,20.272,12.344,-0.010,0.996,-0.060,-1.099,-0.763,0.641,73.333,750352.000,1.000
1.659,-1.994,-0.538,1.873,6.682,8.153,19.558,12.425,-0.012,0.996,-0.062,-1.129,-0.824,0.549,73.333,750353.000,1.000
1.648,-1.759,0.250,0.419,4.600,6.209,12.979,9.162,-0.010,0.997,-0.063,-1.099,-0.854,0.580,73.333,750354.000,1.000
1.320,-2.530,0.289,-1.427,1.132,1.249,4.152,4.080,-0.009,0.996,-0.063,-1.099,-0.854,0.580,73.333,750355.000,1.000
0.735,-3.792,-0.089,-3.187,-2.223,-3.206,-2.417,-1.166,-0.010,0.995,-0.061,-1.068,-0.885,0.641,73.333,750356.000,1.000
0.212,-4.772,-0.348,-4.427,-4.109,-4.577,-3.921,-5.044,-0.009,0.997,-0.061,-0.977,-0.916,0.580,73.333,750357.000,1.000
0.128,-4.941,-0.131,-4.918,-4.026,-3.128,-1.034,-6.364,-0.010,0.996,-0.060,-0.916,-0.916,0.610,73.333,750358.000,1.000
0.477,-4.384,0.422,-4.884,-2.783,-1.731,2.415,-5.080,-0.010,0.996,-0.059,-0.946,-1.038,0.671,73.333,750359.000,1.000
0.778,-3.614,0.868,-4.851,-1.793,-3.064,2.654,-2.495,-0.009,0.995,-0.061,-1.038,-1.038,0.641,73.333,750360.000,1.000
0.474,-2.992,0.898,-5.155,-1.696,-6.577,-0.570,-0.242,-0.010,0.994,-0.060,-0.916,-1.099,0.793,73.333,750361.000,1.000
-0.622,-2.370,0.623,-5.605,-1.757,-8.351,-3.343,0.943,-0.010,0.993,-0.062,-0.885,-1.099,0.824,73.333,750362.000,1.000
-2.154,-1.268,0.503,-5.549,-0.517,-4.176,-0.425,1.630,-0.009,0.994,-0.060,-0.793,-1.068,0.885,73.333,750363.000,1.000
-3.515,0.379,0.903,-4.393,2.659,6.011,9.504,3.004,-0.008,0.995,-0.061,-0.763,-1.038,0.946,73.333,750364.000,1.000
-4.448,1.543,1.500,-2.318,6.271,16.091,20.675,5.382,-0.010,0.997,-0.061,-0.763,-1.099,0.916,73.333,750365.000,1.000
-5.265,0.671,1.274,-0.398,7.397,17.914,24.046,7.314,-0.009,0.996,-0.061,-0.702,-1.068,0.916,73.333,750366.000,1.000
-6.364,-2.693,-0.546,0.279,4.305,8.640,15.346,6.737,-0.009,0.996,-0.062,-0.610,-1.160,0.885,73.333,750367.000,1.000
-7.605,-7.077,-3.578,-0.365,-1.672,-6.524,-0.906,3.329,-0.009,0.997,-0.061,-0.610,-1.190,0.977,73.333,750368.000,1.000
-8.234,-9.998,-6.383,-1.296,-6.952,-18.370,-14.812,-0.773,-0.007,0.997,-0.060,-0.641,-1.190,0.977,73.333,750369.000,1.000
-7.474,-9.729,-7.537,-1.316,-8.420,-20.176,-18.428,-2.941,-0.009,0.996,-0.060,-0.549,-1.221,0.916,73.333,750370.000,1.000
-5.268,-6.532,-6.764,-0.087,-5.629,-11.961,-10.996,-2.134,-0.010,0.997,-0.061,-0.488,-1.221,1.007,73.333,750371.000,1.000
-2.525,-2.484,-5.127,1.595,-0.922,0.027,1.417,0.735,-0.010,0.997,-0.060,-0.580,-1.251,0.885,73.333,750372.000,1.000
-0.554,0.025,-4.167,2.372,2.377,8.349,10.718,3.423,-0.009,0.998,-0.062,-0.580,-1.251,0.793,73.333,750373.000,1.000
-0.104,-0.008,-4.685,1.378,2.309,9.722,12.213,3.675,-0.009,0.998,-0.061,-0.702,-1.221,0.793,73.333,750374.000,1.000
-0.941,-1.808,-6.257,-1.059,-0.582,5.863,6.872,1.078,-0.009,0.998,-0.063,-0.580,-1.251,0.763,73.333,750375.000,1.000
-2.168,-3.761,-7.705,-3.551,-3.953,0.439,-0.618,-2.114,-0.008,0.996,-0.057,-0.519,-1.282,0.702,73.333,750376.000,1.000
-2.724,-4.456,-7.776,-4.412,-5.289,-3.622,-5.548,-2.554,-0.010,0.998,-0.060,-0.732,-1.312,0.732,73.333,750377.000,1.000
-1.920,-3.263,-5.825,-2.776,-3.477,-4.762,-5.810,1.042,-0.009,0.998,-0.061,-0.763,-1.404,0.671,73.333,750378.000,1.000
0.023,-0.714,-2.419,0.537,0.372,-2.779,-2.598,6.085,-0.009,0.997,-0.061,-0.824,-1.434,0.641,73.333,750379.000,1.000
1.937,1.578,0.705,3.328,3.512,0.739,0.414,7.925,-0.012,0.996,-0.058,-0.763,-1.465,0.610,73.333,750380.000,1.000
2.504,1.879,1.719,3.610,3.547,2.938,-0.350,3.874,-0.012,0.996,-0.058,-0.824,-1.495,0.549,73.333,750381.000,1.000
1.305,-0.258,0.191,1.224,0.476,2.238,-5.017,-4.277,-0.010,0.997,-0.060,-0.732,-1.556,0.366,73.333,750382.000,1.000
-0.894,-3.660,-2.620,-2.166,-3.443,-0.320,-10.340,-11.729,-0.010,0.991,-0.065,-0.732,-1.495,0.366,73.333,750383.000,1.000
-2.846,-6.694,-4.998,-4.668,-5.970,-2.822,-13.320,-14.819,-0.008,0.991,-0.063,-0.732,-1.526,0.427,73.333,750384.000,1.000
-3.681,-8.394,-5.991,-5.468,-6.475,-4.180,-13.173,-13.616,-0.007,0.993,-0.061,-0.763,-1.526,0.427,73.333,750385.000,1.000
-3.340,-8.795,-5.763,-4.880,-5.810,-4.596,-11.158,-10.998,-0.008,0.993,-0.060,-0.732,-1.434,0.488,73.333,750386.000,1.000
-2.574,-8.893,-5.335,-3.819,-5.633,-5.986,-10.513,-10.071,-0.008,0.993,-0.059,-0.671,-1.526,0.488,73.333,750387.000,1.000
-2.415,-9.980,-5.836,-3.128,-7.349,-10.859,-14.737,-12.091,-0.008,0.995,-0.061,-0.702,-1.465,0.458,73.333,750388.000,1.000
-3.358,-12.498,-7.563,-2.989,-10.909,-19.523,-24.180,-15.871,-0.008,0.994,-0.063,-0.641,-1.343,0.519,73.333,750389.000,1.000
-4.997,-15.578,-9.725,-2.916,-14.632,-28.733,-34.693,-18.855,-0.008,0.992,-0.063,-0.549,-1.343,0.488,73.333,750390.000,1.000
-6.333,-17.573,-11.067,-2.270,-16.203,-33.148,-39.749,-18.769,-0.009,0.994,-0.060,-0.427,-1.343,0.549,73.333,750391.000,1.000
-6.476,-17.118,-10.710,-0.796,-14.111,-28.822,-34.547,-14.662,-0.008,0.996,-0.058,-0.458,-1.282,0.488,73.333,750392.000,1.000
-5.269,-14.081,-8.703,1.146,-8.746,-16.529,-19.704,-7.289,-0.009,0.998,-0.059,-0.458,-1.190,0.580,73.333,750393.000,1.000
-3.306,-9.622,-5.903,2.826,-2.219,-1.608,-1.328,1.031,-0.011,0.997,-0.061,-0.427,-1.221,0.671,73.333,750394.000,1.000
-1.421,-5.372,-3.340,3.608,3.004,9.724,12.792,7.433,-0.010,0.999,-0.062,-0.671,-1.221,0.702,73.333,750395.000,1.000
-0.223,-2.552,-1.689,3.317,5.496,14.001,17.750,10.144,-0.008,1.000,-0.059,-0.671,-1.129,0.763,73.333,750396.000,1.000
0.093,-1.460,-1.014,2.348,5.508,11.963,14.149,9.427,-0.010,0.999,-0.060,-0.732,-1.160,0.793,73.333,750397.000,1.000
-0.362,-1.621,-0.954,1.382,4.437,7.139,6.694,6.983,-0.009,0.998,-0.061,-0.793,-1.099,0.763,73.333,750398.000,1.000
-1.420,-2.494,-1.214,0.835,3.442,2.487,-0.121,4.614,-0.010,0.999,-0.064,-0.763,-1.160,0.763,73.333,750399.000,1.000
-2.842,-3.715,-1.612,0.720,2.887,-0.828,-4.055,3.377,-0.011,0.998,-0.063,-0.793,-1.190,0.763,73.333,750400.000,1.000
-4.114,-4.738,-1.781,0.863,2.860,-1.813,-4.134,3.206,-0.013,0.999,-0.062,-0.854,-1.251,0.793,73.333,750401.000,1.000
-4.667,-4.961,-1.336,0.956,3.288,0.404,-0.676,3.031,-0.010,0.998,-0.063,-0.854,-1.190,0.732,73.333,750402.000,1.000
-4.357,-4.329,-0.354,0.659,3.719,4.696,4.077,1.982,-0.010,0.998,-0.064,-0.885,-1.251,0.763,73.333,750403.000,1.000
-3.529,-3.365,0.689,-0.096,3.661,7.983,7.299,0.429,-0.011,0.998,-0.061,-0.946,-1.343,0.671,73.333,750404.000,1.000
-2.719,-2.696,1.297,-1.099,2.925,7.492,7.189,-0.803,-0.012,0.996,-0.058,-1.038,-1.434,0.732,73.333,750405.000,1.000
-2.311,-2.619,1.244,-2.039,1.604,2.504,3.170,-1.563,-0.011,0.996,-0.059,-1.099,-1.373,0.732,73.333,750406.000,1.000
-2.252,-2.844,0.823,-2.473,0.158,-5.261,-3.937,-2.143,-0.009,0.994,-0.061,-1.129,-1.312,0.763,73.333,750407.000,1.000
-2.089,-2.607,0.746,-1.902,-0.597,-12.357,-11.598,-2.633,-0.011,0.992,-0.060,-1.038,-1.373,0.824,73.333,750408.000,1.000
-1.329,-1.197,1.651,-0.071,0.133,-15.238,-16.282,-2.705,-0.010,0.994,-0.060,-1.038,-1.282,0.793,73.333,750409.000,1.000
0.230,1.618,3.793,2.900,2.791,-11.950,-15.054,-1.546,-0.011,0.995,-0.061,-1.007,-1.343,0.763,73.333,750410.000,1.000
2.426,5.516,6.996,6.619,7.351,-2.910,-6.851,1.848,-0.010,0.997,-0.062,-0.885,-1.373,0.732,73.333,750411.000,1.000
4.791,9.707,10.637,10.468,13.163,9.383,6.897,7.726,-0.009,0.996,-0.065,-1.038,-1.373,0.732,73.333,750412.000,1.000
6.708,13.077,13.661,13.576,18.721,21.153,21.841,14.684,-0.007,0.999,-0.060,-1.068,-1.282,0.824,73.333,750413.000,1.000
7.545,14.449,14.810,14.876,21.780,28.164,31.294,19.761,-0.008,0.997,-0.059,-1.099,-1.373,0.824,73.333,750414.000,1.000
6.837,13.115,13.223,13.520,20.424,27.381,29.701,20.093,-0.008,0.996,-0.056,-1.129,-1.190,0.824,73.333,750415.000,1.000
4.694,9.589,9.230,9.671,14.787,19.461,17.404,15.402,-0.009,0.995,-0.059,-1.190,-1.251,0.885,73.333,750416.000,1.000
2.013,5.624,4.486,4.747,7.425,8.949,1.190,8.700,-0.009,0.994,-0.061,-1.221,-1.190,0.854,73.333,750417.000,1.000
-0.091,3.012,0.902,0.478,1.471,1.024,-10.724,3.912,-0.011,0.991,-0.062,-1.221,-1.190,0.854,73.333,750418.000,1.000
-1.081,2.458,-0.580,-2.166,-1.332,-1.461,-13.692,3.018,-0.011,0.993,-0.058,-1.099,-1.251,0.854,73.333,750419.000,1.000
-1.121,3.528,-0.268,-3.177,-1.166,1.298,-8.225,5.264,-0.009,0.996,-0.057,-1.160,-1.343,0.885,73.333,750420.000,1.000
-0.722,5.180,0.718,-3.220,0.275,6.628,0.827,7.901,-0.012,0.998,-0.059,-1.129,-1.343,0.946,73.333,750421.000,1.000
-0.428,6.413,1.206,-3.261,0.889,11.408,7.368,7.639,-0.011,0.997,-0.061,-1.068,-1.404,0.732,73.333,750422.000,1.000
-0.533,6.823,0.689,-3.950,-0.368,14.229,8.236,2.934,-0.010,0.998,-0.060,-1.221,-1.282,0.793,73.333,750423.000,1.000
-0.916,6.538,-0.504,-5.084,-2.902,14.816,4.671,-4.208,-0.011,0.999,-0.063,-1.190,-1.312,0.854,73.333,750424.000,1.000
-1.229,5.754,-1.675,-5.818,-5.301,12.501,0.023,-9.374,-0.010,1.000,-0.060,-1.221,-1.434,0.824,73.333,750425.000,1.000
-1.274,4.530,-2.445,-5.596,-6.649,6.827,-3.704,-9.575,-0.011,0.999,-0.062,-1.221,-1.404,0.824,73.333,750426.000,1.000
-1.255,2.832,-3.046,-4.892,-7.244,-1.466,-7.349,-5.973,-0.008,0.998,-0.060,-1.160,-1.404,0.885,73.333,750427.000,1.000
-1.629,0.707,-3.968,-4.821,-8.094,-10.789,-12.787,-2.539,-0.009,0.998,-0.062,-1.221,-1.312,0.885,73.333,750428.000,1.000
-2.590,-1.285,-5.178,-5.827,-9.445,-18.580,-19.510,-2.110,-0.009,1.000,-0.063,-1.282,-1.251,1.007,73.333,750429.000,1.000
-3.722,-1.972,-5.746,-6.897,-9.978,-21.149,-23.506,-3.946,-0.008,1.000,-0.062,-1.282,-1.221,0.977,73.333,750430.000,1.000
-4.269,-0.441,-4.585,-6.339,-7.949,-15.951,-20.467,-5.065,-0.008,1.000,-0.060,-1.251,-1.221,1.068,73.333,750431.000,1.000
-3.705,3.004,-1.479,-3.259,-3.048,-4.378,-9.936,-3.427,-0.008,0.999,-0.058,-1.221,-1.312,1.129,73.333,750432.000,1.000
-2.004,7.047,2.753,1.828,3.279,8.901,4.199,0.648,-0.006,0.999,-0.059,-1.251,-1.251,1.251,73.333,750433.000,1.000
0.436,10.268,6.817,7.385,8.847,18.897,16.034,5.269,-0.007,1.000,-0.059,-1.312,-1.068,1.129,73.333,750434.000,1.000
2.914,11.696,9.439,11.531,11.703,22.315,20.402,8.123,-0.008,0.999,-0.057,-1.343,-1.007,1.160,73.333,750435.000,1.000
4.655,11.058,9.821,12.885,11.027,18.668,16.023,7.733,-0.008,0.997,-0.056,-1.251,-0.916,1.221,73.333,750436.000,1.000
5.175,8.830,7.982,11.255,7.581,10.381,6.337,4.390,-0.009,0.998,-0.057,-1.251,-0.885,1.129,73.333,750437.000,1.000
4.593,5.923,4.681,7.643,3.003,1.074,-4.022,-0.246,-0.011,0.995,-0.059,-1.221,-0.916,1.160,73.333,750438.000,1.000
3.765,3.499,1.257,3.813,-0.869,-5.871,-11.943,-3.892,-0.010,0.996,-0.059,-1.160,-0.885,1.190,73.333,750439.000,1.000
3.997,2.902,-0.577,1.674,-2.130,-7.521,-14.959,-4.235,-0.009,0.998,-0.056,-1.160,-0.916,1.160,73.333,750440.000,1.000
6.281,5.021,0.428,2.301,0.300,-2.703,-11.514,-0.406,-0.010,0.999,-0.059,-1.221,-0.885,1.160,73.333,750441.000,1.000
10.534,9.406,4.116,5.246,5.479,6.234,-3.079,5.925,-0.010,0.997,-0.060,-1.160,-0.854,1.007,73.333,750442.000,1.000
15.541,14.388,8.940,8.987,11.001,14.774,6.674,11.834,-0.009,0.997,-0.059,-1.190,-0.977,1.068,73.333,750443.000,1.000
19.614,18.194,12.916,11.976,14.806,19.843,14.965,15.283,-0.009,0.997,-0.054,-1.190,-0.885,0.946,73.333,750444.000,1.000
21.371,19.763,14.606,13.227,16.051,21.238,20.534,15.730,-0.009,0.997,-0.054,-1.160,-0.763,1.007,73.333,750445.000,1.000
20.279,18.894,13.544,12.446,14.907,20.248,22.522,13.842,-0.011,0.996,-0.055,-1.129,-0.824,0.977,73.333,750446.000,1.000
16.821,16.093,10.238,10.000,12.192,18.015,20.716,11.163,-0.010,0.995,-0.055,-1.099,-0.854,0.946,73.333,750447.000,1.000
12.133,12.196,5.710,6.575,8.849,14.703,16.120,9.163,-0.011,0.994,-0.054,-1.038,-0.885,0.854,73.333,750448.000,1.000
7.372,7.968,0.910,2.736,5.400,9.903,10.342,8.007,-0.012,0.990,-0.058,-0.977,-0.977,0.824,73.333,750449.000,1.000
3.320,4.051,-3.459,-1.147,2.005,4.022,4.805,6.496,-0.010,0.990,-0.058,-0.824,-0.977,0.854,73.333,750450.000,1.000
0.369,1.106,-6.741,-4.588,-0.950,-1.135,0.650,3.603,-0.010,0.991,-0.056,-0.793,-0.946,0.763,73.333,750451.000,1.000
-1.271,-0.190,-8.162,-6.717,-2.493,-3.281,-0.904,-0.014,-0.011,0.991,-0.060,-0.854,-1.068,0.885,73.333,750452.000,1.000
-1.539,0.506,-7.223,-6.651,-1.686,-1.167,0.875,-2.614,-0.009,0.992,-0.060,-0.641,-1.007,0.885,73.333,750453.000,1.000
-0.799,2.661,-4.467,-4.374,1.075,3.972,4.531,-3.483,-0.008,0.994,-0.060,-0.519,-1.038,1.007,73.333,750454.000,1.000
0.201,4.986,-1.386,-0.898,4.055,8.836,6.923,-3.392,-0.006,0.993,-0.057,-0.610,-1.007,1.007,73.333,750455.000,1.000
0.957,6.460,0.754,2.685,5.857,10.830,6.277,-2.917,-0.008,0.996,-0.054,-0.549,-0.946,1.068,73.333,750456.000,1.000
1.544,6.954,1.680,5.763,6.322,9.787,3.132,-1.849,-0.009,0.998,-0.055,-0.549,-1.038,1.007,73.333,750457.000,1.000
2.170,6.793,1.660,7.785,5.784,7.241,-1.058,-0.368,-0.010,0.999,-0.057,-0.580,-1.038,0.977,73.333,750458.000,1.000
2.761,6.326,1.002,8.160,4.629,5.346,-4.241,0.806,-0.011,1.000,-0.062,-0.580,-0.977,1.007,73.333,750459.000,1.000
3.121,5.954,0.149,6.860,3.529,5.807,-4.015,1.658,-0.011,0.999,-0.057,-0.610,-0.946,0.977,73.333,750460.000,1.000
3.157,6.012,-0.427,4.558,3.099,8.527,0.181,2.906,-0.011,1.001,-0.055,-0.671,-1.038,0.977,73.333,750461.000,1.000
2.763,6.394,-0.690,1.929,3.042,11.281,5.372,4.442,-0.009,1.000,-0.059,-0.854,-1.007,0.946,73.333,750462.000,1.000
1.845,6.617,-1.054,-0.747,2.285,11.182,6.855,4.918,-0.010,0.998,-0.058,-0.946,-1.129,0.854,73.333,750463.000,1.000
0.758,6.538,-1.596,-3.050,0.488,7.248,2.629,3.724,-0.005,0.997,-0.058,-0.916,-1.099,0.854,73.333,750464.000,1.000
0.351,6.687,-1.626,-4.153,-1.144,1.610,-4.464,2.316,-0.002,0.996,-0.058,-1.007,-1.038,0.916,73.333,750465.000,1.000
1.160,7.516,-0.561,-3.670,-1.266,-2.494,-9.851,2.425,-0.002,0.993,-0.057,-0.854,-0.916,1.007,73.333,750466.000,1.000
2.750,8.686,1.217,-2.357,0.006,-3.510,-11.384,3.867,-0.001,0.994,-0.058,-0.885,-0.977,1.099,73.333,750467.000,1.000
4.167,9.492,2.804,-1.448,1.530,-1.791,-9.647,5.002,-0.003,0.994,-0.057,-0.885,-0.824,1.129,73.333,750468.000,1.000
4.765,9.640,3.671,-1.666,2.408,1.819,-6.161,4.299,-0.005,0.994,-0.054,-0.824,-0.702,1.221,73.333,750469.000,1.000
4.439,9.211,3.805,-3.058,2.231,6.318,-2.858,1.000,-0.006,0.995,-0.054,-0.885,-0.671,1.251,73.333,750470.000,1.000
3.432,8.231,3.342,-5.194,0.879,10.051,-1.632,-4.414,-0.007,0.998,-0.057,-0.885,-0.610,1.343,73.333,750471.000,1.000
2.264,6.800,2.583,-7.118,-1.068,11.512,-2.335,-9.685,-0.006,0.996,-0.058,-0.793,-0.610,1.312,73.333,750472.000,1.000
1.616,5.433,2.129,-7.578,-2.126,10.775,-2.276,-11.596,-0.007,0.997,-0.063,-0.793,-0.641,1.343,73.333,750473.000,1.000
1.902,4.764,2.475,-5.915,-1.075,9.036,0.699,-8.460,-0.006,0.999,-0.061,-0.793,-0.641,1.434,73.333,750474.000,1.000
2.841,4.867,3.428,-2.794,1.659,6.895,5.415,-1.895,-0.005,0.998,-0.061,-0.854,-0.641,1.495,73.333,750475.000,1.000
3.602,5.194,4.190,0.252,4.304,4.106,8.596,4.372,-0.006,0.998,-0.061,-0.824,-0.641,1.404,73.333,750476.000,1.000
3.450,5.202,4.171,2.121,5.421,0.733,8.164,7.503,-0.008,0.998,-0.058,-0.946,-0.519,1.465,73.333,750477.000,1.000
2.315,4.908,3.581,2.946,5.053,-2.176,4.927,7.316,-0.009,0.999,-0.057,-0.854,-0.549,1.343,73.333,750478.000,1.000
0.870,4.880,3.294,3.851,4.560,-3.013,1.841,5.936,-0.011,0.999,-0.062,-0.854,-0.519,1.190,73.333,750479.000,1.000
0.128,5.763,4.213,6.007,5.497,-0.670,1.906,6.043,-0.013,0.999,-0.059,-1.038,-0.519,1.038,73.333,750480.000,1.000
0.771,7.633,6.483,9.568,8.153,4.248,5.647,8.455,-0.013,0.998,-0.058,-1.038,-0.610,0.885,73.333,750481.000,1.000
2.726,9.770,9.292,13.392,11.093,9.283,10.356,11.247,-0.013,0.999,-0.055,-1.190,-0.824,0.671,73.333,750482.000,1.000
5.329,11.218,11.566,15.976,12.578,11.949,12.789,11.978,-0.010,1.000,-0.056,-1.221,-0.946,0.519,73.333,750483.000,1.000
7.745,11.382,12.728,16.525,12.072,11.318,11.969,10.190,-0.010,1.000,-0.057,-1.160,-0.916,0.397,73.333,750484.000,1.000
9.244,10.102,12.762,15.144,10.146,7.654,8.898,7.251,-0.008,1.003,-0.063,-1.160,-0.977,0.427,73.333,750485.000,1.000
9.462,7.663,11.921,12.572,7.783,2.038,5.241,4.908,-0.005,1.004,-0.061,-1.190,-1.007,0.366,73.333,750486.000,1.000
8.584,4.837,10.558,9.816,5.973,-3.440,2.744,4.257,-0.002,1.003,-0.059,-1.221,-0.977,0.305,73.333,750487.000,1.000
7.143,2.491,9.003,7.634,5.258,-6.557,2.536,5.215,-0.001,1.004,-0.059,-1.343,-0.946,0.397,73.333,750488.000,1.000
5.621,1.090,7.454,6.169,5.357,-6.468,4.348,6.534,-0.003,1.003,-0.061,-1.343,-0.732,0.519,73.333,750489.000,1.000
4.272,0.550,5.947,5.022,5.294,-4.300,6.369,6.426,-0.003,1.002,-0.061,-1.312,-0.610,0.488,73.333,750490.000,1.000
3.176,0.467,4.382,3.644,4.060,-2.206,6.337,3.693,-0.001,1.000,-0.059,-1.251,-0.488,0.671,73.333,750491.000,1.000
2.425,0.597,2.824,1.886,1.571,-1.339,3.832,-1.094,-0.003,0.998,-0.057,-1.251,-0.427,0.763,73.333,750492.000,1.000
2.301,1.230,1.774,0.302,-0.874,-0.522,1.508,-5.546,-0.003,0.999,-0.055,-1.282,-0.305,0.763,73.333,750493.000,1.000
3.065,2.855,1.836,-0.304,-1.597,2.449,2.705,-7.228,-0.006,0.999,-0.056,-1.251,-0.183,0.916,73.333,750494.000,1.000
4.504,5.339,3.016,0.301,-0.243,7.922,7.612,-5.706,-0.005,0.999,-0.055,-1.282,-0.183,0.977,73.333,750495.000,1.000
5.964,7.752,4.607,1.594,1.942,13.547,13.141,-2.439,-0.007,0.997,-0.055,-1.221,-0.153,0.916,73.333,750496.000,1.000
6.797,8.972,5.768,2.763,3.307,16.204,15.950,0.793,-0.009,0.996,-0.053,-1.190,-0.153,0.946,73.333,750497.000,1.000
6.640,8.235,5.929,3.086,2.682,13.953,14.101,2.587,-0.010,0.996,-0.053,-1.099,-0.183,0.977,73.333,750498.000,1.000
5.545,5.563,4.968,2.264,-0.179,7.174,7.788,2.018,-0.010,0.996,-0.055,-1.038,-0.153,1.099,73.333,750499.000,1.000
4.065,2.092,3.400,0.794,-4.080,-0.788,0.386,-0.688,-0.011,0.994,-0.055,-0.977,-0.214,1.068,73.333,750500.000,1.000
2.960,-0.555,2.082,-0.267,-6.982,-5.576,-3.501,-3.961,-0.012,0.991,-0.057,-0.885,-0.244,1.038,73.333,750501.000,1.000
2.630,-1.605,1.566,-0.187,-7.786,-5.811,-2.595,-6.089,-0.012,0.990,-0.056,-0.854,-0.305,1.068,73.333,750502.000,1.000
2.931,-1.477,1.864,0.910,-7.027,-3.732,0.239,-6.540,-0.012,0.990,-0.053,-0.763,-0.336,1.068,73.333,750503.000,1.000
3.479,-0.929,2.760,2.310,-5.851,-1.839,1.740,-6.049,-0.014,0.989,-0.055,-0.702,-0.458,1.038,73.333,750504.000,1.000
3.973,-0.380,4.079,3.338,-4.881,-0.771,1.113,-5.557,-0.010,0.990,-0.054,-0.549,-0.580,1.038,73.333,750505.000,1.000
4.324,0.226,5.813,3.902,-3.747,0.366,0.287,-4.854,-0.013,0.991,-0.057,-0.397,-0.580,1.038,73.333,750506.000,1.000
4.638,1.259,8.113,4.604,-1.353,3.040,2.545,-2.497,-0.011,0.990,-0.057,-0.366,-0.610,1.068,73.333,750507.000,1.000
4.983,2.767,10.786,6.035,2.681,7.360,8.995,2.289,-0.009,0.990,-0.057,-0.214,-0.610,1.068,73.333,750508.000,1.000
5.125,3.938,12.867,7.913,6.885,10.761,16.156,7.980,-0.009,0.990,-0.058,0.000,-0.580,1.068,73.333,750509.000,1.000
4.643,3.638,13.166,9.175,8.957,9.998,18.820,11.706,-0.009,0.991,-0.057,0.031,-0.580,1.099,73.333,750510.000,1.000
3.364,1.481,11.281,8.854,7.757,4.330,14.827,11.564,-0.008,0.991,-0.058,0.092,-0.580,1.099,73.333,750511.000,1.000
1.521,-1.887,7.885,6.687,3.904,-4.033,5.849,7.685,-0.008,0.994,-0.059,0.153,-0.702,1.099,73.333,750512.000,1.000
-0.535,-5.463,4.004,2.998,-1.195,-12.129,-5.172,1.476,-0.009,0.993,-0.058,0.122,-0.580,1.190,73.333,750513.000,1.000
-2.557,-8.515,0.361,-1.541,-6.170,-18.056,-15.340,-5.192,-0.008,0.993,-0.059,0.153,-0.671,1.221,73.333,750514.000,1.000
-4.335,-10.598,-2.572,-5.925,-9.777,-20.996,-21.779,-10.121,-0.008,0.993,-0.058,0.366,-0.702,1.343,73.333,750515.000,1.000
-5.675,-11.435,-4.430,-9.091,-11.139,-20.515,-22.658,-11.544,-0.008,0.994,-0.059,0.336,-0.702,1.282,73.333,750516.000,1.000
-6.505,-11.003,-5.068,-10.434,-10.165,-16.489,-18.171,-9.273,-0.008,0.994,-0.060,0.458,-0.793,1.373,73.333,750517.000,1.000
-6.923,-9.713,-4.717,-10.065,-7.673,-10.119,-10.474,-4.701,-0.009,0.995,-0.062,0.305,-0.824,1.343,73.333,750518.000,1.000
-7.181,-8.344,-3.959,-8.692,-5.073,-4.292,-3.043,0.077,-0.008,0.999,-0.063,0.244,-0.793,1.404,73.333,750519.000,1.000
