EEG 1,EEG 2,EEG 3,EEG 4,EEG 5,EEG 6,EEG 7,EEG 8,Accelerometer X,Accelerometer Y,Accelerometer Z,Gyroscope X,Gyroscope Y,Gyroscope Z,Battery Level,Counter,Validation Indicator
-5033.862,-4638.046,-5009.891,-3112.219,-3871.746,5186.446,-3610.752,5185.594,-0.032,0.952,-0.243,0.000,0.000,0.000,80.000,1.000,1.000
-37501.935,-35543.482,-36362.632,-23785.266,-25260.969,36182.756,-21630.657,36155.513,-0.039,0.959,-0.251,0.000,0.000,0.000,80.000,2.000,1.000
-133238.120,-127822.021,-125337.215,-88890.606,-85055.251,120802.360,-58347.331,120686.452,-0.039,0.957,-0.256,0.000,0.000,0.000,80.000,3.000,1.000
-307979.284,-293923.180,-279263.686,-218640.105,-184805.827,263202.054,-95890.210,261644.527,-0.038,0.959,-0.257,0.000,0.000,0.000,80.000,4.000,1.000
-532987.826,-490709.657,-463585.999,-405337.840,-292858.225,432192.827,-110947.589,422016.215,-0.038,0.958,-0.257,-0.336,0.336,0.397,80.000,5.000,1.000
-750183.236,-635998.374,-621030.101,-606179.538,-362034.660,581776.832,-107599.587,545244.333,-0.037,0.963,-0.261,-3.784,3.906,5.035,80.000,6.000,1.000
-904480.117,-661147.042,-697373.651,-749760.883,-359986.685,675405.195,-126515.208,586675.987,-0.037,0.965,-0.262,-1.831,1.801,2.625,80.000,7.000,1.000
-958585.539,-550526.914,-661448.121,-762561.968,-286328.377,700060.825,-215450.133,535484.730,-0.041,0.969,-0.261,-0.427,0.610,1.251,80.000,8.000,1.000
-882491.739,-342286.288,-522960.142,-612100.380,-169748.398,670729.184,-382163.547,419407.520,-0.041,0.971,-0.264,0.000,0.000,0.610,80.000,9.000,1.000
-656544.286,-102133.530,-330909.267,-333967.047,-52080.502,621378.622,-577343.411,288950.962,-0.041,0.971,-0.266,0.183,-0.153,0.305,80.000,10.000,1.000
-304900.268,108598.643,-145396.317,-15416.890,31952.997,582973.329,-721885.754,188107.796,-0.042,0.970,-0.265,0.122,-0.122,0.336,80.000,11.000,1.000
96760.500,258369.176,-6979.322,252184.715,70700.802,562513.140,-751408.532,131596.772,-0.041,0.971,-0.264,0.153,-0.244,0.305,80.000,12.000,1.000
458183.331,354495.352,73351.016,416277.003,76375.080,542244.233,-652661.745,105617.420,-0.041,0.970,-0.266,0.122,-0.214,0.244,80.000,13.000,1.000
708798.397,426043.786,104988.810,476590.308,69263.287,500533.115,-472608.988,88126.116,-0.044,0.972,-0.265,0.000,-0.183,0.214,80.000,14.000,1.000
814602.593,491978.223,104055.945,469286.390,61124.046,431763.964,-289603.901,67866.433,-0.045,0.972,-0.261,-0.092,-0.305,0.183,80.000,15.000,1.000
790194.374,548452.815,86157.728,438887.831,53271.883,346806.710,-164224.999,46493.890,-0.048,0.973,-0.260,-0.122,-0.427,-0.092,80.000,16.000,1.000
693573.488,585680.203,65424.298,415766.179,45815.659,260790.977,-108685.594,28061.259,-0.049,0.974,-0.260,-0.275,-0.610,-0.244,80.000,17.000,1.000
591668.071,605288.906,53072.187,408711.427,42745.854,184566.030,-97303.970,11673.870,-0.049,0.972,-0.259,-0.458,-0.793,-0.397,80.000,18.000,1.000
519928.707,615856.820,53195.786,412200.251,46982.309,124681.854,-100194.140,-5245.680,-0.052,0.972,-0.259,-0.488,-1.007,-0.610,80.000,19.000,1.000
472437.942,619707.011,61117.535,418510.706,54714.106,85106.366,-104156.397,-20806.112,-0.053,0.971,-0.258,-0.488,-1.190,-0.702,80.000,20.000,1.000
428289.033,612752.318,68412.558,423850.805,58545.854,65539.242,-107365.894,-29678.851,-0.051,0.971,-0.257,-0.549,-1.312,-0.732,80.000,21.000,1.000
382271.510,595964.014,70448.246,426855.193,55775.729,59702.085,-106184.194,-29887.646,-0.051,0.970,-0.260,-0.580,-1.495,-0.793,80.000,22.000,1.000
347176.967,579773.250,68820.225,425941.935,50883.110,58523.517,-94779.167,-25735.599,-0.051,0.969,-0.255,-0.671,-1.678,-0.763,80.000,23.000,1.000
331779.509,574056.283,67221.403,420310.248,49346.103,56103.663,-74603.367,-23030.382,-0.050,0.969,-0.257,-0.610,-1.801,-0.671,80.000,24.000,1.000
326747.812,577345.070,66726.944,412200.598,51237.547,52017.579,-56330.257,-23158.286,-0.049,0.968,-0.256,-0.671,-1.953,-0.488,80.000,25.000,1.000
315998.642,579754.173,65844.131,405828.087,52434.689,48151.141,-49129.626,-23301.198,-0.052,0.967,-0.255,-0.671,-1.923,-0.427,80.000,26.000,1.000
296006.864,575298.218,63829.580,403415.272,50725.853,44843.314,-50924.395,-21442.591,-0.052,0.967,-0.255,-0.610,-2.106,-0.336,80.000,27.000,1.000
277273.605,567597.566,62127.356,403214.146,48348.757,40840.274,-52108.243,-19095.940,-0.052,0.964,-0.255,-0.610,-2.106,-0.183,80.000,28.000,1.000
268216.312,563094.378,62298.809,402002.575,48318.082,35824.823,-47272.096,-18760.996,-0.051,0.963,-0.256,-0.671,-2.075,-0.031,80.000,29.000,1.000
264331.817,562288.270,63775.811,398799.854,50254.311,31287.788,-39973.588,-20331.870,-0.052,0.962,-0.252,-0.641,-2.167,0.092,80.000,30.000,1.000
255725.566,560289.005,64556.229,395292.901,51217.939,28607.085,-36039.455,-21357.376,-0.051,0.963,-0.253,-0.580,-2.197,0.153,80.000,31.000,1.000
240695.978,554307.493,63681.496,393023.046,49782.671,27265.461,-35644.692,-20334.091,-0.050,0.962,-0.253,-0.458,-2.319,0.336,80.000,32.000,1.000
226930.571,547220.110,62164.729,391367.294,47651.144,25620.226,-34184.980,-18416.875,-0.049,0.961,-0.252,-0.427,-2.380,0.397,80.000,33.000,1.000
220405.871,543160.216,61450.573,388733.848,47096.127,22949.239,-29210.827,-17615.711,-0.048,0.962,-0.256,-0.275,-2.350,0.458,80.000,34.000,1.000
217942.851,542047.245,61682.393,384919.672,48087.263,20022.701,-23485.756,-18259.930,-0.047,0.962,-0.255,-0.183,-2.441,0.458,80.000,35.000,1.000
212438.708,540265.126,61870.638,381350.109,48746.135,17784.827,-20821.361,-18950.815,-0.043,0.964,-0.252,-0.061,-2.502,0.580,80.000,36.000,1.000
202272.300,535669.636,61342.400,379106.663,47981.183,16180.772,-21107.468,-18581.374,-0.044,0.963,-0.253,-0.031,-2.441,0.519,80.000,37.000,1.000
192354.909,529901.758,60458.900,377562.523,46647.449,14529.744,-20959.392,-17573.353,-0.043,0.964,-0.255,-0.061,-2.350,0.580,80.000,38.000,1.000
186873.808,525627.544,59936.492,375338.213,46105.061,12564.825,-18284.687,-17029.608,-0.040,0.964,-0.253,-0.031,-2.411,0.458,80.000,39.000,1.000
184229.902,523120.278,59923.835,372095.746,46479.399,10641.087,-14487.261,-17285.832,-0.040,0.964,-0.251,-0.031,-2.258,0.427,80.000,40.000,1.000
180064.790,520507.286,59966.400,368797.349,46790.961,9086.026,-12086.767,-17700.020,-0.040,0.964,-0.253,0.061,-2.197,0.397,80.000,41.000,1.000
173088.835,516529.263,59649.626,366313.959,46358.635,7790.623,-11536.131,-17604.170,-0.039,0.963,-0.254,0.183,-2.106,0.336,80.000,42.000,1.000
165980.226,511856.476,59017.373,364364.892,45501.347,6498.255,-11171.669,-17034.415,-0.038,0.962,-0.255,0.214,-1.923,0.244,80.000,43.000,1.000
161302.940,507775.499,58407.376,362058.674,44916.912,5168.206,-9612.509,-16512.723,-0.037,0.964,-0.257,0.214,-1.892,0.305,80.000,44.000,1.000
158493.782,504560.660,58067.716,359103.309,44829.945,3889.296,-7233.927,-16403.240,-0.038,0.962,-0.258,0.275,-1.709,0.244,80.000,45.000,1.000
155255.720,501516.134,57964.053,356071.119,44911.127,2651.737,-5303.996,-16609.349,-0.040,0.961,-0.255,0.275,-1.404,0.153,80.000,46.000,1.000
150583.644,498040.241,57848.861,353550.710,44768.799,1418.415,-4400.455,-16759.390,-0.039,0.961,-0.256,0.397,-1.282,0.092,80.000,47.000,1.000
145482.382,494137.081,57486.526,351424.919,44307.398,299.203,-3996.534,-16573.198,-0.038,0.962,-0.256,0.427,-1.221,0.092,80.000,48.000,1.000
141288.754,490131.010,56888.544,349135.002,43717.394,-581.358,-3244.721,-16111.839,-0.039,0.963,-0.253,0.610,-1.129,0.000,80.000,49.000,1.000
138228.761,486337.484,56342.081,346426.286,43286.869,-1353.977,-1825.035,-15735.447,-0.040,0.962,-0.254,0.580,-0.977,0.000,80.000,50.000,1.000
135582.947,482945.160,56115.027,343588.360,43171.136,-2301.994,-135.405,-15746.881,-0.042,0.964,-0.257,0.732,-0.854,-0.061,80.000,51.000,1.000
132590.625,479840.636,56107.508,341010.878,43212.625,-3437.945,1131.182,-16019.131,-0.043,0.963,-0.256,0.793,-0.793,-0.092,80.000,52.000,1.000
129010.861,476541.188,55916.612,338720.327,43034.914,-4409.979,1652.701,-16076.151,-0.043,0.964,-0.259,0.885,-0.580,-0.092,80.000,53.000,1.000
125228.663,472657.358,55332.158,336429.835,42460.867,-4977.879,1863.292,-15654.419,-0.046,0.964,-0.259,0.885,-0.488,0.000,80.000,54.000,1.000
121999.699,468502.389,54652.988,333921.456,41802.986,-5406.903,2574.049,-15089.007,-0.045,0.966,-0.260,0.946,-0.519,0.031,80.000,55.000,1.000
119750.676,464873.305,54340.469,331262.204,41544.760,-6147.422,4040.310,-14944.262,-0.044,0.966,-0.258,0.946,-0.336,0.183,80.000,56.000,1.000
117942.602,462012.917,54399.368,328672.648,41700.674,-7190.719,5537.980,-15271.885,-0.043,0.966,-0.255,0.946,-0.397,0.336,80.000,57.000,1.000
115481.068,459112.632,54307.692,326253.596,41697.913,-8035.310,6167.140,-15485.209,-0.046,0.969,-0.256,0.977,-0.275,0.366,80.000,58.000,1.000
112062.334,455204.348,53602.834,323817.968,41004.634,-8375.351,6041.590,-15106.409,-0.049,0.973,-0.259,0.977,-0.305,0.397,80.000,59.000,1.000
108767.714,450351.631,52340.464,320953.229,39698.231,-8559.176,6267.275,-14432.253,-0.050,0.974,-0.258,0.916,-0.214,0.458,80.000,60.000,1.000
106801.030,445460.169,50820.276,317295.396,38192.894,-9133.156,7543.180,-14178.075,-0.046,0.973,-0.258,0.824,-0.305,0.580,80.000,61.000,1.000
105807.399,440859.422,48978.067,312791.209,36480.165,-10075.811,9164.431,-14517.934,-0.048,0.974,-0.260,0.671,-0.305,0.488,80.000,62.000,1.000
104152.953,435660.134,46352.106,307702.131,33995.514,-10807.023,9874.943,-14819.525,-0.049,0.976,-0.260,0.549,-0.366,0.580,80.000,63.000,1.000
101066.165,428979.186,42780.640,302373.167,30439.427,-10989.715,9556.380,-14480.373,-0.050,0.976,-0.259,0.458,-0.488,0.488,80.000,64.000,1.000
97798.363,421437.734,38893.310,297024.408,26467.364,-11011.199,9461.300,-13754.920,-0.050,0.974,-0.258,0.244,-0.580,0.549,80.000,65.000,1.000
96036.330,414722.396,35610.799,291759.228,23173.216,-11456.948,10563.809,-13427.634,-0.050,0.971,-0.257,0.122,-0.641,0.549,80.000,66.000,1.000
95576.257,409592.651,33192.585,286704.196,20902.002,-12299.064,12212.415,-13750.317,-0.050,0.967,-0.260,0.092,-0.671,0.549,80.000,67.000,1.000
94492.749,404980.754,31052.485,282029.780,18934.167,-12932.893,12969.104,-14091.515,-0.047,0.964,-0.259,0.031,-0.702,0.488,80.000,68.000,1.000
91723.744,399466.211,28589.332,277779.422,16489.999,-13014.790,12558.823,-13790.297,-0.044,0.966,-0.259,0.061,-0.793,0.488,80.000,69.000,1.000
88570.662,393171.595,25941.395,273746.803,13734.826,-12936.024,12270.851,-13054.548,-0.042,0.968,-0.261,0.122,-0.580,0.580,80.000,70.000,1.000
86970.792,387516.019,23697.965,269639.029,11463.191,-13277.748,13221.761,-12675.083,-0.042,0.969,-0.257,0.153,-0.610,0.610,80.000,71.000,1.000
86840.812,383194.825,22020.994,265388.481,9939.338,-14010.452,14832.233,-12948.270,-0.043,0.968,-0.259,0.122,-0.580,0.671,80.000,72.000,1.000
86153.770,379190.525,20401.181,261223.280,8506.502,-14546.617,15610.184,-13281.646,-0.043,0.967,-0.260,0.092,-0.519,0.702,80.000,73.000,1.000
83695.228,374174.756,18363.088,257374.747,6491.382,-14558.721,15180.542,-13011.766,-0.043,0.963,-0.263,0.153,-0.519,0.732,80.000,74.000,1.000
80726.315,368343.655,16123.499,253780.089,4136.835,-14422.203,14787.892,-12303.576,-0.040,0.962,-0.260,0.214,-0.488,0.641,80.000,75.000,1.000
79255.617,363145.655,14294.773,250171.533,2271.872,-14685.345,15592.923,-11908.578,-0.039,0.961,-0.258,0.366,-0.366,0.702,80.000,76.000,1.000
79292.173,359293.271,13053.173,246439.858,1181.566,-15318.310,17103.150,-12135.054,-0.037,0.962,-0.259,0.366,-0.244,0.763,80.000,77.000,1.000
78849.415,355805.994,11912.566,242783.476,230.458,-15774.084,17870.656,-12445.169,-0.041,0.963,-0.255,0.458,-0.183,0.854,80.000,78.000,1.000
76672.687,351372.563,10391.820,239434.753,-1263.576,-15750.290,17470.076,-12205.842,-0.042,0.965,-0.255,0.580,-0.214,0.732,80.000,79.000,1.000
73929.183,346124.731,8647.677,236332.191,-3119.972,-15589.096,17047.177,-11542.661,-0.045,0.965,-0.257,0.702,-0.214,0.549,80.000,80.000,1.000
72572.321,341402.762,7226.485,233190.117,-4579.158,-15787.005,17729.716,-11142.348,-0.045,0.963,-0.260,0.671,-0.427,0.427,80.000,81.000,1.000
72676.112,337895.655,6308.315,229878.095,-5353.164,-16318.036,19109.664,-11309.897,-0.044,0.961,-0.256,0.732,-0.427,0.275,80.000,82.000,1.000
72385.234,334732.477,5480.891,226594.307,-5996.819,-16695.703,19845.013,-11578.252,-0.045,0.963,-0.255,0.793,-0.427,0.031,80.000,83.000,1.000
70477.732,330717.137,4318.773,223594.032,-7128.322,-16653.401,19497.071,-11369.986,-0.045,0.961,-0.257,0.824,-0.397,-0.153,80.000,84.000,1.000
67988.370,325949.489,2949.228,220841.652,-8599.833,-16492.302,19082.751,-10774.256,-0.044,0.962,-0.258,0.885,-0.549,-0.244,80.000,85.000,1.000
66728.546,321627.587,1848.004,218058.842,-9736.259,-16645.283,19650.589,-10392.684,-0.043,0.964,-0.259,0.916,-0.580,-0.336,80.000,86.000,1.000
66818.070,318381.696,1181.593,215099.861,-10269.370,-17088.189,20877.557,-10508.902,-0.043,0.966,-0.261,0.916,-0.641,-0.336,80.000,87.000,1.000
66596.003,315454.541,600.926,212141.338,-10678.233,-17399.969,21567.814,-10728.532,-0.043,0.967,-0.259,0.916,-0.671,-0.336,80.000,88.000,1.000
64929.764,311786.605,-265.883,209433.387,-11511.470,-17351.291,21293.906,-10543.358,-0.046,0.968,-0.259,0.946,-0.732,-0.275,80.000,89.000,1.000
62706.110,307446.982,-1322.129,206957.943,-12655.273,-17198.662,20926.070,-10013.132,-0.045,0.969,-0.261,0.977,-0.793,-0.275,80.000,90.000,1.000
61539.337,303471.813,-2165.759,204457.756,-13528.523,-17309.647,21400.707,-9650.612,-0.048,0.968,-0.261,0.916,-0.763,-0.183,80.000,91.000,1.000
61572.879,300420.151,-2645.705,201786.471,-13887.992,-17665.951,22470.397,-9713.472,-0.048,0.969,-0.262,0.977,-0.885,-0.061,80.000,92.000,1.000
61367.878,297656.910,-3045.731,199098.264,-14131.696,-17917.045,23104.060,-9882.077,-0.049,0.969,-0.263,0.977,-0.824,-0.153,80.000,93.000,1.000
59912.846,294274.239,-3679.662,196627.393,-14729.699,-17872.150,22904.663,-9723.418,-0.049,0.972,-0.261,0.916,-0.793,0.000,80.000,94.000,1.000
57944.332,290314.105,-4477.948,194369.019,-15598.810,-17741.611,22594.297,-9270.730,-0.047,0.972,-0.263,0.854,-0.854,0.031,80.000,95.000,1.000
56856.367,286642.782,-5112.394,192093.564,-16255.439,-17825.834,22982.968,-8943.780,-0.049,0.971,-0.259,0.824,-0.824,0.122,80.000,96.000,1.000
56805.490,283739.790,-5451.168,189661.170,-16487.004,-18109.598,23892.206,-8965.243,-0.047,0.972,-0.259,0.641,-0.916,0.366,80.000,97.000,1.000
56585.902,281090.049,-5717.275,187201.648,-16613.521,-18309.049,24462.823,-9083.214,-0.048,0.971,-0.260,0.610,-0.916,0.366,80.000,98.000,1.000
55322.239,277940.442,-6167.243,184925.756,-17025.208,-18270.485,24338.860,-8941.288,-0.046,0.969,-0.260,0.549,-1.007,0.427,80.000,99.000,1.000
53603.579,274311.509,-6754.331,182838.432,-17665.083,-18161.812,24097.279,-8555.389,-0.046,0.970,-0.261,0.488,-1.129,0.458,80.000,100.000,1.000
52593.942,270904.319,-7219.643,180741.648,-18143.849,-18222.069,24414.662,-8261.082,-0.046,0.969,-0.259,0.397,-1.190,0.580,80.000,101.000,1.000
52450.866,268117.136,-7451.983,178507.137,-18281.844,-18440.368,25170.540,-8246.229,-0.046,0.969,-0.258,0.305,-1.099,0.641,80.000,102.000,1.000
52196.992,265546.214,-7620.039,176240.472,-18327.485,-18594.913,25673.352,-8318.797,-0.045,0.967,-0.263,0.336,-1.099,0.641,80.000,103.000,1.000
51099.489,262586.569,-7926.536,174124.936,-18594.240,-18565.382,25616.878,-8192.312,-0.042,0.967,-0.262,0.366,-1.129,0.519,80.000,104.000,1.000
49612.527,259241.218,-8342.998,172172.532,-19046.254,-18480.089,25447.254,-7867.260,-0.042,0.968,-0.259,0.305,-1.068,0.458,80.000,105.000,1.000
48676.668,256040.562,-8672.438,170218.296,-19380.510,-18521.920,25711.284,-7602.022,-0.041,0.965,-0.259,0.305,-1.007,0.458,80.000,106.000,1.000
48441.411,253224.040,-8823.725,168148.960,-19449.657,-18683.956,26332.888,-7552.294,-0.039,0.965,-0.259,0.305,-1.160,0.488,80.000,107.000,1.000
48140.629,250305.474,-8918.693,166047.125,-19439.005,-18800.686,26771.168,-7581.482,-0.040,0.964,-0.257,0.244,-1.099,0.488,80.000,108.000,1.000
47179.909,246583.481,-9112.138,164066.557,-19592.240,-18782.392,26768.972,-7469.446,-0.040,0.963,-0.259,0.305,-1.038,0.427,80.000,109.000,1.000
45895.758,241887.411,-9390.442,162223.178,-19890.753,-18722.867,26657.721,-7205.547,-0.040,0.965,-0.258,0.366,-1.038,0.336,80.000,110.000,1.000
45023.994,236618.267,-9610.766,160383.742,-20108.199,-18755.382,26867.163,-6977.983,-0.038,0.964,-0.257,0.366,-0.885,0.244,80.000,111.000,1.000
44701.903,231174.469,-9700.767,158451.595,-20127.234,-18875.203,27360.229,-6908.346,-0.038,0.963,-0.255,0.366,-0.854,0.275,80.000,112.000,1.000
44352.496,225605.999,-9742.446,156489.309,-20078.318,-18963.694,27733.567,-6903.277,-0.041,0.965,-0.257,0.336,-0.763,0.244,80.000,113.000,1.000
43509.651,219864.239,-9848.229,154622.379,-20142.761,-18956.188,27779.345,-6799.474,-0.041,0.965,-0.259,0.214,-0.793,0.061,80.000,114.000,1.000
42408.787,214146.465,-10015.473,152868.857,-20315.192,-18917.766,27729.577,-6580.124,-0.041,0.965,-0.259,0.214,-0.763,-0.031,80.000,115.000,1.000
41601.623,208792.128,-10147.299,151124.407,-20435.841,-18943.628,27905.452,-6377.715,-0.041,0.964,-0.258,0.153,-0.641,-0.061,80.000,116.000,1.000
41206.983,203895.951,-10189.192,149308.265,-20415.774,-19037.867,28294.776,-6287.875,-0.042,0.964,-0.259,0.336,-0.641,-0.092,80.000,117.000,1.000
40807.885,199196.929,-10191.733,147464.736,-20341.040,-19127.763,28608.459,-6255.881,-0.042,0.964,-0.260,0.275,-0.610,-0.153,80.000,118.000,1.000
40050.745,194396.023,-10232.108,145692.412,-20339.909,-19170.717,28682.918,-6168.083,-0.044,0.965,-0.260,0.305,-0.702,-0.183,80.000,119.000,1.000
39088.273,189478.741,-10315.223,144010.203,-20416.003,-19200.301,28670.396,-6002.353,-0.046,0.967,-0.259,0.275,-0.610,-0.336,80.000,120.000,1.000
38317.699,184651.663,-10380.640,142340.485,-20463.473,-19263.563,28804.359,-5840.416,-0.047,0.967,-0.261,0.275,-0.763,-0.336,80.000,121.000,1.000
37844.618,180033.980,-10388.139,140618.999,-20416.720,-19350.727,29096.261,-5749.329,-0.047,0.968,-0.263,0.244,-0.702,-0.366,80.000,122.000,1.000
37392.558,175524.199,-10362.740,138875.739,-20325.284,-19411.224,29355.429,-5700.855,-0.047,0.969,-0.260,0.153,-0.763,-0.214,80.000,123.000,1.000
36709.534,170971.262,-10352.450,137185.608,-20273.295,-19420.857,29457.923,-5621.155,-0.049,0.967,-0.259,0.031,-0.793,-0.244,80.000,124.000,1.000
35881.781,166375.618,-10367.328,135567.043,-20270.848,-19405.826,29488.985,-5487.109,-0.050,0.966,-0.258,-0.092,-0.946,-0.183,80.000,125.000,1.000
35172.503,161861.098,-10376.265,133964.732,-20256.211,-19402.631,29603.018,-5344.549,-0.048,0.968,-0.256,-0.153,-1.068,-0.214,80.000,126.000,1.000
34665.951,157497.727,-10352.097,132328.460,-20184.513,-19416.761,29823.112,-5241.514,-0.048,0.969,-0.257,-0.244,-1.221,-0.336,80.000,127.000,1.000
34192.889,153224.672,-10301.641,130675.463,-20077.968,-19429.846,30036.610,-5172.648,-0.048,0.968,-0.256,-0.214,-1.282,-0.305,80.000,128.000,1.000
33581.862,148947.595,-10250.944,129058.930,-19986.108,-19431.696,30154.903,-5096.995,-0.049,0.968,-0.255,-0.275,-1.373,-0.244,80.000,129.000,1.000
32866.773,144654.272,-10213.998,127495.086,-19923.702,-19430.201,30213.261,-4991.781,-0.051,0.967,-0.260,-0.336,-1.434,-0.122,80.000,130.000,1.000
32204.740,140406.231,-10182.133,125947.025,-19863.408,-19435.448,30304.799,-4873.300,-0.050,0.967,-0.259,-0.366,-1.526,-0.061,80.000,131.000,1.000
31663.966,136249.546,-10138.018,124377.956,-19776.627,-19448.014,30461.561,-4770.848,-0.049,0.969,-0.255,-0.366,-1.648,-0.092,80.000,132.000,1.000
31162.752,132169.538,-10073.806,122796.911,-19663.919,-19464.277,30631.511,-4693.822,-0.049,0.967,-0.256,-0.366,-1.648,0.031,80.000,133.000,1.000
30597.922,128125.222,-9997.058,121240.734,-19546.439,-19482.295,30754.654,-4626.469,-0.048,0.965,-0.256,-0.366,-1.740,0.092,80.000,134.000,1.000
29966.480,124097.803,-9922.525,119724.400,-19440.280,-19498.793,30829.751,-4547.459,-0.047,0.966,-0.256,-0.275,-1.831,0.061,80.000,135.000,1.000
29343.145,120099.144,-9857.482,118226.013,-19343.379,-19508.729,30903.096,-4451.100,-0.046,0.966,-0.254,-0.305,-1.892,0.122,80.000,136.000,1.000
28780.918,116152.658,-9793.402,116719.088,-19240.928,-19513.260,31012.068,-4351.634,-0.048,0.967,-0.255,-0.275,-1.923,0.214,80.000,137.000,1.000
28263.023,112274.247,-9714.335,115204.625,-19119.843,-19522.671,31150.157,-4268.063,-0.047,0.963,-0.260,-0.214,-1.862,0.183,80.000,138.000,1.000
27738.279,108460.435,-9616.086,113704.424,-18981.695,-19543.712,31279.665,-4203.196,-0.045,0.964,-0.257,-0.061,-1.831,0.244,80.000,139.000,1.000
27176.526,104686.814,-9514.011,112230.994,-18843.446,-19567.651,31371.119,-4138.987,-0.046,0.967,-0.258,-0.031,-1.831,0.275,80.000,140.000,1.000
26589.711,100927.466,-9426.235,110774.235,-18720.967,-19580.312,31432.134,-4056.995,-0.046,0.966,-0.254,0.092,-1.831,0.275,80.000,141.000,1.000
26016.899,97186.148,-9350.176,109317.152,-18609.344,-19583.089,31499.720,-3962.404,-0.042,0.965,-0.257,0.031,-1.892,0.305,80.000,142.000,1.000
25488.288,93498.320,-9263.724,107856.438,-18485.441,-19593.663,31600.619,-3880.157,-0.043,0.968,-0.258,0.122,-1.923,0.397,80.000,143.000,1.000
24993.709,89888.942,-9153.192,106403.528,-18335.618,-19621.269,31719.026,-3823.674,-0.042,0.966,-0.255,0.122,-1.678,0.366,80.000,144.000,1.000
24487.321,86334.816,-9032.646,104969.214,-18175.649,-19650.851,31812.407,-3774.809,-0.041,0.966,-0.259,0.214,-1.617,0.366,80.000,145.000,1.000
23936.360,82788.158,-8926.885,103552.035,-18033.158,-19661.645,31864.080,-3704.429,-0.042,0.966,-0.259,0.305,-1.556,0.427,80.000,146.000,1.000
23366.347,79240.035,-8838.470,102141.752,-17911.260,-19656.469,31908.710,-3610.438,-0.040,0.968,-0.259,0.336,-1.465,0.427,80.000,147.000,1.000
22836.748,75736.896,-8743.385,100731.078,-17782.220,-19660.312,31991.349,-3523.071,-0.040,0.968,-0.257,0.214,-1.343,0.366,80.000,148.000,1.000
22365.218,72320.066,-8623.085,99322.557,-17623.496,-19687.167,32106.956,-3467.111,-0.041,0.969,-0.255,0.305,-1.190,0.336,80.000,149.000,1.000
21897.237,68966.438,-8490.407,97924.768,-17449.544,-19720.179,32201.652,-3429.361,-0.042,0.968,-0.256,0.336,-1.038,0.366,80.000,150.000,1.000
21371.901,65614.960,-8373.235,96542.669,-17294.416,-19734.176,32241.115,-3376.055,-0.042,0.968,-0.258,0.366,-1.007,0.336,80.000,151.000,1.000
20806.040,62249.095,-8276.979,95171.952,-17166.043,-19730.270,32258.463,-3298.305,-0.042,0.967,-0.255,0.397,-0.854,0.397,80.000,152.000,1.000
20277.904,58921.648,-8176.989,93803.496,-17034.374,-19734.703,32313.665,-3224.332,-0.043,0.965,-0.253,0.427,-0.885,0.336,80.000,153.000,1.000
19823.658,55683.752,-8051.985,92433.729,-16871.543,-19762.791,32413.701,-3180.973,-0.041,0.967,-0.256,0.488,-0.793,0.427,80.000,154.000,1.000
19384.328,52513.348,-7913.180,91069.264,-16690.329,-19797.859,32501.215,-3156.125,-0.041,0.968,-0.256,0.488,-0.702,0.366,80.000,155.000,1.000
18881.074,49342.905,-7789.140,89719.337,-16527.585,-19814.563,32530.961,-3113.573,-0.043,0.966,-0.257,0.427,-0.580,0.336,80.000,156.000,1.000
18323.058,46151.282,-7686.960,88384.145,-16394.209,-19814.058,32532.116,-3040.875,-0.043,0.966,-0.255,0.488,-0.488,0.305,80.000,157.000,1.000
17797.899,42992.932,-7582.824,87053.847,-16260.053,-19822.480,32570.073,-2965.865,-0.043,0.968,-0.258,0.610,-0.427,0.275,80.000,158.000,1.000
17354.176,39923.313,-7454.689,85720.710,-16094.930,-19854.571,32658.099,-2919.183,-0.042,0.967,-0.255,0.671,-0.336,0.275,80.000,159.000,1.000
16934.545,36922.453,-7312.237,84389.334,-15909.856,-19893.073,32738.972,-2893.658,-0.043,0.965,-0.255,0.702,-0.305,0.183,80.000,160.000,1.000
16452.267,33921.506,-7183.372,83071.034,-15742.016,-19912.578,32762.102,-2855.615,-0.044,0.964,-0.257,0.580,-0.153,0.061,80.000,161.000,1.000
15909.874,30896.643,-7076.238,81768.932,-15604.117,-19913.993,32751.718,-2791.577,-0.044,0.965,-0.252,0.580,-0.092,0.122,80.000,162.000,1.000
15396.028,27900.883,-6968.772,80473.359,-15467.552,-19922.406,32773.724,-2726.154,-0.044,0.964,-0.254,0.580,-0.061,0.183,80.000,163.000,1.000
14964.753,24990.955,-6839.332,79174.331,-15301.934,-19952.248,32846.376,-2687.869,-0.044,0.965,-0.255,0.671,-0.092,0.183,80.000,164.000,1.000
14561.596,22149.875,-6696.036,77874.764,-15116.436,-19988.419,32916.126,-2670.786,-0.043,0.967,-0.254,0.824,-0.214,0.183,80.000,165.000,1.000
14097.264,19310.324,-6565.168,76586.540,-14946.720,-20008.281,32931.117,-2643.556,-0.044,0.964,-0.258,0.763,-0.183,0.183,80.000,166.000,1.000
13569.052,16446.107,-6455.490,75314.373,-14806.323,-20012.679,32911.172,-2592.139,-0.044,0.967,-0.253,0.824,-0.092,0.275,80.000,167.000,1.000
13062.833,13605.552,-6347.343,74049.144,-14669.256,-20023.973,32919.067,-2538.069,-0.045,0.967,-0.256,0.793,-0.183,0.214,80.000,168.000,1.000
12635.940,10843.754,-6220.147,72780.052,-14506.320,-20054.613,32974.865,-2508.103,-0.045,0.969,-0.256,0.702,-0.244,0.183,80.000,169.000,1.000
12241.698,8148.378,-6079.736,71509.332,-14324.304,-20090.160,33030.922,-2497.509,-0.046,0.968,-0.256,0.916,-0.244,0.183,80.000,170.000,1.000
11795.516,5458.574,-5949.134,70249.362,-14155.315,-20109.768,33038.686,-2477.186,-0.047,0.969,-0.259,0.916,-0.214,0.214,80.000,171.000,1.000
11290.258,2748.389,-5836.992,69005.914,-14012.688,-20114.596,33014.062,-2433.314,-0.047,0.968,-0.261,0.885,-0.275,0.275,80.000,172.000,1.000
10802.191,59.048,-5727.035,67770.252,-13874.166,-20125.542,33013.891,-2384.761,-0.047,0.968,-0.259,0.916,-0.397,0.366,80.000,173.000,1.000
10384.428,-2560.721,-5601.388,66530.799,-13713.603,-20154.450,33058.571,-2356.033,-0.047,0.967,-0.257,0.885,-0.397,0.397,80.000,174.000,1.000
9995.960,-5121.133,-5464.647,65288.520,-13536.265,-20188.896,33106.238,-2344.426,-0.046,0.968,-0.257,0.854,-0.397,0.336,80.000,175.000,1.000
9560.241,-7674.795,-5336.526,64055.231,-13370.224,-20210.485,33110.603,-2325.670,-0.046,0.967,-0.259,0.854,-0.549,0.244,80.000,176.000,1.000
9070.205,-10243.215,-5224.742,62837.493,-13227.663,-20219.760,33081.749,-2288.039,-0.045,0.967,-0.259,0.793,-0.610,0.275,80.000,177.000,1.000
8594.765,-12789.215,-5115.427,61628.103,-13089.435,-20234.149,33069.115,-2247.610,-0.043,0.967,-0.259,0.793,-0.610,0.305,80.000,178.000,1.000
8183.415,-15269.866,-4992.733,60416.349,-12932.223,-20263.436,33093.634,-2225.408,-0.043,0.967,-0.256,0.824,-0.763,0.275,80.000,179.000,1.000
7801.375,-17694.741,-4859.840,59202.537,-12759.696,-20297.212,33122.417,-2219.076,-0.044,0.966,-0.255,0.824,-0.824,0.336,80.000,180.000,1.000
7379.920,-20111.560,-4733.449,57997.107,-12595.972,-20320.191,33117.010,-2207.098,-0.045,0.966,-0.255,0.793,-0.824,0.336,80.000,181.000,1.000
6909.805,-22541.831,-4620.882,56806.128,-12452.444,-20332.673,33085.655,-2178.031,-0.045,0.966,-0.257,0.793,-0.854,0.214,80.000,182.000,1.000
6449.252,-24955.660,-4511.384,55623.096,-12313.837,-20348.977,33069.339,-2144.818,-0.044,0.966,-0.257,0.732,-0.885,0.183,80.000,183.000,1.000
6042.357,-27315.636,-4391.953,54437.852,-12160.591,-20377.313,33084.997,-2126.168,-0.044,0.967,-0.257,0.732,-0.946,0.244,80.000,184.000,1.000
5662.184,-29626.168,-4264.721,53250.125,-11995.134,-20409.160,33104.379,-2121.574,-0.043,0.965,-0.257,0.702,-0.977,0.275,80.000,185.000,1.000
5251.700,-31923.483,-4142.859,52069.443,-11836.946,-20431.690,33094.160,-2113.396,-0.044,0.966,-0.258,0.763,-1.068,0.305,80.000,186.000,1.000
4802.341,-34224.392,-4032.282,50902.090,-11695.429,-20444.794,33060.156,-2091.185,-0.045,0.966,-0.258,0.732,-1.190,0.305,80.000,187.000,1.000
4361.529,-36506.014,-3924.458,49743.047,-11558.235,-20460.268,33036.922,-2064.593,-0.044,0.967,-0.258,0.824,-1.221,0.183,80.000,188.000,1.000
3965.220,-38740.432,-3808.718,48583.393,-11409.131,-20485.560,33040.356,-2048.881,-0.043,0.969,-0.258,0.763,-1.312,0.092,80.000,189.000,1.000
3590.462,-40933.438,-3686.293,47422.368,-11249.547,-20514.780,33048.373,-2044.507,-0.043,0.968,-0.258,0.793,-1.312,0.122,80.000,190.000,1.000
3189.091,-43115.488,-3567.702,46267.696,-11095.276,-20537.904,33032.788,-2038.252,-0.042,0.967,-0.257,0.702,-1.282,0.153,80.000,191.000,1.000
2753.589,-45299.482,-3458.415,45124.598,-10954.776,-20553.620,32996.753,-2021.984,-0.043,0.967,-0.258,0.732,-1.312,0.122,80.000,192.000,1.000
2323.919,-47464.790,-3352.502,43988.865,-10819.058,-20569.396,32968.174,-2002.628,-0.043,0.968,-0.255,0.671,-1.312,0.122,80.000,193.000,1.000
1931.580,-49586.615,-3241.664,42852.914,-10675.262,-20590.685,32960.885,-1991.489,-0.044,0.966,-0.258,0.702,-1.465,0.092,80.000,194.000,1.000
1559.581,-51668.041,-3126.237,41715.997,-10523.818,-20614.730,32957.315,-1989.028,-0.045,0.967,-0.257,0.671,-1.373,0.153,80.000,195.000,1.000
1168.887,-53733.144,-3013.655,40584.835,-10376.379,-20636.337,32933.990,-1985.220,-0.046,0.968,-0.259,0.641,-1.312,0.092,80.000,196.000,1.000
751.878,-55793.713,-2907.814,39464.421,-10239.287,-20656.023,32892.600,-1973.350,-0.046,0.969,-0.260,0.671,-1.373,0.092,80.000,197.000,1.000
339.004,-57836.207,-2804.304,38351.680,-10105.754,-20679.421,32855.239,-1958.436,-0.046,0.967,-0.258,0.580,-1.404,0.061,80.000,198.000,1.000
-44.506,-59843.017,-2697.007,37240.098,-9966.038,-20709.123,32833.861,-1950.062,-0.046,0.966,-0.258,0.488,-1.465,0.153,80.000,199.000,1.000
-410.690,-61816.278,-2586.143,36128.489,-9820.326,-20740.676,32816.470,-1950.185,-0.046,0.966,-0.260,0.427,-1.495,0.122,80.000,200.000,1.000
-790.009,-63773.612,-2477.168,35022.142,-9677.292,-20768.136,32785.754,-1951.880,-0.046,0.965,-0.259,0.519,-1.526,0.092,80.000,201.000,1.000
-1190.200,-65723.958,-2373.104,33925.468,-9541.878,-20791.042,32742.302,-1949.140,-0.044,0.965,-0.260,0.580,-1.434,0.031,80.000,202.000,1.000
-1589.606,-67657.435,-2271.035,32836.364,-9409.430,-20814.095,32702.181,-1943.910,-0.045,0.968,-0.259,0.610,-1.495,0.122,80.000,203.000,1.000
-1968.429,-69560.122,-2166.641,31749.490,-9272.897,-20840.463,32675.195,-1941.652,-0.045,0.966,-0.258,0.519,-1.495,0.183,80.000,204.000,1.000
-2333.312,-71431.759,-2059.906,30663.381,-9132.213,-20868.046,32653.445,-1943.023,-0.046,0.966,-0.257,0.519,-1.526,0.183,80.000,205.000,1.000
-2705.469,-73284.349,-1954.680,29581.746,-8993.627,-20893.378,32623.001,-1943.579,-0.046,0.965,-0.257,0.458,-1.526,0.153,80.000,206.000,1.000
-3091.272,-75125.853,-1853.557,28507.867,-8861.191,-20916.640,32581.326,-1940.663,-0.044,0.964,-0.258,0.488,-1.587,0.214,80.000,207.000,1.000
-3476.669,-76952.237,-1755.114,27440.137,-8732.212,-20941.272,32538.032,-1937.368,-0.043,0.964,-0.257,0.397,-1.465,0.305,80.000,208.000,1.000
-3848.097,-78755.577,-1656.367,26374.582,-8601.680,-20969.163,32500.420,-1938.671,-0.044,0.966,-0.257,0.519,-1.373,0.366,80.000,209.000,1.000
-4209.461,-80534.753,-1556.467,25310.421,-8468.677,-20998.196,32464.503,-1945.343,-0.042,0.968,-0.261,0.458,-1.465,0.397,80.000,210.000,1.000
-4574.920,-82295.408,-1457.085,24250.974,-8336.610,-21025.182,32422.121,-1953.463,-0.043,0.968,-0.260,0.549,-1.526,0.305,80.000,211.000,1.000
-4948.823,-84040.766,-1359.749,23199.156,-8208.108,-21049.504,32372.521,-1959.280,-0.044,0.966,-0.263,0.397,-1.556,0.336,80.000,212.000,1.000
-5321.456,-85767.250,-1263.918,22153.957,-8081.775,-21073.168,32322.971,-1962.866,-0.044,0.969,-0.261,0.488,-1.465,0.366,80.000,213.000,1.000
-5682.874,-87469.544,-1167.936,21112.281,-7954.482,-21097.705,32279.510,-1966.514,-0.045,0.970,-0.259,0.458,-1.495,0.397,80.000,214.000,1.000
-6035.020,-89147.241,-1071.229,20073.043,-7825.475,-21122.438,32240.500,-1971.090,-0.044,0.970,-0.262,0.305,-1.434,0.488,80.000,215.000,1.000
-6388.262,-90805.321,-974.922,19038.064,-7697.003,-21146.205,32199.574,-1975.585,-0.045,0.969,-0.261,0.305,-1.312,0.488,80.000,216.000,1.000
-6747.857,-92448.354,-880.456,18009.134,-7571.329,-21169.251,32153.055,-1979.493,-0.042,0.968,-0.259,0.275,-1.434,0.488,80.000,217.000,1.000
-7109.290,-94076.328,-788.114,16985.543,-7448.333,-21192.915,32103.121,-1983.957,-0.043,0.965,-0.260,0.153,-1.373,0.458,80.000,218.000,1.000
-7465.193,-95685.765,-696.952,15965.252,-7326.181,-21217.813,32053.739,-1990.485,-0.043,0.963,-0.261,0.275,-1.404,0.305,80.000,219.000,1.000
-7813.866,-97274.002,-605.901,14947.694,-7203.623,-21243.341,32005.260,-1999.588,-0.044,0.962,-0.261,0.336,-1.343,0.244,80.000,220.000,1.000
-8160.147,-98842.244,-514.804,13934.396,-7081.087,-21268.888,31954.694,-2010.675,-0.042,0.964,-0.259,0.336,-1.343,0.183,80.000,221.000,1.000
-8508.021,-100393.738,-424.375,12926.938,-6959.758,-21294.411,31900.165,-2022.557,-0.041,0.966,-0.259,0.397,-1.282,0.092,80.000,222.000,1.000
-8856.608,-101930.627,-335.364,11925.061,-6840.201,-21320.193,31843.051,-2034.371,-0.041,0.967,-0.260,0.488,-1.282,0.000,80.000,223.000,1.000
-9202.325,-103452.619,-247.801,10927.188,-6721.987,-21346.277,31785.951,-2046.269,-0.040,0.964,-0.258,0.519,-1.221,0.000,80.000,224.000,1.000
-9543.307,-104958.031,-161.016,9932.423,-6604.310,-21372.394,31729.878,-2058.950,-0.038,0.964,-0.260,0.366,-1.129,0.092,80.000,225.000,1.000
-9881.368,-106446.014,-74.373,8941.481,-6486.779,-21398.266,31673.839,-2072.472,-0.037,0.959,-0.256,0.336,-1.038,0.061,80.000,226.000,1.000
-10218.760,-107916.986,12.054,7955.651,-6369.726,-21423.331,31616.572,-2085.669,-0.037,0.955,-0.260,0.427,-0.946,0.153,80.000,227.000,1.000
-10556.039,-109372.189,97.592,6975.249,-6253.826,-21447.009,31557.991,-2097.276,-0.038,0.955,-0.262,0.519,-0.854,0.153,80.000,228.000,1.000
-10891.770,-110812.237,181.849,5999.441,-6139.314,-21469.340,31499.210,-2107.535,-0.039,0.956,-0.259,0.732,-0.763,0.214,80.000,229.000,1.000
-11223.845,-112235.894,265.270,5027.352,-6025.629,-21491.119,31441.438,-2118.163,-0.039,0.959,-0.264,0.763,-0.580,0.183,80.000,230.000,1.000
-11552.339,-113641.807,348.478,4058.927,-5912.124,-21513.479,31384.426,-2130.801,-0.041,0.963,-0.262,0.854,-0.458,0.183,80.000,231.000,1.000
-11879.468,-115030.580,431.222,3094.680,-5799.097,-21536.915,31326.273,-2145.463,-0.043,0.965,-0.262,0.824,-0.336,0.214,80.000,232.000,1.000
-12207.684,-116404.410,512.437,2134.894,-5687.697,-21561.163,31265.412,-2160.657,-0.042,0.969,-0.262,0.824,-0.458,0.427,80.000,233.000,1.000
-12536.628,-117763.884,591.588,1179.337,-5578.519,-21585.870,31202.351,-2175.157,-0.043,0.969,-0.263,0.793,-0.397,0.458,80.000,234.000,1.000
-12862.965,-119106.096,669.601,227.746,-5470.567,-21610.987,31138.859,-2189.450,-0.044,0.971,-0.262,0.793,-0.366,0.427,80.000,235.000,1.000
-13184.671,-120427.619,747.962,-719.684,-5362.215,-21636.418,31075.739,-2205.025,-0.042,0.972,-0.265,0.732,-0.427,0.488,80.000,236.000,1.000
-13503.249,-121728.290,826.950,-1662.446,-5253.186,-21661.298,31012.064,-2222.150,-0.045,0.973,-0.266,0.671,-0.336,0.458,80.000,237.000,1.000
-13822.314,-123011.632,905.293,-2600.303,-5144.968,-21684.624,30946.605,-2239.356,-0.046,0.976,-0.267,0.671,-0.458,0.427,80.000,238.000,1.000
-14142.885,-124280.945,981.764,-3533.619,-5038.961,-21706.583,30879.431,-2255.666,-0.048,0.977,-0.267,0.427,-0.458,0.458,80.000,239.000,1.000
-14461.481,-125535.843,1056.607,-4463.092,-4934.750,-21728.802,30811.668,-2272.414,-0.048,0.978,-0.268,0.214,-0.610,0.275,80.000,240.000,1.000
-14774.639,-126774.143,1130.992,-5389.131,-4830.798,-21752.895,30743.838,-2291.868,-0.050,0.980,-0.270,-0.031,-0.763,0.214,80.000,241.000,1.000
-15082.948,-127995.898,1205.370,-6311.443,-4726.546,-21778.535,30674.924,-2314.241,-0.049,0.979,-0.265,-0.244,-0.885,0.092,80.000,242.000,1.000
-15390.699,-129204.660,1278.976,-7229.316,-4623.099,-21803.956,30603.837,-2337.103,-0.049,0.978,-0.265,-0.427,-1.038,-0.061,80.000,243.000,1.000
-15700.282,-130403.637,1351.064,-8142.360,-4521.597,-21828.146,30532.071,-2357.810,-0.048,0.977,-0.265,-0.549,-1.129,-0.214,80.000,244.000,1.000
-16008.837,-131591.636,1422.077,-9050.903,-4421.561,-21851.961,30463.240,-2375.887,-0.047,0.976,-0.262,-0.732,-1.343,-0.244,80.000,245.000,1.000
-16312.547,-132764.844,1493.093,-9955.575,-4321.522,-21877.170,30398.543,-2393.069,-0.048,0.974,-0.263,-0.916,-1.465,-0.244,80.000,246.000,1.000
-16611.467,-133921.439,1564.299,-10856.548,-4221.067,-21904.296,30334.048,-2411.349,-0.048,0.973,-0.260,-1.038,-1.465,-0.214,80.000,247.000,1.000
-16909.799,-135063.719,1634.658,-11753.386,-4121.463,-21932.073,30264.220,-2431.494,-0.047,0.969,-0.261,-1.038,-1.556,-0.122,80.000,248.000,1.000
-17210.291,-136194.945,1703.265,-12645.642,-4023.937,-21958.787,30187.823,-2453.345,-0.046,0.967,-0.259,-1.007,-1.678,-0.092,80.000,249.000,1.000
-17510.548,-137315.299,1770.572,-13533.458,-3927.983,-21983.823,30109.093,-2476.745,-0.046,0.963,-0.257,-1.068,-1.556,0.031,80.000,250.000,1.000
-17807.083,-138422.919,1837.751,-14417.394,-3832.049,-22007.913,30032.790,-2501.695,-0.047,0.963,-0.257,-0.977,-1.648,0.031,80.000,251.000,1.000
-18099.983,-139517.385,1905.085,-15297.714,-3735.674,-22031.758,29959.164,-2527.649,-0.048,0.961,-0.255,-0.885,-1.678,0.031,80.000,252.000,1.000
-18393.059,-140600.775,1971.624,-16174.012,-3640.102,-22055.316,29884.746,-2553.358,-0.047,0.961,-0.255,-0.793,-1.740,0.183,80.000,253.000,1.000
-18688.381,-141674.217,2036.588,-17045.675,-3546.501,-22078.443,29807.364,-2577.833,-0.048,0.960,-0.254,-0.641,-1.770,0.153,80.000,254.000,1.000
-18982.880,-142734.620,2100.538,-17912.612,-3454.274,-22101.541,29728.679,-2601.380,-0.046,0.959,-0.252,-0.427,-1.923,0.153,80.000,255.000,1.000
-19272.479,-143777.002,2164.704,-18775.296,-3361.791,-22125.164,29651.490,-2625.191,-0.046,0.960,-0.250,-0.305,-1.953,0.214,80.000,256.000,1.000
-19556.841,-144799.134,2229.455,-19634.031,-3268.467,-22148.915,29576.131,-2649.548,-0.045,0.960,-0.252,-0.122,-2.045,0.153,80.000,257.000,1.000
-19839.811,-145803.293,2293.939,-20488.483,-3175.393,-22171.701,29500.524,-2673.140,-0.047,0.960,-0.252,-0.061,-2.045,0.244,80.000,258.000,1.000
-20124.150,-146792.885,2357.238,-21338.181,-3083.836,-22193.045,29423.086,-2694.894,-0.044,0.961,-0.253,0.061,-2.045,0.214,80.000,259.000,1.000
-20408.024,-147768.655,2419.331,-22183.400,-2993.780,-22213.862,29344.254,-2715.979,-0.044,0.962,-0.252,0.153,-2.106,0.214,80.000,260.000,1.000
-20688.503,-148729.718,2480.708,-23025.132,-2904.367,-22235.685,29264.922,-2738.977,-0.043,0.964,-0.253,0.183,-2.136,0.183,80.000,261.000,1.000
-20965.553,-149676.632,2541.416,-23864.018,-2815.362,-22258.832,29184.511,-2764.930,-0.042,0.964,-0.254,0.214,-2.045,0.214,80.000,262.000,1.000
-21242.477,-150612.548,2600.875,-24699.665,-2727.612,-22282.323,29101.539,-2792.301,-0.042,0.965,-0.253,0.244,-2.014,0.153,80.000,263.000,1.000
-21521.266,-151540.374,2658.754,-25531.173,-2641.819,-22305.248,29016.055,-2818.930,-0.044,0.965,-0.254,0.275,-1.892,0.092,80.000,264.000,1.000
-21799.258,-152459.498,2715.721,-26358.077,-2557.298,-22327.461,28930.643,-2844.016,-0.042,0.963,-0.250,0.336,-1.801,0.061,80.000,265.000,1.000
-22072.523,-153367.031,2772.934,-27180.543,-2472.536,-22349.008,28848.268,-2867.975,-0.041,0.963,-0.252,0.397,-1.801,0.153,80.000,266.000,1.000
-22340.019,-154261.114,2830.816,-27998.794,-2386.888,-22369.338,28769.190,-2891.065,-0.041,0.964,-0.257,0.397,-1.709,0.031,80.000,267.000,1.000
-22604.678,-155142.760,2888.617,-28812.717,-2301.265,-22387.958,28690.845,-2912.994,-0.039,0.964,-0.252,0.397,-1.740,0.031,80.000,268.000,1.000
-22869.484,-156014.106,2945.321,-29622.177,-2216.964,-22405.213,28611.091,-2933.667,-0.040,0.962,-0.256,0.549,-1.526,-0.031,80.000,269.000,1.000
-23133.992,-156875.417,3000.729,-30427.472,-2134.180,-22422.098,28530.258,-2953.887,-0.040,0.960,-0.255,0.488,-1.434,-0.092,80.000,270.000,1.000
-23396.372,-157725.232,3055.402,-31229.199,-2052.073,-22439.608,28449.238,-2975.295,-0.040,0.962,-0.257,0.610,-1.434,-0.061,80.000,271.000,1.000
-23656.183,-158562.461,3109.741,-32027.620,-1970.103,-22457.764,28367.061,-2999.261,-0.039,0.962,-0.258,0.702,-1.282,0.061,80.000,272.000,1.000
-23915.324,-159388.006,3163.475,-32822.388,-1888.758,-22475.826,28281.694,-3025.912,-0.040,0.961,-0.258,0.732,-1.190,0.000,80.000,273.000,1.000
-24175.473,-160203.792,3216.141,-33613.018,-1808.809,-22493.487,28192.612,-3054.624,-0.042,0.962,-0.258,0.793,-1.007,0.000,80.000,274.000,1.000
-24435.702,-161010.428,3267.776,-34399.489,-1730.230,-22511.363,28101.571,-3085.032,-0.042,0.964,-0.254,0.854,-0.916,-0.092,80.000,275.000,1.000
-24693.730,-161806.593,3318.918,-35182.160,-1652.224,-22529.988,28011.115,-3116.732,-0.042,0.964,-0.258,0.885,-0.763,0.092,80.000,276.000,1.000
-24947.705,-162590.010,3370.000,-35961.115,-1574.174,-22548.379,27923.006,-3148.011,-0.042,0.966,-0.260,1.038,-0.702,0.153,80.000,277.000,1.000
-25198.054,-163359.534,3420.935,-36735.902,-1496.269,-22564.757,27837.694,-3176.210,-0.042,0.966,-0.259,1.007,-0.580,0.092,80.000,278.000,1.000
-25446.435,-164115.900,3471.356,-37506.067,-1419.065,-22578.541,27754.591,-3199.991,-0.042,0.968,-0.258,0.977,-0.519,0.153,80.000,279.000,1.000
-25693.577,-164860.630,3521.119,-38271.751,-1342.692,-22591.045,27672.717,-3220.718,-0.041,0.970,-0.257,0.977,-0.336,0.214,80.000,280.000,1.000
-25939.375,-165594.825,3570.387,-39033.550,-1266.754,-22604.123,27591.083,-3241.241,-0.043,0.972,-0.258,0.977,-0.275,0.275,80.000,281.000,1.000
-26183.175,-166318.016,3619.264,-39791.853,-1191.011,-22618.276,27508.467,-3263.637,-0.044,0.973,-0.261,0.885,-0.305,0.214,80.000,282.000,1.000
-26425.362,-167029.240,3667.544,-40546.507,-1115.822,-22633.026,27423.122,-3288.548,-0.046,0.972,-0.264,0.793,-0.275,0.336,80.000,283.000,1.000
-26667.234,-167728.658,3714.981,-41297.113,-1041.680,-22648.428,27333.737,-3315.998,-0.045,0.973,-0.258,0.702,-0.244,0.366,80.000,284.000,1.000
-26909.264,-168417.268,3761.651,-42043.555,-968.561,-22665.228,27241.062,-3345.829,-0.047,0.975,-0.258,0.549,-0.275,0.275,80.000,285.000,1.000
-27150.922,-169095.936,3807.817,-42786.167,-896.069,-22683.758,27147.527,-3377.575,-0.048,0.978,-0.260,0.397,-0.336,0.275,80.000,286.000,1.000
-27390.828,-169764.555,3853.522,-43525.345,-824.059,-22703.011,27054.945,-3410.358,-0.049,0.976,-0.259,0.275,-0.305,0.214,80.000,287.000,1.000
-27628.310,-170422.759,3898.506,-44261.108,-752.832,-22721.444,26963.415,-3443.065,-0.049,0.975,-0.260,0.153,-0.366,0.244,80.000,288.000,1.000
-27863.529,-171070.719,3942.561,-44993.143,-682.658,-22738.268,26872.365,-3474.740,-0.049,0.974,-0.256,0.092,-0.366,0.214,80.000,289.000,1.000
-28096.550,-171708.960,3985.852,-45721.170,-613.327,-22753.832,26781.601,-3505.040,-0.048,0.970,-0.257,0.031,-0.519,0.183,80.000,290.000,1.000
-28327.564,-172338.172,4028.773,-46445.165,-544.323,-22769.094,26691.207,-3534.297,-0.047,0.965,-0.254,-0.061,-0.580,0.153,80.000,291.000,1.000
-28556.345,-172958.502,4071.559,-47165.228,-475.384,-22784.379,26601.260,-3562.777,-0.045,0.964,-0.258,-0.122,-0.641,0.214,80.000,292.000,1.000
-28782.980,-173569.922,4114.153,-47881.307,-406.694,-22799.110,26511.895,-3590.143,-0.047,0.963,-0.256,0.000,-0.732,0.244,80.000,293.000,1.000
-29008.005,-174173.076,4156.429,-48593.186,-338.523,-22812.648,26423.317,-3616.003,-0.045,0.964,-0.256,0.031,-0.763,0.275,80.000,294.000,1.000
-29231.840,-174769.165,4198.302,-49300.852,-270.957,-22825.203,26335.321,-3640.838,-0.044,0.965,-0.257,0.122,-0.732,0.366,80.000,295.000,1.000
-29454.898,-175359.003,4239.681,-50004.641,-203.935,-22837.815,26246.648,-3666.162,-0.045,0.967,-0.258,0.214,-0.671,0.519,80.000,296.000,1.000
-29676.758,-175941.446,4280.459,-50704.902,-137.440,-22851.178,26155.357,-3693.616,-0.044,0.965,-0.258,0.153,-0.824,0.519,80.000,297.000,1.000
-29897.143,-176514.094,4320.460,-51401.766,-71.674,-22865.278,26060.413,-3724.004,-0.044,0.963,-0.258,0.244,-0.824,0.549,80.000,298.000,1.000
-30116.414,-177075.191,4359.538,-52095.172,-6.908,-22879.849,25962.815,-3756.884,-0.043,0.962,-0.258,0.397,-0.824,0.519,80.000,299.000,1.000
-30334.944,-177624.321,4397.823,-52784.942,56.910,-22894.644,25864.867,-3790.772,-0.041,0.960,-0.259,0.458,-0.824,0.732,80.000,300.000,1.000
-30553.177,-178162.121,4435.686,-53470.891,120.171,-22909.488,25768.458,-3824.012,-0.041,0.960,-0.258,0.580,-0.732,0.793,80.000,301.000,1.000
-30770.786,-178688.924,4473.409,-54152.922,183.194,-22923.986,25674.103,-3855.564,-0.045,0.961,-0.260,0.763,-0.610,0.763,80.000,302.000,1.000
-30987.407,-179204.670,4510.958,-54831.030,245.946,-22937.749,25581.082,-3885.340,-0.046,0.964,-0.257,0.793,-0.763,0.549,80.000,303.000,1.000
-31202.704,-179709.424,4548.151,-55505.227,308.233,-22950.592,25488.237,-3914.011,-0.046,0.965,-0.258,0.885,-0.916,0.336,80.000,304.000,1.000
-31415.703,-180203.161,4584.930,-56175.501,370.026,-22962.487,25394.899,-3942.368,-0.048,0.965,-0.259,0.946,-0.946,0.336,80.000,305.000,1.000
-31625.822,-180686.146,4621.370,-56841.881,431.455,-22973.856,25300.989,-3970.995,-0.048,0.965,-0.259,1.007,-1.038,0.122,80.000,306.000,1.000
-31833.236,-181159.265,4657.505,-57504.442,492.588,-22985.402,25206.422,-4000.330,-0.047,0.962,-0.260,1.038,-1.160,0.000,80.000,307.000,1.000
-32039.183,-181624.071,4693.264,-58163.224,553.335,-22997.447,25111.188,-4030.482,-0.045,0.962,-0.261,1.099,-1.190,0.000,80.000,308.000,1.000
-32244.609,-182081.956,4728.509,-58818.254,613.520,-23009.330,25015.945,-4060.804,-0.044,0.963,-0.263,1.282,-1.312,-0.122,80.000,309.000,1.000
-32449.111,-182533.654,4763.052,-59469.667,672.950,-23019.980,24921.509,-4090.282,-0.042,0.963,-0.261,1.282,-1.190,-0.122,80.000,310.000,1.000
-32652.195,-182980.044,4796.740,-60117.688,731.509,-23029.257,24827.745,-4118.616,-0.044,0.964,-0.261,1.251,-1.190,-0.153,80.000,311.000,1.000
-32853.456,-183421.950,4829.594,-60762.428,789.225,-23038.030,24733.757,-4146.416,-0.043,0.967,-0.262,1.221,-1.221,-0.061,80.000,312.000,1.000
-33053.098,-183859.662,4861.721,-61403.865,846.139,-23047.380,24638.774,-4174.560,-0.041,0.968,-0.263,1.221,-1.251,-0.183,80.000,313.000,1.000
-33251.367,-184292.401,4893.198,-62041.930,902.230,-23057.645,24542.389,-4203.708,-0.043,0.969,-0.261,1.221,-1.221,-0.122,80.000,314.000,1.000
-33447.741,-184718.177,4924.154,-62676.446,957.587,-23068.055,24444.710,-4233.974,-0.042,0.969,-0.264,1.099,-1.129,-0.061,80.000,315.000,1.000
-33641.840,-185134.937,4954.894,-63307.083,1012.557,-23077.493,24346.759,-4264.711,-0.042,0.969,-0.264,1.038,-1.068,0.061,80.000,316.000,1.000
-33833.318,-185541.084,4985.802,-63933.480,1067.596,-23085.286,24250.022,-4294.795,-0.043,0.971,-0.264,0.946,-1.007,0.122,80.000,317.000,1.000
-34022.435,-185935.732,5017.080,-64555.454,1122.980,-23091.744,24155.101,-4323.548,-0.043,0.971,-0.263,0.885,-1.038,0.244,80.000,318.000,1.000
-34209.821,-186318.467,5048.646,-65173.059,1178.676,-23097.708,24061.285,-4351.246,-0.044,0.970,-0.261,0.763,-0.977,0.244,80.000,319.000,1.000
-34395.802,-186688.950,5080.179,-65786.567,1234.369,-23103.708,23967.635,-4378.645,-0.042,0.970,-0.259,0.763,-0.946,0.336,80.000,320.000,1.000
-34581.070,-187047.688,5111.211,-66396.460,1289.564,-23110.011,23873.784,-4406.468,-0.045,0.969,-0.262,0.641,-0.885,0.397,80.000,321.000,1.000
-34766.203,-187396.300,5141.328,-67003.244,1343.805,-23116.933,23779.441,-4435.335,-0.045,0.970,-0.261,0.610,-0.916,0.366,80.000,322.000,1.000
-34951.807,-187737.298,5170.368,-67607.177,1396.878,-23125.006,23683.858,-4465.737,-0.043,0.972,-0.263,0.458,-0.916,0.397,80.000,323.000,1.000
-35137.876,-188072.936,5198.425,-68208.165,1448.839,-23134.487,23586.416,-4497.607,-0.042,0.971,-0.263,0.336,-0.854,0.488,80.000,324.000,1.000
-35323.162,-188403.922,5225.756,-68805.847,1499.941,-23144.816,23487.366,-4530.021,-0.041,0.969,-0.262,0.336,-0.854,0.488,80.000,325.000,1.000
-35506.510,-188729.922,5252.673,-69399.812,1550.530,-23155.027,23387.517,-4561.829,-0.042,0.967,-0.262,0.214,-0.763,0.488,80.000,326.000,1.000
-35687.182,-189050.280,5279.394,-69989.870,1600.870,-23164.348,23287.558,-4592.495,-0.041,0.967,-0.262,0.153,-0.793,0.488,80.000,327.000,1.000
-35865.259,-189364.492,5305.886,-70576.165,1650.981,-23172.534,23188.093,-4622.205,-0.040,0.967,-0.261,0.183,-0.854,0.427,80.000,328.000,1.000
-36040.936,-189671.917,5331.967,-71158.984,1700.706,-23179.560,23089.768,-4651.361,-0.042,0.965,-0.260,0.061,-0.793,0.427,80.000,329.000,1.000
-36214.106,-189971.682,5357.536,-71738.459,1749.915,-23185.330,22992.663,-4680.285,-0.041,0.964,-0.261,0.031,-0.793,0.488,80.000,330.000,1.000
-36385.474,-190263.654,5382.694,-72314.485,1798.627,-23189.925,22895.885,-4709.344,-0.040,0.963,-0.259,0.122,-0.732,0.366,80.000,331.000,1.000
-36555.830,-190548.139,5407.680,-72886.836,1847.024,-23193.522,22798.417,-4738.861,-0.039,0.963,-0.259,0.092,-0.763,0.397,80.000,332.000,1.000
-36725.857,-190825.406,5432.641,-73455.389,1895.272,-23196.548,22700.167,-4768.914,-0.041,0.964,-0.258,0.122,-0.763,0.275,80.000,333.000,1.000
-36895.829,-191095.586,5457.446,-74020.254,1943.304,-23199.672,22601.773,-4799.324,-0.041,0.965,-0.260,0.153,-0.671,0.183,80.000,334.000,1.000
-37065.284,-191358.570,5481.749,-74581.676,1990.806,-23203.409,22503.544,-4829.794,-0.039,0.963,-0.259,0.244,-0.671,0.122,80.000,335.000,1.000
-37233.848,-191614.385,5505.273,-75139.827,2037.474,-23207.910,22405.256,-4860.043,-0.041,0.964,-0.262,0.244,-0.793,0.031,80.000,336.000,1.000
-37401.105,-191863.310,5528.042,-75694.706,2083.280,-23212.977,22306.730,-4889.809,-0.044,0.966,-0.258,0.244,-0.824,-0.031,80.000,337.000,1.000
-37567.401,-192106.356,5550.305,-76246.204,2128.461,-23218.630,22207.746,-4919.117,-0.045,0.967,-0.258,0.275,-0.854,-0.122,80.000,338.000,1.000
-37733.273,-192344.516,5572.300,-76794.213,2173.280,-23225.062,22107.812,-4948.353,-0.044,0.964,-0.258,0.244,-0.946,-0.153,80.000,339.000,1.000
-37898.147,-192577.248,5594.070,-77338.690,2217.819,-23231.996,22006.823,-4977.746,-0.047,0.964,-0.257,0.275,-1.068,-0.122,80.000,340.000,1.000
-38061.197,-192803.124,5615.524,-77879.645,2262.022,-23238.647,21905.563,-5007.143,-0.046,0.966,-0.258,0.244,-1.129,-0.031,80.000,341.000,1.000
-38221.637,-193021.007,5636.619,-78417.083,2305.875,-23244.052,21805.220,-5036.424,-0.049,0.967,-0.257,0.214,-1.099,-0.092,80.000,342.000,1.000
-38379.447,-193230.663,5657.420,-78951.003,2349.457,-23247.677,21706.776,-5065.750,-0.049,0.967,-0.258,0.183,-1.373,-0.122,80.000,343.000,1.000
-38534.960,-193432.235,5678.034,-79481.386,2392.856,-23249.422,21610.873,-5095.043,-0.050,0.967,-0.259,0.092,-1.465,-0.092,80.000,344.000,1.000
-38688.281,-193625.762,5698.529,-80008.184,2436.091,-23249.465,21517.270,-5123.757,-0.049,0.967,-0.259,0.122,-1.526,0.000,80.000,345.000,1.000
-38840.191,-193811.982,5718.858,-80531.380,2479.058,-23248.688,21424.198,-5151.708,-0.048,0.968,-0.259,0.214,-1.495,0.122,80.000,346.000,1.000
-38991.483,-193992.104,5738.897,-81051.029,2521.614,-23248.315,21329.347,-5179.461,-0.049,0.968,-0.258,0.183,-1.495,0.336,80.000,347.000,1.000
-39142.912,-194167.219,5758.569,-81567.228,2563.700,-23249.180,21231.572,-5207.670,-0.047,0.966,-0.258,0.214,-1.709,0.366,80.000,348.000,1.000
-39294.816,-194337.707,5777.903,-82080.037,2605.356,-23251.286,21131.255,-5236.475,-0.047,0.968,-0.257,0.153,-1.801,0.366,80.000,349.000,1.000
-39446.581,-194502.911,5796.977,-82589.445,2646.638,-23253.847,21029.712,-5265.565,-0.048,0.969,-0.255,0.092,-1.801,0.458,80.000,350.000,1.000
-39597.449,-194661.931,5815.807,-83095.439,2687.540,-23255.868,20928.673,-5294.596,-0.048,0.969,-0.258,0.122,-1.862,0.458,80.000,351.000,1.000
-39746.234,-194813.802,5834.331,-83598.063,2728.010,-23256.487,20829.632,-5323.349,-0.048,0.969,-0.256,0.092,-1.984,0.549,80.000,352.000,1.000
-39892.153,-194957.808,5852.468,-84097.394,2768.022,-23255.443,20732.906,-5351.847,-0.047,0.967,-0.255,0.092,-2.075,0.610,80.000,353.000,1.000
-40035.272,-195093.895,5870.184,-84593.461,2807.610,-23253.199,20637.290,-5380.429,-0.044,0.967,-0.255,0.153,-2.167,0.519,80.000,354.000,1.000
-40176.186,-195222.801,5887.508,-85086.202,2846.835,-23250.550,20540.988,-5409.380,-0.045,0.965,-0.258,0.214,-2.167,0.458,80.000,355.000,1.000
-40316.249,-195346.170,5904.496,-85575.531,2885.725,-23248.342,20442.703,-5438.754,-0.044,0.965,-0.257,0.183,-2.106,0.427,80.000,356.000,1.000
-40456.360,-195465.502,5921.169,-86061.462,2924.263,-23247.214,20341.832,-5468.778,-0.045,0.966,-0.257,0.183,-2.075,0.397,80.000,357.000,1.000
-40596.895,-195581.412,5937.472,-86544.147,2962.371,-23247.536,20238.663,-5499.862,-0.043,0.967,-0.259,0.153,-2.106,0.397,80.000,358.000,1.000
-40737.541,-195693.330,5953.317,-87023.751,2999.951,-23248.956,20134.833,-5531.730,-0.044,0.969,-0.260,0.153,-2.136,0.397,80.000,359.000,1.000
-40877.221,-195799.757,5968.605,-87500.361,3036.893,-23250.290,20032.614,-5563.127,-0.043,0.967,-0.259,0.214,-2.075,0.305,80.000,360.000,1.000
-41015.157,-195899.476,5983.288,-87973.953,3073.147,-23250.337,19933.281,-5592.829,-0.043,0.966,-0.258,0.336,-2.106,0.275,80.000,361.000,1.000
-41150.464,-195991.792,5997.521,-88444.309,3108.888,-23248.375,19836.400,-5620.458,-0.043,0.966,-0.260,0.336,-2.136,0.244,80.000,362.000,1.000
-41282.914,-196076.885,6011.658,-88911.094,3144.485,-23244.560,19740.366,-5646.494,-0.042,0.965,-0.258,0.397,-1.984,0.244,80.000,363.000,1.000
-41413.104,-196155.638,6025.989,-89374.091,3180.210,-23239.804,19643.568,-5671.870,-0.044,0.964,-0.256,0.488,-1.923,0.214,80.000,364.000,1.000
-41541.672,-196228.721,6040.460,-89833.400,3215.979,-23235.089,19545.422,-5697.513,-0.043,0.966,-0.255,0.458,-1.923,0.153,80.000,365.000,1.000
-41669.493,-196296.631,6054.633,-90289.443,3251.358,-23231.007,19446.373,-5724.043,-0.042,0.966,-0.255,0.580,-1.862,0.031,80.000,366.000,1.000
-41796.593,-196359.386,6068.054,-90742.650,3285.937,-23227.311,19347.123,-5751.471,-0.040,0.965,-0.259,0.641,-1.801,0.092,80.000,367.000,1.000
-41922.444,-196416.724,6080.630,-91193.141,3319.671,-23223.474,19247.929,-5779.389,-0.042,0.966,-0.258,0.702,-1.678,0.122,80.000,368.000,1.000
-42046.723,-196468.772,6092.633,-91640.707,3352.844,-23219.596,19148.363,-5807.629,-0.040,0.966,-0.255,0.732,-1.709,0.214,80.000,369.000,1.000
-42169.524,-196516.176,6104.469,-92084.978,3385.821,-23216.299,19047.810,-5836.383,-0.041,0.968,-0.254,0.793,-1.556,0.153,80.000,370.000,1.000
-42291.582,-196559.887,6116.449,-92525.621,3418.858,-23214.031,18946.372,-5865.689,-0.041,0.965,-0.257,0.885,-1.373,0.275,80.000,371.000,1.000
-42412.947,-196600.137,6128.685,-92962.510,3452.024,-23212.426,18845.049,-5895.003,-0.041,0.967,-0.256,0.916,-1.282,0.336,80.000,372.000,1.000
-42533.381,-196636.509,6141.053,-93395.797,3485.199,-23210.609,18744.761,-5923.609,-0.042,0.967,-0.255,0.916,-1.160,0.305,80.000,373.000,1.000
-42652.789,-196668.482,6153.274,-93825.794,3518.143,-23207.747,18645.501,-5951.271,-0.043,0.966,-0.258,0.854,-1.129,0.397,80.000,374.000,1.000
-42770.887,-196695.275,6165.085,-94252.753,3550.616,-23203.334,18546.724,-5978.224,-0.043,0.966,-0.257,0.977,-0.977,0.427,80.000,375.000,1.000
-42887.502,-196715.814,6176.382,-94676.750,3582.501,-23197.317,18448.394,-6004.632,-0.044,0.968,-0.254,0.946,-0.946,0.549,80.000,376.000,1.000
-43001.913,-196728.579,6187.201,-95097.745,3613.824,-23189.809,18351.112,-6030.292,-0.043,0.968,-0.256,0.977,-0.854,0.610,80.000,377.000,1.000
-43113.900,-196732.759,6197.584,-95515.719,3644.652,-23181.298,18255.004,-6055.145,-0.043,0.967,-0.258,0.916,-0.824,0.549,80.000,378.000,1.000
-43224.185,-196729.236,6207.542,-95930.687,3675.033,-23172.616,18159.199,-6079.670,-0.041,0.967,-0.258,0.916,-0.671,0.580,80.000,379.000,1.000
-43333.649,-196719.930,6217.089,-96342.645,3704.998,-23164.474,18062.638,-6104.553,-0.041,0.964,-0.258,0.793,-0.580,0.671,80.000,380.000,1.000
-43443.253,-196706.762,6226.203,-96751.616,3734.511,-23157.322,17964.662,-6130.404,-0.039,0.963,-0.258,0.854,-0.549,0.610,80.000,381.000,1.000
-43552.830,-196690.163,6234.870,-97157.608,3763.531,-23151.053,17865.032,-6157.502,-0.040,0.965,-0.258,0.885,-0.519,0.671,80.000,382.000,1.000
-43661.575,-196669.274,6243.238,-97560.477,3792.167,-23145.076,17764.134,-6185.490,-0.040,0.965,-0.257,0.946,-0.458,0.702,80.000,383.000,1.000
-43768.994,-196643.391,6251.590,-97959.968,3820.677,-23138.660,17662.990,-6213.619,-0.042,0.964,-0.259,1.038,-0.336,0.580,80.000,384.000,1.000
-43875.195,-196612.723,6260.065,-98355.979,3849.211,-23131.388,17562.460,-6241.493,-0.041,0.965,-0.262,1.038,-0.275,0.549,80.000,385.000,1.000
-43981.027,-196578.138,6268.562,-98748.647,3877.708,-23123.509,17462.582,-6269.305,-0.039,0.965,-0.260,0.946,-0.244,0.580,80.000,386.000,1.000
-44086.308,-196539.438,6276.963,-99138.125,3906.078,-23115.279,17363.253,-6297.024,-0.040,0.966,-0.259,0.977,-0.183,0.488,80.000,387.000,1.000
-44190.147,-196495.358,6285.261,-99524.439,3934.304,-23106.571,17265.045,-6323.847,-0.041,0.967,-0.258,0.946,-0.061,0.488,80.000,388.000,1.000
-44292.180,-196445.308,6293.437,-99907.593,3962.334,-23097.276,17168.460,-6348.903,-0.041,0.965,-0.257,0.977,-0.122,0.458,80.000,389.000,1.000
-44392.740,-196390.000,6301.368,-100287.673,3990.039,-23087.731,17072.764,-6372.258,-0.040,0.966,-0.260,0.977,-0.092,0.366,80.000,390.000,1.000
-44492.676,-196330.684,6308.929,-100664.776,4017.299,-23078.629,16976.363,-6395.015,-0.039,0.963,-0.258,1.007,0.061,0.305,80.000,391.000,1.000
-44592.066,-196267.858,6316.056,-101038.963,4044.038,-23070.328,16878.028,-6418.616,-0.040,0.965,-0.260,1.068,0.031,0.214,80.000,392.000,1.000
-44690.974,-196201.727,6322.678,-101410.322,4070.171,-23062.762,16777.535,-6444.208,-0.041,0.967,-0.260,1.129,0.061,0.305,80.000,393.000,1.000
-44789.600,-196132.538,6328.779,-101778.894,4095.724,-23055.424,16675.768,-6472.024,-0.042,0.968,-0.254,1.129,0.183,0.305,80.000,394.000,1.000
-44887.199,-196059.713,6334.563,-102144.506,4120.969,-23047.356,16574.380,-6500.976,-0.043,0.966,-0.257,1.068,0.153,0.153,80.000,395.000,1.000
-44982.645,-195982.016,6340.367,-102506.844,4146.274,-23037.816,16474.883,-6529.332,-0.043,0.967,-0.259,0.977,0.061,0.214,80.000,396.000,1.000
-45074.932,-195898.345,6346.362,-102865.746,4171.778,-23026.715,16377.924,-6555.854,-0.042,0.968,-0.259,1.007,-0.031,0.214,80.000,397.000,1.000
-45164.428,-195808.867,6352.365,-103221.404,4197.251,-23014.759,16283.214,-6580.316,-0.042,0.968,-0.259,0.946,0.000,0.305,80.000,398.000,1.000
-45252.279,-195714.614,6357.991,-103574.240,4222.278,-23002.879,16189.752,-6603.190,-0.042,0.967,-0.260,1.007,-0.153,0.153,80.000,399.000,1.000
-45338.981,-195616.054,6362.942,-103924.578,4246.561,-22991.566,16096.053,-6625.253,-0.041,0.967,-0.258,0.854,-0.092,0.183,80.000,400.000,1.000
-45424.963,-195513.266,6367.194,-104272.435,4270.078,-22980.894,16000.833,-6647.414,-0.045,0.968,-0.258,0.885,-0.153,0.275,80.000,401.000,1.000
-45510.309,-195406.245,6370.980,-104617.562,4293.038,-22970.550,15903.731,-6670.322,-0.044,0.967,-0.261,0.793,-0.366,0.153,80.000,402.000,1.000
-45595.226,-195295.397,6374.587,-104959.682,4315.691,-22960.206,15804.994,-6694.305,-0.044,0.965,-0.263,0.824,-0.305,0.214,80.000,403.000,1.000
-45679.926,-195181.501,6378.183,-105298.652,4338.186,-22949.692,15704.969,-6719.559,-0.045,0.966,-0.262,0.793,-0.366,0.153,80.000,404.000,1.000
-45764.126,-195065.097,6381.799,-105634.448,4360.582,-22938.822,15604.364,-6745.898,-0.045,0.964,-0.259,0.763,-0.458,0.244,80.000,405.000,1.000
-45847.728,-194946.483,6385.359,-105967.131,4382.862,-22927.494,15504.490,-6772.360,-0.044,0.964,-0.259,0.763,-0.580,0.122,80.000,406.000,1.000
-45930.215,-194825.214,6388.722,-106296.816,4404.949,-22915.525,15406.729,-6797.405,-0.044,0.965,-0.262,0.793,-0.671,0.183,80.000,407.000,1.000
-46011.118,-194700.275,6391.778,-106623.614,4426.762,-22902.784,15311.460,-6820.169,-0.044,0.966,-0.263,0.916,-0.702,0.122,80.000,408.000,1.000
-46090.158,-194570.515,6394.553,-106947.536,4448.312,-22889.205,15217.727,-6841.354,-0.045,0.965,-0.263,0.885,-0.793,0.214,80.000,409.000,1.000
-46166.938,-194434.839,6397.193,-107268.486,4469.700,-22874.527,15124.103,-6862.483,-0.046,0.965,-0.260,0.885,-0.946,0.183,80.000,410.000,1.000
-46241.938,-194293.282,6399.827,-107586.375,4491.009,-22858.645,15029.688,-6884.686,-0.046,0.963,-0.261,0.824,-1.007,0.214,80.000,411.000,1.000
-46316.043,-194147.146,6402.447,-107901.221,4512.219,-22841.872,14934.562,-6908.138,-0.045,0.965,-0.263,0.916,-1.038,0.183,80.000,412.000,1.000
-46390.425,-193998.351,6404.937,-108213.131,4533.230,-22824.973,14839.498,-6932.219,-0.043,0.965,-0.263,0.824,-1.190,0.122,80.000,413.000,1.000
-46465.778,-193848.133,6407.188,-108522.206,4553.940,-22808.686,14745.024,-6956.029,-0.044,0.964,-0.264,0.671,-1.251,0.092,80.000,414.000,1.000
-46541.545,-193696.183,6409.100,-108828.549,4574.243,-22793.261,14650.798,-6979.007,-0.044,0.965,-0.264,0.763,-1.343,0.122,80.000,415.000,1.000
-46616.918,-193541.463,6410.551,-109132.287,4594.021,-22778.636,14555.947,-7001.318,-0.044,0.966,-0.261,0.763,-1.343,0.214,80.000,416.000,1.000
-46690.727,-193382.590,6411.543,-109433.415,4613.295,-22764.404,14459.911,-7023.516,-0.042,0.966,-0.265,0.793,-1.434,0.153,80.000,417.000,1.000
-46762.049,-193218.210,6412.297,-109731.703,4632.283,-22749.978,14362.972,-7045.911,-0.043,0.967,-0.264,0.732,-1.434,0.092,80.000,418.000,1.000
-46830.358,-193047.280,6413.104,-110026.859,4651.251,-22734.769,14266.197,-7068.297,-0.045,0.968,-0.262,0.732,-1.465,0.031,80.000,419.000,1.000
-46895.459,-192869.412,6414.128,-110318.750,4670.319,-22718.446,14170.684,-7090.237,-0.043,0.966,-0.263,0.641,-1.556,0.061,80.000,420.000,1.000
-46958.597,-192685.930,6415.312,-110607.495,4689.403,-22701.410,14076.648,-7111.677,-0.043,0.966,-0.264,0.610,-1.617,0.092,80.000,421.000,1.000
-47021.441,-192499.204,6416.459,-110893.344,4708.335,-22684.332,13983.417,-7132.989,-0.044,0.968,-0.262,0.549,-1.587,0.031,80.000,422.000,1.000
-47085.140,-192311.128,6417.395,-111176.475,4727.011,-22667.385,13890.530,-7154.285,-0.044,0.966,-0.262,0.458,-1.709,-0.061,80.000,423.000,1.000
-47149.419,-192122.002,6418.055,-111456.911,4745.426,-22650.047,13798.246,-7175.049,-0.045,0.968,-0.265,0.488,-1.678,-0.183,80.000,424.000,1.000
-47212.698,-191930.605,6418.460,-111734.613,4763.600,-22631.853,13706.340,-7194.958,-0.042,0.966,-0.264,0.397,-1.740,-0.092,80.000,425.000,1.000
-47274.173,-191735.851,6418.643,-112009.566,4781.538,-22613.233,13613.390,-7214.818,-0.043,0.966,-0.259,0.488,-1.801,-0.153,80.000,426.000,1.000
-47333.928,-191537.508,6418.614,-112281.782,4799.231,-22595.023,13518.159,-7235.965,-0.043,0.967,-0.264,0.336,-1.862,-0.122,80.000,427.000,1.000
-47392.912,-191336.260,6418.262,-112551.359,4816.576,-22577.902,13420.827,-7259.070,-0.044,0.965,-0.265,0.336,-1.923,-0.061,80.000,428.000,1.000
-47452.169,-191133.124,6417.350,-112818.507,4833.332,-22562.098,13322.629,-7283.688,-0.044,0.965,-0.264,0.305,-1.923,-0.183,80.000,429.000,1.000
-47511.827,-190928.545,6415.663,-113083.437,4849.253,-22547.263,13225.009,-7308.544,-0.042,0.962,-0.263,0.336,-1.892,-0.214,80.000,430.000,1.000
-47571.690,-190722.428,6413.206,-113346.188,4864.301,-22532.708,13128.925,-7332.295,-0.043,0.964,-0.265,0.244,-1.862,-0.122,80.000,431.000,1.000
-47630.915,-190513.998,6410.271,-113606.556,4878.727,-22517.463,13034.390,-7354.300,-0.045,0.964,-0.265,0.275,-1.831,-0.153,80.000,432.000,1.000
-47688.660,-190302.237,6407.260,-113864.208,4892.931,-22500.789,12940.711,-7374.838,-0.045,0.963,-0.263,0.244,-1.740,-0.092,80.000,433.000,1.000
-47744.301,-190086.250,6404.498,-114118.800,4907.296,-22482.548,12847.254,-7394.566,-0.044,0.962,-0.264,0.305,-1.709,-0.153,80.000,434.000,1.000
-47797.319,-189865.400,6402.171,-114370.053,4922.099,-22463.082,12753.893,-7413.965,-0.044,0.961,-0.261,0.366,-1.678,-0.183,80.000,435.000,1.000
-47848.034,-189639.802,6400.280,-114617.902,4937.393,-22443.040,12660.896,-7433.227,-0.044,0.962,-0.261,0.427,-1.648,-0.153,80.000,436.000,1.000
-47896.670,-189409.732,6398.616,-114862.576,4952.943,-22422.876,12568.423,-7452.289,-0.044,0.966,-0.262,0.397,-1.648,-0.031,80.000,437.000,1.000
-47943.727,-189175.675,6396.791,-115104.541,4968.302,-22402.790,12476.137,-7471.064,-0.044,0.967,-0.262,0.397,-1.709,-0.122,80.000,438.000,1.000
-47990.010,-188938.359,6394.432,-115344.246,4983.060,-22382.696,12383.735,-7489.533,-0.046,0.969,-0.261,0.336,-1.648,-0.031,80.000,439.000,1.000
-48035.753,-188697.955,6391.431,-115581.837,4997.102,-22362.186,12291.670,-7507.517,-0.047,0.969,-0.261,0.244,-1.617,-0.092,80.000,440.000,1.000
-48081.138,-188454.211,6387.989,-115817.090,5010.612,-22341.129,12200.677,-7524.808,-0.045,0.968,-0.262,0.305,-1.648,-0.153,80.000,441.000,1.000
-48126.127,-188206.729,6384.409,-116049.656,5023.855,-22319.921,12110.618,-7541.610,-0.047,0.967,-0.264,0.183,-1.587,-0.153,80.000,442.000,1.000
-48171.070,-187955.601,6380.853,-116279.353,5036.972,-22299.265,12020.413,-7558.641,-0.046,0.964,-0.262,0.122,-1.709,-0.153,80.000,443.000,1.000
-48216.285,-187701.322,6377.277,-116506.248,5049.955,-22279.439,11929.194,-7576.596,-0.047,0.960,-0.262,0.153,-1.678,-0.305,80.000,444.000,1.000
-48261.286,-187444.181,6373.508,-116730.559,5062.714,-22259.966,11837.085,-7595.591,-0.044,0.959,-0.263,0.244,-1.648,-0.214,80.000,445.000,1.000
-48305.671,-187184.698,6369.372,-116952.496,5075.154,-22240.168,11744.817,-7615.156,-0.045,0.964,-0.260,0.183,-1.740,-0.214,80.000,446.000,1.000
-48348.579,-186923.300,6364.866,-117172.073,5087.293,-22219.392,11652.842,-7634.623,-0.044,0.964,-0.260,0.153,-1.617,-0.153,80.000,447.000,1.000
-48389.100,-186660.180,6360.160,-117389.110,5099.258,-22197.326,11560.928,-7653.798,-0.043,0.964,-0.262,0.122,-1.556,-0.183,80.000,448.000,1.000
-48426.887,-186395.564,6355.435,-117603.415,5111.150,-22174.090,11468.769,-7673.092,-0.041,0.962,-0.264,0.092,-1.526,-0.153,80.000,449.000,1.000
-48462.190,-186129.723,6350.796,-117814.870,5123.014,-22149.969,11376.509,-7692.835,-0.041,0.960,-0.269,0.031,-1.404,-0.092,80.000,450.000,1.000
-48496.024,-185862.804,6346.328,-118023.377,5134.936,-22125.262,11284.460,-7712.737,-0.041,0.960,-0.264,-0.031,-1.221,0.092,80.000,451.000,1.000
-48528.697,-185593.867,6342.129,-118228.847,5147.046,-22099.918,11192.948,-7731.967,-0.041,0.958,-0.264,0.061,-1.129,0.153,80.000,452.000,1.000
-48560.342,-185321.592,6338.157,-118431.343,5159.330,-22073.873,11102.326,-7749.843,-0.042,0.959,-0.265,0.122,-1.007,0.275,80.000,453.000,1.000
-48591.582,-185045.578,6334.166,-118631.145,5171.540,-22047.596,11012.593,-7766.383,-0.042,0.959,-0.266,0.244,-0.916,0.305,80.000,454.000,1.000
-48622.896,-184766.012,6329.899,-118828.562,5183.396,-22021.874,10923.272,-7782.109,-0.042,0.962,-0.267,0.214,-0.793,0.366,80.000,455.000,1.000
-48654.581,-184482.954,6325.249,-119023.743,5194.760,-21997.272,10833.961,-7797.599,-0.042,0.965,-0.266,0.275,-0.763,0.397,80.000,456.000,1.000
-48686.010,-184195.603,6320.202,-119216.713,5205.610,-21973.669,10744.562,-7813.283,-0.044,0.969,-0.266,0.183,-0.671,0.336,80.000,457.000,1.000
-48716.699,-183903.144,6314.749,-119407.446,5215.983,-21950.642,10654.928,-7829.525,-0.043,0.972,-0.269,0.092,-0.671,0.305,80.000,458.000,1.000
-48746.978,-183605.780,6308.937,-119595.851,5225.997,-21927.841,10564.934,-7846.586,-0.043,0.971,-0.266,-0.031,-0.610,0.275,80.000,459.000,1.000
-48777.290,-183304.459,6302.831,-119781.836,5235.772,-21905.003,10474.752,-7864.454,-0.043,0.971,-0.270,-0.153,-0.610,0.366,80.000,460.000,1.000
-48808.026,-183000.465,6296.453,-119965.401,5245.341,-21882.019,10384.692,-7882.864,-0.043,0.973,-0.267,-0.244,-0.549,0.275,80.000,461.000,1.000
-48838.367,-182694.456,6289.917,-120146.475,5254.780,-21858.642,10294.962,-7901.331,-0.045,0.975,-0.265,-0.275,-0.610,0.305,80.000,462.000,1.000
-48866.928,-182386.411,6283.525,-120324.803,5264.318,-21834.786,10205.444,-7919.408,-0.046,0.975,-0.264,-0.336,-0.641,0.244,80.000,463.000,1.000
-48892.661,-182076.042,6277.556,-120500.127,5274.162,-21810.777,10115.675,-7937.017,-0.048,0.976,-0.264,-0.549,-0.671,0.214,80.000,464.000,1.000
-48915.271,-181763.108,6271.949,-120672.495,5284.219,-21786.985,10025.373,-7954.420,-0.048,0.977,-0.260,-0.702,-0.763,0.092,80.000,465.000,1.000
-48936.100,-181448.163,6266.235,-120842.368,5294.040,-21763.487,9934.987,-7971.813,-0.048,0.978,-0.266,-0.916,-0.885,0.061,80.000,466.000,1.000
-48956.541,-181131.880,6259.868,-121010.301,5303.126,-21739.679,9845.599,-7988.789,-0.047,0.977,-0.263,-1.099,-1.007,0.000,80.000,467.000,1.000
-48977.261,-180814.444,6252.635,-121176.519,5311.314,-21714.640,9758.163,-8004.516,-0.048,0.976,-0.261,-1.190,-1.068,-0.153,80.000,468.000,1.000
-48998.218,-180495.582,6244.778,-121340.785,5318.848,-21687.827,9672.705,-8018.602,-0.047,0.976,-0.261,-1.251,-1.160,-0.214,80.000,469.000,1.000
-49019.009,-180174.978,6236.714,-121502.688,5326.118,-21659.429,9588.254,-8031.649,-0.045,0.972,-0.261,-1.373,-1.251,-0.244,80.000,470.000,1.000
-49039.860,-179853.106,6228.682,-121661.989,5333.353,-21630.441,9503.557,-8045.080,-0.047,0.969,-0.257,-1.434,-1.282,-0.092,80.000,471.000,1.000
-49060.393,-179530.375,6220.730,-121818.636,5340.638,-21601.966,9417.944,-8060.313,-0.047,0.968,-0.258,-1.495,-1.312,-0.092,80.000,472.000,1.000
-49079.695,-179206.614,6212.856,-121972.633,5348.013,-21574.730,9331.698,-8077.860,-0.045,0.964,-0.256,-1.404,-1.404,-0.061,80.000,473.000,1.000
-49097.148,-178881.568,6205.054,-122124.004,5355.465,-21548.989,9245.406,-8097.043,-0.044,0.964,-0.255,-1.312,-1.404,-0.031,80.000,474.000,1.000
-49112.728,-178555.152,6197.311,-122272.822,5362.903,-21524.573,9158.963,-8116.592,-0.045,0.963,-0.252,-1.343,-1.404,0.061,80.000,475.000,1.000
-49127.328,-178227.432,6189.596,-122419.180,5370.214,-21500.993,9071.833,-8135.411,-0.045,0.961,-0.255,-1.251,-1.465,0.061,80.000,476.000,1.000
-49141.252,-177897.674,6181.826,-122563.186,5377.306,-21477.306,8984.058,-8152.737,-0.044,0.959,-0.254,-1.129,-1.495,0.122,80.000,477.000,1.000
-49154.629,-177564.753,6173.808,-122705.007,5384.062,-21452.823,8896.072,-8168.395,-0.046,0.958,-0.251,-1.007,-1.678,0.122,80.000,478.000,1.000
-49168.058,-177228.121,6165.367,-122844.777,5390.397,-21427.608,8808.083,-8182.969,-0.046,0.958,-0.251,-0.885,-1.678,0.122,80.000,479.000,1.000
-49181.777,-176887.430,6156.568,-122982.406,5396.416,-21401.836,8720.494,-8197.113,-0.046,0.958,-0.250,-0.702,-1.740,0.183,80.000,480.000,1.000
-49195.708,-176542.415,6147.661,-123117.641,5402.345,-21375.494,8633.996,-8211.129,-0.045,0.959,-0.250,-0.641,-1.862,0.061,80.000,481.000,1.000
-49209.132,-176192.900,6138.828,-123250.310,5408.323,-21348.701,8548.493,-8225.440,-0.047,0.961,-0.251,-0.427,-1.862,0.000,80.000,482.000,1.000
-49221.744,-175839.330,6130.092,-123380.406,5414.347,-21322.105,8462.802,-8240.815,-0.048,0.958,-0.250,-0.214,-1.953,0.000,80.000,483.000,1.000
-49233.791,-175482.635,6121.444,-123507.966,5420.400,-21296.253,8375.950,-8257.523,-0.045,0.960,-0.250,-0.061,-2.045,-0.092,80.000,484.000,1.000
-49245.179,-175123.520,6112.906,-123633.002,5426.494,-21270.910,8288.044,-8274.722,-0.043,0.959,-0.250,0.122,-2.045,-0.153,80.000,485.000,1.000
-49255.859,-174762.701,6104.410,-123755.590,5432.547,-21245.500,8199.879,-8291.060,-0.044,0.960,-0.251,0.244,-1.984,-0.122,80.000,486.000,1.000
-49265.172,-174400.557,6095.753,-123875.916,5438.346,-21219.314,8112.469,-8305.426,-0.043,0.960,-0.253,0.305,-1.984,-0.122,80.000,487.000,1.000
-49272.524,-174037.219,6086.714,-123994.185,5443.668,-21191.689,8026.779,-8317.347,-0.043,0.961,-0.252,0.336,-1.892,-0.183,80.000,488.000,1.000
-49277.967,-173672.982,6077.237,-124110.459,5448.473,-21162.315,7943.178,-8327.155,-0.042,0.960,-0.253,0.397,-1.953,-0.336,80.000,489.000,1.000
-49281.836,-173308.300,6067.469,-124224.609,5452.961,-21131.433,7860.978,-8335.815,-0.041,0.961,-0.251,0.549,-1.923,-0.305,80.000,490.000,1.000
-49284.793,-172943.720,6057.648,-124336.404,5457.435,-21099.675,7779.013,-8344.322,-0.041,0.963,-0.252,0.641,-1.892,-0.305,80.000,491.000,1.000
-49286.548,-172578.841,6047.967,-124445.678,5462.088,-21067.323,7696.862,-8352.918,-0.044,0.962,-0.251,0.702,-1.892,-0.336,80.000,492.000,1.000
-49286.573,-172212.563,6038.389,-124552.524,5466.823,-21034.488,7614.904,-8361.232,-0.043,0.964,-0.253,0.702,-1.770,-0.305,80.000,493.000,1.000
-49284.902,-171844.032,6028.667,-124657.238,5471.331,-21001.615,7533.120,-8369.206,-0.043,0.964,-0.256,0.793,-1.740,-0.336,80.000,494.000,1.000
-49281.862,-171472.756,6018.678,-124759.958,5475.453,-20969.266,7450.532,-8377.467,-0.042,0.964,-0.255,0.854,-1.556,-0.275,80.000,495.000,1.000
-49278.679,-171099.077,6008.572,-124860.519,5479.333,-20937.906,7365.973,-8387.032,-0.043,0.964,-0.259,0.824,-1.526,-0.214,80.000,496.000,1.000
-49276.716,-170724.001,5998.485,-124958.757,5483.125,-20907.781,7278.914,-8398.926,-0.043,0.963,-0.257,0.916,-1.434,-0.244,80.000,497.000,1.000
-49277.201,-170348.772,5988.285,-125054.792,5486.728,-20879.033,7189.803,-8413.768,-0.044,0.966,-0.260,0.977,-1.373,-0.183,80.000,498.000,1.000
-49280.132,-169973.694,5977.774,-125148.821,5489.970,-20851.140,7100.714,-8430.687,-0.044,0.967,-0.262,1.038,-1.343,-0.244,80.000,499.000,1.000
-49283.263,-169597.150,5966.995,-125240.789,5492.922,-20822.508,7015.047,-8446.867,-0.045,0.966,-0.261,1.038,-1.221,-0.183,80.000,500.000,1.000
-49283.876,-169216.985,5956.141,-125330.469,5495.813,-20791.698,6934.691,-8459.611,-0.044,0.968,-0.261,1.068,-1.160,-0.122,80.000,501.000,1.000
-49280.046,-168832.077,5945.290,-125417.752,5498.744,-20758.559,6857.876,-8468.759,-0.046,0.967,-0.259,1.129,-1.068,-0.153,80.000,502.000,1.000
-49271.964,-168443.244,5934.365,-125502.742,5501.613,-20724.224,6780.942,-8476.373,-0.047,0.968,-0.259,1.038,-1.068,-0.122,80.000,503.000,1.000
-49261.307,-168052.283,5923.234,-125585.659,5504.233,-20690.086,6701.200,-8484.686,-0.046,0.968,-0.260,1.068,-0.946,-0.092,80.000,504.000,1.000
-49249.581,-167660.083,5911.745,-125666.748,5506.390,-20656.896,6618.057,-8494.816,-0.046,0.967,-0.261,1.038,-0.946,-0.031,80.000,505.000,1.000
-49238.591,-167266.930,5899.797,-125746.156,5507.949,-20624.770,6533.231,-8506.320,-0.045,0.969,-0.260,0.977,-0.854,0.061,80.000,506.000,1.000
-49229.811,-166873.191,5887.541,-125823.726,5509.084,-20593.277,6449.603,-8517.364,-0.045,0.972,-0.258,0.916,-0.885,0.061,80.000,507.000,1.000
-49223.773,-166479.327,5875.362,-125899.037,5510.247,-20561.783,6368.485,-8526.422,-0.048,0.973,-0.261,0.854,-0.916,0.122,80.000,508.000,1.000
-49219.093,-166084.731,5863.566,-125971.741,5511.807,-20529.576,6288.751,-8533.845,-0.048,0.972,-0.257,0.824,-0.916,0.092,80.000,509.000,1.000
-49212.521,-165686.998,5852.170,-126041.799,5513.795,-20495.819,6208.904,-8541.187,-0.047,0.973,-0.258,0.793,-1.007,0.031,80.000,510.000,1.000
-49201.819,-165283.957,5841.032,-126109.350,5516.031,-20460.122,6128.776,-8549.574,-0.049,0.972,-0.260,0.671,-1.068,-0.031,80.000,511.000,1.000
-49186.931,-164875.528,5830.053,-126174.485,5518.367,-20422.929,6049.241,-8558.940,-0.050,0.972,-0.257,0.580,-1.099,-0.153,80.000,512.000,1.000
-49169.823,-164463.871,5819.205,-126237.237,5520.736,-20385.436,5971.110,-8568.379,-0.049,0.971,-0.255,0.519,-1.190,-0.153,80.000,513.000,1.000
-49152.645,-164051.797,5808.416,-126297.700,5523.074,-20348.730,5894.317,-8576.992,-0.047,0.966,-0.258,0.366,-1.343,-0.214,80.000,514.000,1.000
-49136.195,-163641.199,5797.459,-126356.138,5525.197,-20313.221,5817.734,-8584.720,-0.046,0.964,-0.259,0.305,-1.343,-0.244,80.000,515.000,1.000
-49120.812,-163232.917,5786.008,-126412.925,5526.810,-20279.084,5739.904,-8592.444,-0.044,0.964,-0.257,0.305,-1.434,-0.275,80.000,516.000,1.000
-49106.124,-162826.431,5773.875,-126468.284,5527.716,-20246.239,5660.344,-8600.976,-0.043,0.969,-0.261,0.275,-1.434,-0.305,80.000,517.000,1.000
-49091.645,-162420.762,5761.103,-126522.187,5527.914,-20214.218,5579.861,-8610.286,-0.042,0.969,-0.260,0.427,-1.434,-0.305,80.000,518.000,1.000
-49076.751,-162015.260,5747.905,-126574.407,5527.593,-20182.129,5499.605,-8619.689,-0.044,0.969,-0.258,0.427,-1.404,-0.336,80.000,519.000,1.000
-49060.040,-161609.036,5734.632,-126624.569,5527.103,-20148.887,5420.394,-8628.379,-0.044,0.969,-0.259,0.153,-1.343,-0.275,80.000,520.000,1.000
-49040.711,-161201.269,5721.610,-126672.312,5526.788,-20113.972,5342.771,-8635.794,-0.042,0.965,-0.261,0.244,-1.404,-0.153,80.000,521.000,1.000
-49018.724,-160791.225,5708.955,-126717.499,5526.795,-20077.525,5266.621,-8641.797,-0.040,0.963,-0.261,0.275,-1.373,-0.092,80.000,522.000,1.000
-48994.841,-160378.037,5696.590,-126760.221,5527.072,-20040.193,5190.384,-8647.048,-0.040,0.960,-0.259,0.336,-1.404,-0.122,80.000,523.000,1.000
-48969.993,-159960.649,5684.376,-126800.648,5527.503,-20002.828,5111.685,-8653.107,-0.040,0.960,-0.260,0.427,-1.312,-0.061,80.000,524.000,1.000
-48944.827,-159538.516,5672.123,-126839.009,5527.923,-19966.283,5029.123,-8661.728,-0.042,0.959,-0.258,0.427,-1.221,0.031,80.000,525.000,1.000
-48920.643,-159112.943,5659.595,-126875.611,5528.096,-19931.459,4943.154,-8673.891,-0.043,0.960,-0.259,0.610,-1.129,-0.122,80.000,526.000,1.000
-48898.148,-158686.078,5646.654,-126910.665,5527.841,-19898.592,4855.881,-8688.986,-0.045,0.962,-0.260,0.641,-1.099,-0.305,80.000,527.000,1.000
-48876.977,-158259.302,5633.330,-126944.162,5527.095,-19866.888,4770.474,-8704.722,-0.047,0.964,-0.260,0.702,-1.221,-0.519,80.000,528.000,1.000
-48856.081,-157832.523,5619.683,-126975.987,5525.849,-19835.016,4689.820,-8718.201,-0.047,0.964,-0.260,0.702,-1.221,-0.671,80.000,529.000,1.000
-48834.150,-157404.337,5605.725,-127006.037,5524.131,-19801.849,4614.663,-8727.597,-0.046,0.960,-0.260,0.824,-1.343,-0.824,80.000,530.000,1.000
-48810.638,-156973.340,5591.532,-127034.186,5522.103,-19766.984,4542.982,-8733.101,-0.045,0.961,-0.259,0.885,-1.465,-0.793,80.000,531.000,1.000
-48785.035,-156538.803,5577.328,-127060.216,5520.087,-19730.448,4471.593,-8736.242,-0.044,0.960,-0.260,1.038,-1.526,-0.916,80.000,532.000,1.000
-48757.376,-156101.517,5563.337,-127083.944,5518.350,-19692.606,4398.572,-8738.526,-0.045,0.962,-0.263,1.160,-1.587,-0.977,80.000,533.000,1.000
-48728.252,-155663.636,5549.625,-127105.337,5516.934,-19654.062,4324.004,-8740.686,-0.045,0.961,-0.264,1.312,-1.587,-1.007,80.000,534.000,1.000
-48697.706,-155227.045,5536.116,-127124.501,5515.683,-19615.334,4248.592,-8742.962,-0.048,0.963,-0.260,1.251,-1.495,-1.038,80.000,535.000,1.000
-48665.831,-154792.893,5522.649,-127141.624,5514.368,-19576.744,4172.528,-8745.691,-0.046,0.966,-0.262,1.312,-1.465,-1.068,80.000,536.000,1.000
-48632.782,-154361.558,5509.054,-127156.911,5512.803,-19538.192,4095.937,-8749.248,-0.046,0.968,-0.260,1.434,-1.495,-1.038,80.000,537.000,1.000
-48599.328,-153932.848,5495.240,-127170.474,5510.930,-19499.469,4019.449,-8753.768,-0.045,0.968,-0.264,1.404,-1.465,-0.885,80.000,538.000,1.000
-48566.123,-153505.453,5481.288,-127182.242,5508.866,-19460.328,3943.994,-8758.972,-0.046,0.968,-0.264,1.251,-1.434,-0.824,80.000,539.000,1.000
-48532.593,-153076.488,5467.386,-127192.031,5506.818,-19420.346,3870.236,-8764.203,-0.048,0.969,-0.262,1.129,-1.404,-0.702,80.000,540.000,1.000
-48498.528,-152643.426,5453.655,-127199.715,5504.902,-19379.542,3798.219,-8768.841,-0.048,0.969,-0.264,1.221,-1.404,-0.580,80.000,541.000,1.000
-48464.380,-152205.430,5440.116,-127205.252,5503.121,-19338.455,3727.457,-8772.615,-0.047,0.970,-0.265,1.221,-1.282,-0.366,80.000,542.000,1.000
-48431.018,-151763.218,5426.647,-127208.733,5501.350,-19297.802,3657.207,-8775.670,-0.047,0.972,-0.260,1.190,-1.343,-0.305,80.000,543.000,1.000
-48398.704,-151317.862,5412.969,-127210.438,5499.333,-19258.077,3586.875,-8778.436,-0.048,0.972,-0.265,1.129,-1.251,-0.153,80.000,544.000,1.000
-48366.475,-150869.788,5398.803,-127210.668,5496.828,-19219.397,3515.922,-8781.530,-0.050,0.972,-0.264,0.946,-1.221,-0.061,80.000,545.000,1.000
-48333.759,-150419.560,5384.066,-127209.507,5493.783,-19181.971,3442.967,-8786.075,-0.048,0.971,-0.262,0.824,-1.251,0.061,80.000,546.000,1.000
-48300.204,-149967.876,5368.985,-127206.722,5490.411,-19145.863,3366.381,-8793.151,-0.049,0.972,-0.262,0.549,-1.282,0.153,80.000,547.000,1.000
-48265.373,-149515.037,5354.055,-127201.838,5487.161,-19110.411,3286.702,-8802.285,-0.050,0.972,-0.261,0.519,-1.343,0.153,80.000,548.000,1.000
-48228.702,-149061.078,5339.725,-127194.446,5484.433,-19074.281,3206.943,-8811.311,-0.048,0.972,-0.263,0.458,-1.373,0.092,80.000,549.000,1.000
-48189.899,-148606.460,5325.989,-127184.573,5482.198,-19036.494,3129.721,-8818.370,-0.047,0.971,-0.264,0.305,-1.343,0.183,80.000,550.000,1.000
-48150.051,-148152.504,5312.401,-127172.676,5480.006,-18997.281,3055.440,-8823.399,-0.047,0.970,-0.263,0.061,-1.251,0.214,80.000,551.000,1.000
-48110.313,-147700.050,5298.511,-127159.222,5477.431,-18957.401,2983.383,-8827.315,-0.044,0.968,-0.263,-0.061,-1.160,0.183,80.000,552.000,1.000
-48071.368,-147248.949,5284.136,-127144.412,5474.323,-18917.583,2912.571,-8830.880,-0.046,0.967,-0.262,-0.183,-1.099,0.092,80.000,553.000,1.000
-48032.958,-146798.235,5269.355,-127128.165,5470.780,-18878.293,2841.598,-8834.483,-0.044,0.968,-0.262,-0.122,-1.160,0.183,80.000,554.000,1.000
-47993.445,-146346.040,5254.431,-127110.193,5467.084,-18839.277,2769.469,-8838.003,-0.044,0.966,-0.261,-0.214,-1.099,0.153,80.000,555.000,1.000
-47951.829,-145891.227,5239.639,-127090.201,5463.511,-18799.943,2696.597,-8841.011,-0.041,0.964,-0.263,-0.183,-1.038,0.153,80.000,556.000,1.000
-47908.623,-145434.718,5225.004,-127068.182,5460.052,-18760.009,2624.159,-8843.491,-0.042,0.964,-0.265,-0.183,-0.946,0.153,80.000,557.000,1.000
-47865.627,-144978.869,5210.250,-127044.444,5456.391,-18719.538,2552.878,-8846.039,-0.044,0.963,-0.264,-0.244,-0.854,0.214,80.000,558.000,1.000
-47823.746,-144524.650,5195.135,-127019.269,5452.252,-18678.122,2482.782,-8849.027,-0.045,0.962,-0.265,-0.214,-0.854,0.153,80.000,559.000,1.000
-47781.606,-144070.090,5179.704,-126992.637,5447.668,-18634.988,2413.459,-8852.158,-0.045,0.961,-0.260,-0.153,-0.702,0.031,80.000,560.000,1.000
-47738.214,-143613.188,5164.136,-126964.385,5442.835,-18590.525,2344.347,-8855.055,-0.044,0.962,-0.262,-0.092,-0.702,-0.061,80.000,561.000,1.000
-47693.852,-143154.120,5148.537,-126934.406,5437.920,-18546.350,2275.386,-8857.300,-0.044,0.963,-0.261,-0.061,-0.610,-0.122,80.000,562.000,1.000
-47649.126,-142694.210,5132.937,-126902.644,5433.034,-18503.888,2207.081,-8858.199,-0.044,0.963,-0.261,-0.061,-0.610,-0.183,80.000,563.000,1.000
-47603.487,-142233.624,5117.312,-126869.094,5428.213,-18463.170,2139.233,-8857.573,-0.044,0.963,-0.261,-0.031,-0.671,-0.122,80.000,564.000,1.000
-47555.298,-141770.770,5101.569,-126833.824,5423.361,-18423.020,2070.391,-8856.527,-0.043,0.964,-0.260,-0.061,-0.641,-0.244,80.000,565.000,1.000
-47504.849,-141305.126,5085.663,-126796.859,5418.358,-18382.627,1999.443,-8856.750,-0.046,0.963,-0.260,-0.092,-0.610,-0.336,80.000,566.000,1.000
-47454.932,-140839.284,5069.733,-126758.067,5413.249,-18342.359,1927.085,-8859.100,-0.046,0.964,-0.262,0.031,-0.580,-0.305,80.000,567.000,1.000
-47408.583,-140377.004,5054.018,-126717.264,5408.218,-18302.993,1855.011,-8863.090,-0.048,0.965,-0.263,0.000,-0.549,-0.427,80.000,568.000,1.000
-47364.222,-139917.102,5038.707,-126674.349,5403.450,-18263.482,1784.565,-8867.129,-0.049,0.966,-0.259,-0.031,-0.610,-0.305,80.000,569.000,1.000
-47313.908,-139450.030,5023.844,-126629.338,5399.019,-18220.191,1716.412,-8869.234,-0.049,0.966,-0.258,0.000,-0.610,-0.305,80.000,570.000,1.000
-47251.572,-138966.257,5009.205,-126582.454,5394.760,-18170.645,1650.189,-8868.688,-0.050,0.965,-0.257,0.000,-0.610,-0.427,80.000,571.000,1.000
-47181.441,-138468.600,4994.362,-126534.067,5390.308,-18117.545,1584.332,-8866.797,-0.049,0.967,-0.261,-0.031,-0.671,-0.397,80.000,572.000,1.000
-47115.616,-137972.042,4979.000,-126484.419,5385.382,-18067.165,1517.278,-8865.300,-0.050,0.966,-0.260,-0.031,-0.702,-0.305,80.000,573.000,1.000
-47061.691,-137489.047,4963.204,-126433.404,5380.044,-18023.173,1448.953,-8864.493,-0.051,0.966,-0.255,0.031,-0.824,-0.305,80.000,574.000,1.000
-47015.382,-137017.793,4947.324,-126380.727,5374.590,-17983.301,1380.489,-8863.478,-0.052,0.967,-0.255,-0.092,-0.854,-0.305,80.000,575.000,1.000
-46967.684,-136547.589,4931.539,-126326.285,5369.157,-17942.958,1312.653,-8862.051,-0.053,0.967,-0.259,-0.092,-0.977,-0.305,80.000,576.000,1.000
-46914.779,-136072.198,4915.736,-126270.204,5363.636,-17900.382,1245.283,-8861.236,-0.053,0.967,-0.262,-0.122,-1.099,-0.275,80.000,577.000,1.000
-46859.924,-135594.640,4899.774,-126212.586,5357.911,-17857.353,1178.011,-8861.858,-0.052,0.966,-0.260,-0.153,-1.099,-0.275,80.000,578.000,1.000
-46807.009,-135120.328,4883.645,-126153.410,5351.982,-17815.842,1110.734,-8863.563,-0.053,0.967,-0.258,-0.061,-1.068,-0.244,80.000,579.000,1.000
-46755.243,-134649.414,4867.459,-126092.610,5345.925,-17775.453,1043.480,-8865.471,-0.052,0.967,-0.255,0.031,-1.160,-0.214,80.000,580.000,1.000
-46701.747,-134177.930,4851.336,-126030.138,5339.826,-17734.491,976.231,-8867.256,-0.054,0.964,-0.257,-0.061,-1.251,-0.153,80.000,581.000,1.000
-46645.585,-133703.505,4835.281,-125966.017,5333.710,-17692.227,908.776,-8869.269,-0.053,0.965,-0.258,0.000,-1.312,-0.061,80.000,582.000,1.000
-46588.913,-133227.918,4819.161,-125900.334,5327.501,-17649.566,840.770,-8871.891,-0.053,0.966,-0.259,0.061,-1.373,-0.031,80.000,583.000,1.000
-46534.016,-132754.073,4802.850,-125833.161,5321.098,-17607.556,772.393,-8874.925,-0.053,0.964,-0.258,0.061,-1.373,0.031,80.000,584.000,1.000
-46480.295,-132281.943,4786.337,-125764.496,5314.478,-17565.964,704.631,-8877.546,-0.051,0.964,-0.258,0.122,-1.404,0.031,80.000,585.000,1.000
-46425.784,-131809.018,4769.667,-125694.333,5307.663,-17523.910,638.356,-8879.090,-0.052,0.965,-0.257,0.183,-1.434,0.183,80.000,586.000,1.000
-46369.016,-131332.969,4752.884,-125622.689,5300.670,-17480.877,573.443,-8879.619,-0.051,0.965,-0.257,0.244,-1.526,0.092,80.000,587.000,1.000
-46310.288,-130853.518,4736.079,-125549.504,5293.576,-17437.048,508.954,-8879.534,-0.049,0.964,-0.259,0.122,-1.465,0.183,80.000,588.000,1.000
-46251.310,-130372.513,4719.439,-125474.586,5286.570,-17393.072,443.908,-8879.104,-0.050,0.966,-0.258,0.244,-1.495,0.183,80.000,589.000,1.000
-46193.479,-129892.389,4703.127,-125397.745,5279.851,-17349.570,377.955,-8878.434,-0.047,0.968,-0.257,0.305,-1.373,0.366,80.000,590.000,1.000
-46137.135,-129414.534,4687.057,-125319.028,5273.385,-17306.811,311.493,-8877.703,-0.047,0.965,-0.257,0.275,-1.343,0.366,80.000,591.000,1.000
-46080.605,-128937.932,4670.883,-125238.757,5266.864,-17264.414,245.225,-8877.137,-0.047,0.967,-0.256,0.183,-1.221,0.397,80.000,592.000,1.000
-46021.713,-128460.136,4654.294,-125157.245,5259.968,-17221.705,179.741,-8876.776,-0.046,0.968,-0.256,0.153,-1.221,0.488,80.000,593.000,1.000
-45960.061,-127979.973,4637.282,-125074.532,5252.638,-17178.404,115.557,-8876.331,-0.047,0.969,-0.257,0.183,-1.129,0.488,80.000,594.000,1.000
-45896.953,-127498.372,4620.144,-124990.360,5245.106,-17134.655,53.105,-8875.246,-0.046,0.968,-0.258,0.214,-1.129,0.488,80.000,595.000,1.000
-45834.038,-127016.868,4603.286,-124904.370,5237.735,-17090.596,-7.781,-8873.170,-0.045,0.968,-0.261,0.214,-1.068,0.549,80.000,596.000,1.000
-45771.109,-126535.512,4586.941,-124816.387,5230.740,-17045.982,-68.255,-8870.428,-0.045,0.968,-0.260,0.244,-0.854,0.610,80.000,597.000,1.000
-45706.880,-126053.018,4570.921,-124726.637,5223.972,-17000.689,-130.002,-8868.018,-0.045,0.965,-0.261,0.183,-0.824,0.610,80.000,598.000,1.000
-45640.999,-125568.698,4554.769,-124635.552,5217.047,-16955.193,-193.936,-8866.915,-0.043,0.965,-0.258,0.214,-0.793,0.641,80.000,599.000,1.000
-45574.512,-125083.561,4538.165,-124543.380,5209.700,-16910.065,-259.068,-8866.900,-0.042,0.967,-0.256,0.214,-0.610,0.671,80.000,600.000,1.000
-45509.029,-124599.301,4521.138,-124450.032,5201.949,-16865.220,-323.022,-8866.340,-0.044,0.966,-0.255,0.305,-0.488,0.610,80.000,601.000,1.000
-45444.013,-124115.407,4503.994,-124355.201,5194.042,-16819.529,-384.007,-8863.494,-0.044,0.965,-0.255,0.336,-0.427,0.549,80.000,602.000,1.000
-45377.334,-123629.155,4487.064,-124258.622,5186.251,-16771.910,-442.441,-8858.287,-0.046,0.966,-0.259,0.183,-0.366,0.580,80.000,603.000,1.000
-45308.351,-123139.328,4470.417,-124160.288,5178.632,-16722.954,-500.581,-8852.716,-0.045,0.965,-0.258,0.244,-0.244,0.580,80.000,604.000,1.000
-45238.908,-122648.437,4453.822,-124060.445,5170.994,-16674.813,-560.448,-8849.078,-0.045,0.966,-0.262,0.336,-0.122,0.519,80.000,605.000,1.000
-45171.596,-122160.572,4437.012,-123959.346,5163.121,-16629.317,-622.330,-8847.917,-0.045,0.967,-0.262,0.275,-0.092,0.549,80.000,606.000,1.000
-45106.017,-121676.575,4419.958,-123857.010,5155.011,-16586.091,-685.132,-8847.703,-0.045,0.963,-0.258,0.305,-0.092,0.519,80.000,607.000,1.000
-45039.371,-121193.082,4402.814,-123753.274,5146.818,-16543.109,-747.599,-8846.382,-0.045,0.964,-0.260,0.427,0.153,0.519,80.000,608.000,1.000
-44970.318,-120706.895,4385.695,-123648.009,5138.667,-16498.877,-809.118,-8843.149,-0.046,0.964,-0.260,0.458,0.092,0.519,80.000,609.000,1.000
-44900.371,-120218.496,4368.628,-123541.193,5130.587,-16453.473,-869.693,-8838.560,-0.046,0.965,-0.260,0.336,0.092,0.458,80.000,610.000,1.000
-44831.999,-119730.737,4351.628,-123432.849,5122.553,-16407.755,-929.622,-8833.483,-0.047,0.965,-0.257,0.366,0.244,0.458,80.000,611.000,1.000
-44764.827,-119244.461,4334.746,-123322.972,5114.553,-16361.766,-989.225,-8828.402,-0.047,0.965,-0.258,0.458,0.214,0.488,80.000,612.000,1.000
-44696.065,-118757.270,4318.022,-123211.543,5106.590,-16314.560,-1048.487,-8823.392,-0.048,0.966,-0.259,0.488,0.305,0.458,80.000,613.000,1.000
-44624.129,-118266.957,4301.413,-123098.596,5098.641,-16265.613,-1107.066,-8818.349,-0.047,0.965,-0.260,0.458,0.183,0.427,80.000,614.000,1.000
-44550.440,-117774.613,4284.811,-122984.231,5090.652,-16215.869,-1164.917,-8813.109,-0.048,0.965,-0.260,0.549,0.183,0.366,80.000,615.000,1.000
-44477.998,-117283.494,4268.110,-122868.553,5082.547,-16167.134,-1222.726,-8807.686,-0.048,0.965,-0.259,0.610,0.153,0.397,80.000,616.000,1.000
-44407.234,-116794.616,4251.212,-122751.656,5074.229,-16120.205,-1281.590,-8802.550,-0.046,0.965,-0.257,0.702,0.244,0.397,80.000,617.000,1.000
-44335.926,-116305.604,4233.983,-122633.657,5065.560,-16074.434,-1342.194,-8798.606,-0.047,0.964,-0.257,0.671,0.214,0.488,80.000,618.000,1.000
-44262.685,-115814.351,4216.362,-122514.608,5056.467,-16029.059,-1404.122,-8796.531,-0.049,0.965,-0.256,0.702,0.122,0.427,80.000,619.000,1.000
-44188.711,-115322.062,4198.526,-122394.335,5047.123,-15984.135,-1466.042,-8795.919,-0.051,0.967,-0.259,0.641,0.061,0.458,80.000,620.000,1.000
-44116.265,-114831.718,4180.799,-122272.549,5037.853,-15939.916,-1526.573,-8795.227,-0.047,0.970,-0.260,0.732,-0.092,0.366,80.000,621.000,1.000
-44044.706,-114343.388,4163.378,-122149.112,5028.851,-15895.566,-1584.945,-8792.640,-0.047,0.970,-0.262,0.763,-0.031,0.336,80.000,622.000,1.000
-43971.167,-113853.780,4146.211,-122024.137,5020.039,-15849.662,-1641.373,-8787.394,-0.048,0.968,-0.259,0.732,-0.092,0.336,80.000,623.000,1.000
-43894.669,-113360.989,4129.103,-121897.848,5011.182,-15801.873,-1696.961,-8780.424,-0.047,0.969,-0.258,0.671,-0.244,0.397,80.000,624.000,1.000
-43817.147,-112867.073,4111.890,-121770.390,5002.099,-15753.215,-1752.764,-8773.317,-0.046,0.968,-0.259,0.671,-0.214,0.458,80.000,625.000,1.000
-43741.024,-112375.298,4094.548,-121641.722,4992.803,-15704.798,-1809.104,-8766.869,-0.048,0.967,-0.258,0.580,-0.214,0.458,80.000,626.000,1.000
-43665.739,-111885.719,4077.217,-121511.648,4983.502,-15656.586,-1865.799,-8760.842,-0.049,0.967,-0.263,0.610,-0.275,0.458,80.000,627.000,1.000
-43588.892,-111395.297,4060.056,-121379.991,4974.403,-15607.884,-1922.583,-8754.814,-0.050,0.967,-0.262,0.519,-0.214,0.488,80.000,628.000,1.000
-43509.602,-110901.883,4043.072,-121246.774,4965.518,-15558.646,-1979.249,-8748.933,-0.047,0.967,-0.259,0.610,-0.305,0.458,80.000,629.000,1.000
-43429.350,-110406.506,4026.082,-121112.233,4956.633,-15509.729,-2035.643,-8743.632,-0.047,0.965,-0.259,0.519,-0.397,0.427,80.000,630.000,1.000
-43350.566,-109911.954,4008.847,-120976.637,4947.462,-15461.959,-2091.490,-8738.912,-0.046,0.963,-0.257,0.427,-0.336,0.458,80.000,631.000,1.000
-43273.315,-109419.116,3991.311,-120840.025,4937.915,-15414.853,-2146.485,-8734.170,-0.047,0.964,-0.260,0.458,-0.488,0.458,80.000,632.000,1.000
-43195.342,-108926.090,3973.668,-120702.176,4928.174,-15367.012,-2200.935,-8728.864,-0.046,0.965,-0.261,0.519,-0.519,0.366,80.000,633.000,1.000
-43115.031,-108431.224,3956.103,-120562.907,4918.430,-15317.787,-2255.727,-8723.063,-0.043,0.965,-0.259,0.519,-0.519,0.427,80.000,634.000,1.000
-43033.029,-107935.592,3938.553,-120422.308,4908.643,-15267.908,-2311.324,-8717.038,-0.043,0.962,-0.261,0.488,-0.519,0.458,80.000,635.000,1.000
-42951.494,-107441.818,3920.749,-120280.675,4898.589,-15218.670,-2367.583,-8710.975,-0.043,0.963,-0.260,0.580,-0.488,0.427,80.000,636.000,1.000
-42870.776,-106950.281,3902.513,-120138.203,4888.111,-15170.505,-2424.337,-8705.180,-0.044,0.964,-0.259,0.641,-0.488,0.275,80.000,637.000,1.000
-42789.251,-106458.412,3884.037,-119994.727,4877.369,-15122.733,-2481.370,-8699.933,-0.042,0.964,-0.260,0.641,-0.427,0.305,80.000,638.000,1.000
-42705.988,-105964.232,3865.764,-119849.823,4866.762,-15074.737,-2538.300,-8695.298,-0.044,0.964,-0.260,0.671,-0.458,0.305,80.000,639.000,1.000
-42621.926,-105468.801,3847.982,-119703.194,4856.574,-15026.809,-2594.900,-8691.159,-0.042,0.964,-0.264,0.732,-0.336,0.183,80.000,640.000,1.000
-42538.884,-104974.614,3830.627,-119554.873,4846.774,-14979.562,-2650.960,-8687.092,-0.042,0.965,-0.266,0.610,-0.427,0.122,80.000,641.000,1.000
-42456.783,-104482.038,3813.404,-119405.137,4837.090,-14932.616,-2705.781,-8682.199,-0.042,0.966,-0.267,0.671,-0.397,0.122,80.000,642.000,1.000
-42374.181,-103989.135,3795.950,-119254.356,4827.169,-14884.894,-2758.681,-8675.629,-0.043,0.966,-0.262,0.549,-0.366,0.122,80.000,643.000,1.000
-42290.636,-103494.643,3778.003,-119102.810,4816.753,-14836.168,-2810.266,-8667.556,-0.044,0.967,-0.258,0.580,-0.488,0.092,80.000,644.000,1.000
-42206.989,-102999.325,3759.566,-118950.510,4805.856,-14787.484,-2862.368,-8659.225,-0.044,0.968,-0.260,0.519,-0.397,0.000,80.000,645.000,1.000
-42124.393,-102504.718,3740.921,-118797.194,4794.747,-14739.969,-2916.221,-8651.791,-0.042,0.966,-0.259,0.549,-0.366,-0.031,80.000,646.000,1.000
-42042.285,-102010.926,3722.449,-118642.521,4783.784,-14693.316,-2971.253,-8645.309,-0.043,0.966,-0.264,0.549,-0.366,-0.061,80.000,647.000,1.000
-41958.878,-101516.442,3704.445,-118486.241,4773.222,-14646.086,-3025.935,-8639.052,-0.046,0.965,-0.264,0.610,-0.366,-0.092,80.000,648.000,1.000
-41873.124,-101020.025,3686.984,-118328.285,4763.100,-14597.236,-3079.210,-8632.514,-0.045,0.966,-0.262,0.549,-0.397,-0.092,80.000,649.000,1.000
-41785.601,-100522.176,3669.886,-118168.785,4753.217,-14546.953,-3131.142,-8625.728,-0.044,0.965,-0.262,0.458,-0.458,-0.122,80.000,650.000,1.000
-41698.257,-100024.823,3652.845,-118007.991,4743.273,-14496.326,-3182.792,-8619.017,-0.046,0.969,-0.261,0.488,-0.488,-0.092,80.000,651.000,1.000
-41611.964,-99529.066,3635.633,-117846.121,4733.075,-14446.175,-3235.190,-8612.595,-0.048,0.969,-0.263,0.458,-0.549,-0.092,80.000,652.000,1.000
-41526.245,-99034.344,3618.154,-117683.305,4722.599,-14396.616,-3288.199,-8606.292,-0.050,0.967,-0.262,0.397,-0.641,-0.031,80.000,653.000,1.000
-41440.613,-98539.819,3600.463,-117519.529,4711.966,-14347.479,-3340.734,-8599.667,-0.049,0.970,-0.262,0.427,-0.763,0.000,80.000,654.000,1.000
-41354.920,-98045.445,3582.726,-117354.660,4701.350,-14298.582,-3391.850,-8592.249,-0.052,0.970,-0.261,0.336,-0.854,0.000,80.000,655.000,1.000
-41269.506,-97551.892,3565.033,-117188.637,4690.786,-14249.788,-3441.474,-8583.908,-0.051,0.967,-0.262,0.336,-0.916,-0.092,80.000,656.000,1.000
-41183.947,-97059.151,3547.288,-117021.567,4680.114,-14200.746,-3490.352,-8574.960,-0.051,0.968,-0.265,0.336,-1.129,-0.061,80.000,657.000,1.000
-41097.485,-96566.354,3529.299,-116853.609,4669.116,-14151.043,-3539.388,-8565.914,-0.052,0.967,-0.262,0.305,-1.068,0.031,80.000,658.000,1.000
-41010.173,-96073.037,3510.965,-116684.815,4657.709,-14100.704,-3589.059,-8557.218,-0.051,0.966,-0.260,0.275,-1.160,0.092,80.000,659.000,1.000
-40922.497,-95579.413,3492.408,-116515.029,4646.063,-14050.220,-3639.341,-8549.059,-0.049,0.966,-0.257,0.305,-1.404,0.153,80.000,660.000,1.000
-40835.096,-95085.962,3473.903,-116343.986,4634.487,-14000.274,-3689.897,-8541.322,-0.049,0.967,-0.260,0.336,-1.404,0.153,80.000,661.000,1.000
-40747.726,-94592.855,3455.651,-116171.516,4623.178,-13951.194,-3740.281,-8533.739,-0.050,0.968,-0.262,0.336,-1.465,0.244,80.000,662.000,1.000
-40659.839,-94100.224,3437.610,-115997.707,4612.054,-13902.831,-3790.366,-8526.143,-0.050,0.967,-0.261,0.366,-1.434,0.336,80.000,663.000,1.000
-40571.358,-93608.514,3419.573,-115822.825,4600.861,-13854.777,-3840.507,-8518.559,-0.052,0.965,-0.257,0.244,-1.587,0.397,80.000,664.000,1.000
-40482.179,-93117.929,3401.438,-115647.024,4589.470,-13806.486,-3890.900,-8510.825,-0.050,0.964,-0.261,0.336,-1.709,0.305,80.000,665.000,1.000
-40392.485,-92628.347,3383.293,-115470.221,4577.989,-13757.525,-3941.146,-8502.502,-0.050,0.965,-0.260,0.275,-1.709,0.427,80.000,666.000,1.000
-40302.133,-92139.151,3365.292,-115292.231,4566.605,-13707.517,-3990.563,-8493.111,-0.049,0.966,-0.262,0.305,-1.740,0.458,80.000,667.000,1.000
-40210.687,-91649.114,3347.542,-115112.928,4555.431,-13656.168,-4038.423,-8482.158,-0.047,0.968,-0.257,0.366,-1.770,0.580,80.000,668.000,1.000
-40117.712,-91156.796,3330.019,-114932.332,4544.431,-13603.464,-4084.220,-8469.324,-0.047,0.969,-0.260,0.305,-1.801,0.458,80.000,669.000,1.000
-40022.926,-90661.471,3312.538,-114750.624,4533.417,-13549.792,-4128.533,-8455.146,-0.047,0.967,-0.258,0.397,-1.892,0.580,80.000,670.000,1.000
-39927.327,-90164.334,3294.832,-114568.040,4522.157,-13496.110,-4173.310,-8441.383,-0.048,0.967,-0.260,0.275,-1.953,0.671,80.000,671.000,1.000
-39832.320,-89667.719,3276.792,-114384.651,4510.574,-13443.367,-4220.399,-8429.940,-0.047,0.965,-0.258,0.275,-1.892,0.610,80.000,672.000,1.000
-39738.787,-89173.280,3258.566,-114200.311,4498.810,-13391.724,-4269.925,-8421.320,-0.045,0.964,-0.259,0.305,-1.923,0.580,80.000,673.000,1.000
-39646.568,-88680.917,3240.387,-114014.839,4487.056,-13340.561,-4320.555,-8414.552,-0.043,0.964,-0.258,0.244,-1.923,0.488,80.000,674.000,1.000
-39554.309,-88188.800,3222.400,-113828.157,4475.435,-13289.155,-4370.797,-8408.189,-0.042,0.966,-0.259,0.366,-1.831,0.458,80.000,675.000,1.000
-39461.177,-87695.140,3204.708,-113640.219,4464.048,-13237.380,-4419.677,-8401.039,-0.042,0.968,-0.263,0.458,-1.709,0.366,80.000,676.000,1.000
-39367.285,-87199.711,3187.323,-113451.023,4452.926,-13185.626,-4466.930,-8392.440,-0.040,0.968,-0.261,0.214,-1.556,0.427,80.000,677.000,1.000
-39273.717,-86704.170,3169.953,-113260.813,4441.813,-13134.552,-4513.012,-8382.450,-0.040,0.966,-0.262,0.183,-1.404,0.397,80.000,678.000,1.000
-39181.528,-86210.722,3152.106,-113070.026,4430.240,-13084.572,-4558.452,-8371.567,-0.039,0.965,-0.262,0.092,-1.282,0.427,80.000,679.000,1.000
-39090.008,-85719.971,3133.570,-112878.857,4417.985,-13035.065,-4603.133,-8359.852,-0.037,0.961,-0.259,0.153,-1.129,0.488,80.000,680.000,1.000
-38997.537,-85230.898,3114.646,-112687.049,4405.291,-12984.774,-4646.840,-8346.881,-0.037,0.958,-0.258,0.244,-0.916,0.458,80.000,681.000,1.000
-38902.834,-84742.290,3095.860,-112494.120,4392.638,-12932.981,-4690.242,-8332.682,-0.039,0.957,-0.260,0.336,-0.854,0.366,80.000,682.000,1.000
-38806.141,-84253.908,3077.563,-112299.717,4380.392,-12880.243,-4734.666,-8318.221,-0.038,0.957,-0.261,0.397,-0.763,0.397,80.000,683.000,1.000
-38708.636,-83766.179,3059.761,-112103.796,4368.608,-12827.852,-4781.079,-8304.922,-0.038,0.959,-0.261,0.549,-0.580,0.397,80.000,684.000,1.000
-38610.703,-83278.950,3042.225,-111906.563,4357.088,-12776.573,-4829.258,-8293.655,-0.038,0.960,-0.262,0.580,-0.397,0.305,80.000,685.000,1.000
-38512.292,-82791.447,3024.712,-111708.293,4345.584,-12726.091,-4877.518,-8284.008,-0.041,0.964,-0.264,0.580,-0.244,0.397,80.000,686.000,1.000
-38413.159,-82302.797,3007.081,-111509.198,4333.941,-12675.292,-4923.426,-8274.462,-0.040,0.967,-0.263,0.458,-0.153,0.458,80.000,687.000,1.000
-38313.609,-81812.693,2989.268,-111309.403,4322.080,-12623.341,-4965.552,-8263.571,-0.040,0.969,-0.261,0.580,-0.092,0.458,80.000,688.000,1.000
-38214.434,-81321.495,2971.281,-111108.914,4309.979,-12570.462,-5004.790,-8251.155,-0.040,0.969,-0.260,0.580,0.061,0.397,80.000,689.000,1.000
-38115.808,-80829.501,2953.218,-110907.587,4297.722,-12517.560,-5043.857,-8238.229,-0.039,0.969,-0.264,0.610,0.092,0.427,80.000,690.000,1.000
-38017.818,-80337.002,2935.184,-110705.244,4285.444,-12465.530,-5085.437,-8226.051,-0.042,0.971,-0.264,0.458,0.092,0.458,80.000,691.000,1.000
-37920.269,-79844.307,2917.238,-110501.798,4273.238,-12414.707,-5130.519,-8215.259,-0.044,0.971,-0.263,0.427,0.092,0.397,80.000,692.000,1.000
-37822.771,-79351.522,2899.409,-110297.264,4261.136,-12364.835,-5178.034,-8205.556,-0.047,0.972,-0.264,0.427,0.092,0.305,80.000,693.000,1.000
-37724.802,-78858.344,2881.710,-110091.690,4249.125,-12315.264,-5225.910,-8196.091,-0.049,0.974,-0.263,0.305,0.061,0.214,80.000,694.000,1.000
-37625.669,-78364.253,2864.117,-109885.122,4237.156,-12265.280,-5272.473,-8186.105,-0.050,0.974,-0.262,0.153,-0.092,0.061,80.000,695.000,1.000
-37525.821,-77869.739,2846.528,-109677.658,4225.119,-12214.760,-5317.033,-8175.455,-0.050,0.973,-0.260,0.061,-0.305,-0.031,80.000,696.000,1.000
-37426.317,-77376.272,2828.793,-109469.438,4212.878,-12164.139,-5359.735,-8164.638,-0.051,0.973,-0.262,-0.183,-0.519,-0.244,80.000,697.000,1.000
-37327.916,-76885.078,2810.838,-109260.532,4200.392,-12113.879,-5401.296,-8154.260,-0.052,0.974,-0.262,-0.336,-0.549,-0.153,80.000,698.000,1.000
-37230.455,-76396.283,2792.742,-109050.869,4187.778,-12063.987,-5442.535,-8144.360,-0.051,0.972,-0.262,-0.458,-0.671,-0.336,80.000,699.000,1.000
-37132.595,-75908.944,2774.676,-108840.293,4175.211,-12013.957,-5483.759,-8134.125,-0.050,0.969,-0.259,-0.519,-0.885,-0.275,80.000,700.000,1.000
-37033.109,-75421.952,2756.767,-108628.700,4162.779,-11963.394,-5524.840,-8122.690,-0.051,0.969,-0.259,-0.671,-1.038,-0.305,80.000,701.000,1.000
-36930.946,-74934.341,2739.054,-108416.043,4150.478,-11912.329,-5565.807,-8110.071,-0.051,0.967,-0.256,-0.702,-1.160,-0.214,80.000,702.000,1.000
-36826.002,-74446.013,2721.524,-108202.292,4138.309,-11861.250,-5606.951,-8097.134,-0.048,0.967,-0.259,-0.702,-1.221,-0.244,80.000,703.000,1.000
-36719.752,-73958.584,2704.097,-107987.496,4126.221,-11810.943,-5648.477,-8085.058,-0.051,0.966,-0.261,-0.793,-1.404,-0.092,80.000,704.000,1.000
-36614.139,-73474.388,2686.572,-107771.864,4114.029,-11762.020,-5690.358,-8074.710,-0.052,0.966,-0.258,-0.732,-1.587,-0.061,80.000,705.000,1.000
-36510.761,-72994.803,2668.703,-107555.669,4101.492,-11714.629,-5732.502,-8066.164,-0.053,0.964,-0.257,-0.763,-1.587,0.092,80.000,706.000,1.000
-36409.501,-72518.984,2650.452,-107338.971,4088.577,-11668.204,-5774.724,-8058.497,-0.054,0.963,-0.255,-0.610,-1.709,0.214,80.000,707.000,1.000
-36308.888,-72044.343,2632.126,-107121.502,4075.564,-11621.558,-5816.366,-8049.915,-0.053,0.960,-0.252,-0.549,-1.892,0.244,80.000,708.000,1.000
-36207.422,-71568.149,2614.163,-106902.879,4062.843,-11573.512,-5856.542,-8038.719,-0.051,0.960,-0.252,-0.549,-2.014,0.366,80.000,709.000,1.000
-36104.335,-71088.670,2596.746,-106682.963,4050.573,-11523.760,-5895.310,-8024.862,-0.051,0.962,-0.255,-0.549,-2.197,0.427,80.000,710.000,1.000
-36000.497,-70605.864,2579.601,-106462.031,4038.501,-11473.234,-5933.926,-8010.393,-0.052,0.961,-0.253,-0.488,-2.228,0.488,80.000,711.000,1.000
-35897.070,-70120.689,2562.235,-106240.530,4026.191,-11423.115,-5973.549,-7997.669,-0.052,0.962,-0.255,-0.488,-2.258,0.458,80.000,712.000,1.000
-35794.523,-69634.015,2544.385,-106018.673,4013.418,-11373.772,-6014.279,-7987.301,-0.051,0.963,-0.256,-0.488,-2.319,0.488,80.000,713.000,1.000
-35692.401,-69145.983,2526.235,-105796.260,4000.355,-11324.469,-6055.174,-7977.849,-0.052,0.965,-0.254,-0.397,-2.350,0.458,80.000,714.000,1.000
-35589.408,-68656.123,2508.229,-105572.862,3987.394,-11273.786,-6094.539,-7966.918,-0.049,0.965,-0.255,-0.427,-2.411,0.336,80.000,715.000,1.000
-35484.955,-68164.697,2490.665,-105348.212,3974.773,-11220.783,-6130.988,-7952.795,-0.048,0.965,-0.255,-0.366,-2.472,0.458,80.000,716.000,1.000
-35379.080,-67672.978,2473.462,-105122.408,3962.383,-11165.712,-6165.115,-7935.598,-0.047,0.963,-0.255,-0.275,-2.563,0.427,80.000,717.000,1.000
-35272.376,-67182.690,2456.284,-104895.768,3949.917,-11109.881,-6199.561,-7917.079,-0.047,0.963,-0.254,-0.275,-2.502,0.366,80.000,718.000,1.000
-35165.734,-66695.379,2438.825,-104668.574,3937.139,-11054.848,-6236.934,-7899.398,-0.045,0.964,-0.253,-0.244,-2.563,0.275,80.000,719.000,1.000
-35059.310,-66211.464,2420.988,-104440.925,3924.029,-11001.539,-6277.889,-7883.861,-0.044,0.962,-0.252,-0.092,-2.441,0.183,80.000,720.000,1.000
-34952.991,-65730.318,2402.886,-104212.745,3910.736,-10950.099,-6320.942,-7870.367,-0.043,0.963,-0.251,-0.061,-2.350,0.183,80.000,721.000,1.000
-34846.256,-65250.636,2384.756,-103983.840,3897.460,-10899.841,-6363.479,-7857.518,-0.042,0.965,-0.253,0.000,-2.380,0.153,80.000,722.000,1.000
-34738.772,-64771.192,2366.744,-103754.071,3884.297,-10849.660,-6403.329,-7843.550,-0.042,0.962,-0.256,0.061,-2.167,0.214,80.000,723.000,1.000
-34631.087,-64291.876,2348.737,-103523.532,3871.114,-10798.868,-6440.092,-7827.722,-0.042,0.962,-0.254,0.153,-2.106,0.153,80.000,724.000,1.000
-34524.025,-63813.594,2330.522,-103292.434,3857.676,-10747.469,-6475.118,-7810.749,-0.042,0.960,-0.257,0.244,-1.953,0.153,80.000,725.000,1.000
-34418.379,-63337.352,2312.076,-103060.815,3843.927,-10695.856,-6510.306,-7794.011,-0.042,0.963,-0.257,0.305,-1.678,0.183,80.000,726.000,1.000
-34313.770,-62863.008,2293.619,-102828.459,3830.081,-10644.137,-6546.877,-7778.454,-0.041,0.964,-0.256,0.458,-1.617,0.214,80.000,727.000,1.000
-34209.155,-62389.463,2275.395,-102595.127,3816.395,-10592.029,-6584.778,-7764.119,-0.039,0.964,-0.258,0.488,-1.404,0.275,80.000,728.000,1.000
-34103.880,-61915.819,2257.502,-102360.749,3802.977,-10539.214,-6622.869,-7750.446,-0.042,0.964,-0.257,0.549,-1.282,0.153,80.000,729.000,1.000
-33997.665,-61441.849,2239.905,-102125.389,3789.800,-10485.477,-6659.606,-7736.533,-0.041,0.962,-0.257,0.641,-0.977,0.122,80.000,730.000,1.000
-33891.195,-60968.272,2222.498,-101889.151,3776.784,-10430.962,-6693.960,-7721.441,-0.039,0.963,-0.260,0.702,-0.854,0.214,80.000,731.000,1.000
-33785.214,-60495.960,2205.170,-101652.114,3763.856,-10376.169,-6726.284,-7704.874,-0.042,0.964,-0.260,0.732,-0.793,0.214,80.000,732.000,1.000
-33679.883,-60024.859,2187.893,-101414.286,3751.004,-10321.690,-6758.217,-7687.568,-0.042,0.965,-0.261,0.763,-0.549,0.336,80.000,733.000,1.000
-33574.650,-59553.834,2170.729,-101175.599,3738.285,-10267.816,-6791.325,-7670.612,-0.042,0.966,-0.258,0.824,-0.488,0.336,80.000,734.000,1.000
-33468.319,-59081.347,2153.714,-100936.019,3725.704,-10214.390,-6825.860,-7654.299,-0.043,0.964,-0.261,0.793,-0.336,0.336,80.000,735.000,1.000
-33360.448,-58606.685,2136.788,-100695.626,3713.152,-10161.132,-6860.865,-7637.973,-0.042,0.966,-0.261,0.885,-0.275,0.305,80.000,736.000,1.000
-33251.144,-58130.027,2119.873,-100454.523,3700.515,-10107.672,-6895.088,-7620.811,-0.041,0.968,-0.260,0.885,-0.214,0.336,80.000,737.000,1.000
-33141.048,-57652.119,2102.900,-100212.798,3687.731,-10053.877,-6927.980,-7602.737,-0.044,0.968,-0.261,0.916,-0.031,0.366,80.000,738.000,1.000
-33031.177,-57174.083,2085.777,-99970.545,3674.757,-10000.184,-6960.109,-7584.720,-0.045,0.970,-0.260,0.824,0.000,0.427,80.000,739.000,1.000
-32921.707,-56696.619,2068.461,-99727.810,3661.605,-9947.034,-6992.399,-7567.870,-0.045,0.968,-0.261,0.793,0.122,0.336,80.000,740.000,1.000
-32812.126,-56219.750,2051.051,-99484.524,3648.387,-9894.326,-7025.083,-7552.409,-0.046,0.970,-0.261,0.610,0.183,0.305,80.000,741.000,1.000
-32701.369,-55742.976,2033.687,-99240.583,3635.210,-9841.528,-7057.714,-7537.678,-0.047,0.971,-0.263,0.519,0.061,0.305,80.000,742.000,1.000
-32589.128,-55266.268,2016.374,-98995.980,3622.011,-9788.431,-7090.114,-7522.969,-0.048,0.972,-0.262,0.458,0.092,0.305,80.000,743.000,1.000
-32476.562,-54790.919,1999.009,-98750.773,3608.642,-9735.504,-7122.988,-7508.258,-0.049,0.972,-0.262,0.336,0.092,0.305,80.000,744.000,1.000
-32364.776,-54318.426,1981.556,-98504.968,3595.077,-9683.274,-7157.282,-7493.909,-0.050,0.973,-0.262,0.153,0.061,0.244,80.000,745.000,1.000
-32254.132,-53849.168,1964.051,-98258.529,3581.416,-9631.763,-7193.163,-7479.936,-0.051,0.971,-0.259,0.061,-0.092,0.275,80.000,746.000,1.000
-32143.924,-53382.246,1946.532,-98011.441,3567.778,-9580.445,-7229.887,-7465.864,-0.051,0.968,-0.257,-0.031,-0.153,0.153,80.000,747.000,1.000
-32033.476,-52916.698,1929.006,-97763.720,3554.219,-9528.813,-7266.326,-7451.198,-0.050,0.964,-0.259,-0.092,-0.244,0.214,80.000,748.000,1.000
-31922.709,-52452.255,1911.409,-97515.441,3540.677,-9476.766,-7301.414,-7435.753,-0.048,0.963,-0.258,-0.153,-0.183,0.214,80.000,749.000,1.000
-31811.347,-51988.717,1893.637,-97266.701,3526.998,-9424.468,-7334.751,-7419.585,-0.046,0.965,-0.259,-0.153,-0.153,0.183,80.000,750.000,1.000
-31699.379,-51525.972,1875.687,-97017.493,3513.085,-9372.338,-7367.162,-7403.089,-0.047,0.969,-0.261,-0.092,-0.183,0.305,80.000,751.000,1.000
-31586.741,-51064.054,1857.718,-96767.664,3499.017,-9320.734,-7400.071,-7386.957,-0.049,0.969,-0.258,-0.031,-0.305,0.366,80.000,752.000,1.000
-31473.517,-50602.983,1839.916,-96517.062,3484.945,-9269.726,-7434.136,-7371.652,-0.048,0.968,-0.261,-0.061,-0.488,0.519,80.000,753.000,1.000
-31360.310,-50142.756,1822.333,-96265.668,3470.965,-9219.235,-7468.825,-7357.093,-0.048,0.963,-0.257,-0.092,-0.488,0.519,80.000,754.000,1.000
-31247.713,-49683.155,1804.889,-96013.561,3457.097,-9169.111,-7503.118,-7342.779,-0.045,0.962,-0.257,-0.061,-0.458,0.580,80.000,755.000,1.000
-31136.257,-49223.677,1787.502,-95760.808,3443.348,-9119.131,-7536.228,-7328.095,-0.045,0.962,-0.257,0.153,-0.549,0.671,80.000,756.000,1.000
-31025.416,-48763.260,1770.173,-95507.427,3429.726,-9068.826,-7567.828,-7312.547,-0.045,0.962,-0.258,0.183,-0.519,0.793,80.000,757.000,1.000
-30914.311,-48301.049,1752.849,-95253.513,3416.120,-9017.829,-7598.177,-7296.067,-0.048,0.963,-0.259,0.336,-0.549,0.854,80.000,758.000,1.000
-30802.917,-47837.381,1735.331,-94999.270,3402.265,-8966.288,-7628.337,-7279.348,-0.048,0.964,-0.260,0.366,-0.580,0.854,80.000,759.000,1.000
-30691.547,-47373.189,1717.489,-94744.781,3387.994,-8914.540,-7659.650,-7263.393,-0.048,0.964,-0.258,0.336,-0.702,0.732,80.000,760.000,1.000
-30580.777,-46909.439,1699.445,-94489.851,3373.450,-8862.683,-7692.287,-7248.495,-0.049,0.961,-0.260,0.397,-0.763,0.610,80.000,761.000,1.000
-30470.509,-46446.688,1681.513,-94234.108,3359.024,-8810.288,-7724.547,-7233.694,-0.052,0.960,-0.260,0.549,-0.854,0.397,80.000,762.000,1.000
-30359.931,-45984.705,1664.031,-93977.225,3345.102,-8756.786,-7754.278,-7217.394,-0.049,0.957,-0.260,0.671,-0.977,0.214,80.000,763.000,1.000
-30248.122,-45522.480,1647.195,-93719.075,3331.865,-8702.086,-7781.053,-7198.753,-0.049,0.959,-0.261,0.732,-1.129,0.153,80.000,764.000,1.000
-30134.482,-45058.977,1630.940,-93459.805,3319.208,-8646.626,-7806.509,-7178.325,-0.047,0.961,-0.258,0.885,-1.190,0.153,80.000,765.000,1.000
-30019.874,-44594.763,1614.931,-93199.813,3306.752,-8591.180,-7832.769,-7157.501,-0.045,0.962,-0.262,0.885,-1.160,0.031,80.000,766.000,1.000
-29905.529,-44131.875,1598.714,-92939.565,3294.019,-8536.401,-7861.002,-7137.472,-0.043,0.965,-0.259,1.007,-1.068,-0.031,80.000,767.000,1.000
-29792.035,-43672.387,1582.002,-92679.327,3280.705,-8482.562,-7890.991,-7118.507,-0.042,0.967,-0.258,1.099,-1.129,-0.092,80.000,768.000,1.000
-29679.385,-43217.623,1564.813,-92419.054,3266.826,-8429.686,-7921.555,-7100.100,-0.044,0.966,-0.260,1.007,-1.160,-0.092,80.000,769.000,1.000
-29567.124,-42767.858,1547.356,-92158.534,3252.590,-8377.777,-7951.793,-7081.788,-0.043,0.966,-0.257,0.946,-1.343,0.031,80.000,770.000,1.000
-29455.271,-42322.423,1529.812,-91897.585,3238.184,-8326.977,-7982.000,-7063.855,-0.043,0.967,-0.260,0.916,-1.160,0.031,80.000,771.000,1.000
-29343.655,-41879.406,1512.299,-91636.083,3223.760,-8277.006,-8012.792,-7046.836,-0.043,0.970,-0.261,0.885,-1.160,0.092,80.000,772.000,1.000
-29231.939,-41436.253,1494.964,-91373.872,3209.510,-8226.933,-8043.830,-7030.607,-0.044,0.970,-0.261,0.793,-1.129,0.153,80.000,773.000,1.000
-29120.075,-40991.245,1477.947,-91110.810,3195.610,-8175.867,-8074.082,-7014.638,-0.044,0.971,-0.264,0.763,-1.099,0.214,80.000,774.000,1.000
-29007.837,-40543.859,1461.258,-90846.880,3182.076,-8123.565,-8102.831,-6998.667,-0.044,0.972,-0.260,0.732,-1.007,0.336,80.000,775.000,1.000
-28895.303,-40094.494,1444.761,-90582.213,3168.748,-8070.593,-8130.136,-6982.744,-0.045,0.972,-0.262,0.549,-0.977,0.427,80.000,776.000,1.000
-28782.571,-39643.787,1428.335,-90316.945,3155.473,-8017.815,-8156.590,-6966.885,-0.046,0.970,-0.264,0.519,-0.977,0.488,80.000,777.000,1.000
-28669.926,-39192.262,1411.953,-90051.166,3142.186,-7965.831,-8182.857,-6950.883,-0.047,0.969,-0.263,0.397,-0.977,0.519,80.000,778.000,1.000
-28557.791,-38740.366,1395.538,-89785.025,3128.792,-7914.708,-8209.407,-6934.408,-0.044,0.971,-0.263,0.305,-1.007,0.549,80.000,779.000,1.000
-28446.089,-38288.475,1378.934,-89518.706,3115.139,-7864.006,-8236.350,-6917.119,-0.044,0.970,-0.259,0.275,-0.946,0.519,80.000,780.000,1.000
-28334.909,-37837.385,1362.070,-89252.238,3101.177,-7813.326,-8263.424,-6898.854,-0.044,0.969,-0.262,0.214,-0.885,0.580,80.000,781.000,1.000
-28223.957,-37387.931,1345.054,-88985.455,3087.034,-7762.553,-8290.372,-6879.872,-0.043,0.967,-0.258,0.061,-0.977,0.671,80.000,782.000,1.000
-28112.531,-36940.454,1328.052,-88718.158,3072.903,-7711.677,-8317.115,-6860.781,-0.043,0.965,-0.261,0.000,-0.916,0.732,80.000,783.000,1.000
-27999.922,-36494.785,1311.187,-88450.211,3058.937,-7660.440,-8343.436,-6842.037,-0.042,0.966,-0.262,-0.122,-0.854,0.702,80.000,784.000,1.000
-27885.270,-36050.215,1294.518,-88181.539,3045.205,-7608.204,-8368.969,-6823.523,-0.042,0.967,-0.260,0.000,-0.946,0.732,80.000,785.000,1.000
-27768.635,-35606.256,1277.977,-87912.220,3031.623,-7554.593,-8393.571,-6804.921,-0.042,0.965,-0.260,-0.031,-0.885,0.641,80.000,786.000,1.000
-27650.834,-35162.956,1261.401,-87642.459,3017.983,-7499.913,-8417.445,-6786.262,-0.041,0.964,-0.261,-0.031,-0.977,0.671,80.000,787.000,1.000
-27533.140,-34720.642,1244.701,-87372.386,3004.155,-7445.062,-8441.129,-6767.931,-0.041,0.964,-0.264,0.031,-0.916,0.580,80.000,788.000,1.000
-27416.652,-34279.434,1227.957,-87101.948,2990.192,-7390.973,-8465.422,-6750.339,-0.042,0.963,-0.261,0.031,-0.885,0.488,80.000,789.000,1.000
-27301.284,-33838.653,1211.329,-86830.991,2976.251,-7337.932,-8490.791,-6733.427,-0.040,0.965,-0.259,0.061,-0.916,0.519,80.000,790.000,1.000
-27186.800,-33397.588,1194.884,-86559.426,2962.428,-7285.710,-8516.883,-6716.598,-0.039,0.964,-0.260,0.214,-0.763,0.458,80.000,791.000,1.000
-27073.106,-32956.376,1178.542,-86287.308,2948.688,-7234.043,-8543.064,-6699.288,-0.041,0.964,-0.259,0.153,-0.854,0.336,80.000,792.000,1.000
-26960.179,-32515.880,1162.138,-86014.801,2934.915,-7182.836,-8568.915,-6681.357,-0.042,0.964,-0.259,0.061,-0.854,0.305,80.000,793.000,1.000
-26847.540,-32076.542,1145.549,-85742.055,2920.993,-7131.738,-8593.729,-6662.698,-0.042,0.963,-0.256,0.183,-0.732,0.244,80.000,794.000,1.000
-26733.786,-31637.599,1128.790,-85469.085,2906.902,-7079.880,-8616.377,-6642.832,-0.042,0.964,-0.261,0.092,-0.732,0.214,80.000,795.000,1.000
-26618.327,-31198.504,1111.992,-85195.785,2892.726,-7026.771,-8636.630,-6621.544,-0.042,0.965,-0.259,0.092,-0.732,0.153,80.000,796.000,1.000
-26501.532,-30759.774,1095.324,-84921.996,2878.602,-6972.823,-8655.970,-6599.454,-0.043,0.966,-0.255,0.153,-0.824,0.183,80.000,797.000,1.000
-26383.978,-30322.165,1078.954,-84647.533,2864.681,-6918.826,-8676.243,-6577.324,-0.043,0.965,-0.255,0.092,-0.824,0.061,80.000,798.000,1.000
-26265.900,-29885.876,1062.926,-84372.301,2851.036,-6865.309,-8698.035,-6555.307,-0.044,0.967,-0.256,0.183,-0.793,0.031,80.000,799.000,1.000
-26147.107,-29450.774,1047.017,-84096.480,2837.519,-6812.470,-8721.042,-6533.356,-0.042,0.965,-0.260,0.183,-0.763,0.000,80.000,800.000,1.000
-26028.214,-29017.289,1030.792,-83820.524,2823.744,-6760.580,-8745.382,-6512.081,-0.046,0.967,-0.264,0.092,-0.824,-0.061,80.000,801.000,1.000
-25909.859,-28585.751,1013.913,-83544.817,2809.349,-6709.729,-8771.509,-6492.470,-0.044,0.967,-0.260,0.122,-0.824,0.000,80.000,802.000,1.000
-25792.181,-28155.562,996.430,-83269.348,2794.312,-6659.478,-8799.065,-6474.796,-0.046,0.966,-0.260,0.092,-0.854,0.031,80.000,803.000,1.000
-25675.092,-27725.605,978.788,-82993.697,2779.028,-6609.076,-8826.448,-6458.164,-0.048,0.966,-0.258,0.000,-0.885,-0.092,80.000,804.000,1.000
-25557.905,-27294.663,961.614,-82717.277,2764.103,-6557.835,-8851.526,-6440.888,-0.048,0.966,-0.259,-0.031,-0.946,-0.031,80.000,805.000,1.000
-25439.999,-26862.086,945.394,-82439.641,2750.031,-6505.386,-8872.950,-6421.444,-0.048,0.967,-0.260,-0.092,-1.099,-0.031,80.000,806.000,1.000
-25320.857,-26428.093,930.211,-82160.702,2736.923,-6451.737,-8891.302,-6399.590,-0.048,0.967,-0.260,-0.183,-1.160,-0.031,80.000,807.000,1.000
-25200.810,-25993.881,915.607,-81880.843,2724.392,-6397.766,-8909.262,-6376.887,-0.047,0.966,-0.260,-0.092,-1.282,0.000,80.000,808.000,1.000
-25081.273,-25561.383,900.819,-81600.728,2711.752,-6345.076,-8929.979,-6355.845,-0.049,0.963,-0.259,-0.183,-1.404,0.031,80.000,809.000,1.000
-24963.182,-25132.061,885.282,-81320.873,2698.467,-6294.527,-8954.510,-6337.913,-0.046,0.965,-0.258,-0.183,-1.465,0.031,80.000,810.000,1.000
-24846.302,-24706.111,868.928,-81041.382,2684.436,-6245.510,-8981.143,-6322.385,-0.046,0.964,-0.258,-0.122,-1.495,0.000,80.000,811.000,1.000
-24728.565,-24282.289,852.098,-80761.990,2669.944,-6196.554,-9007.282,-6307.218,-0.047,0.964,-0.254,-0.092,-1.556,-0.061,80.000,812.000,1.000
-24607.626,-23859.022,835.255,-80482.295,2655.406,-6146.422,-9031.407,-6290.462,-0.046,0.965,-0.259,-0.092,-1.587,0.000,80.000,813.000,1.000
-24483.254,-23435.878,818.743,-80201.976,2641.143,-6094.700,-9053.348,-6271.182,-0.049,0.965,-0.258,-0.092,-1.648,0.092,80.000,814.000,1.000
-24357.468,-23013.545,802.661,-79920.920,2627.256,-6041.717,-9073.495,-6249.677,-0.047,0.964,-0.254,0.031,-1.770,0.061,80.000,815.000,1.000
-24233.405,-22593.011,786.837,-79639.287,2613.581,-5988.402,-9092.382,-6227.148,-0.046,0.965,-0.257,0.031,-1.801,0.031,80.000,816.000,1.000
-24112.575,-22174.447,771.002,-79357.366,2599.829,-5935.743,-9110.974,-6204.899,-0.046,0.964,-0.257,0.061,-1.831,0.031,80.000,817.000,1.000
-23994.380,-21757.339,755.002,-79075.352,2585.815,-5884.354,-9130.559,-6183.740,-0.044,0.963,-0.257,0.092,-1.862,0.092,80.000,818.000,1.000
-23877.426,-21341.130,738.871,-78793.232,2571.567,-5834.185,-9151.767,-6163.852,-0.044,0.966,-0.260,0.214,-1.923,0.183,80.000,819.000,1.000
-23760.104,-20924.742,722.790,-78510.802,2557.312,-5784.386,-9173.757,-6144.725,-0.044,0.967,-0.259,0.214,-1.801,0.122,80.000,820.000,1.000
-23641.862,-20506.859,706.962,-78227.801,2543.327,-5733.949,-9194.942,-6125.515,-0.044,0.966,-0.258,0.336,-1.862,0.214,80.000,821.000,1.000
-23523.190,-20086.827,691.466,-77944.093,2529.746,-5682.274,-9214.591,-6105.716,-0.044,0.965,-0.259,0.366,-1.892,0.366,80.000,822.000,1.000
-23405.361,-19665.295,676.189,-77659.786,2516.448,-5629.429,-9233.204,-6085.477,-0.044,0.966,-0.257,0.366,-1.801,0.366,80.000,823.000,1.000
-23289.472,-19243.857,660.930,-77375.139,2503.159,-5576.108,-9251.696,-6065.367,-0.043,0.965,-0.256,0.366,-1.678,0.366,80.000,824.000,1.000
-23175.013,-18823.792,645.598,-77090.314,2489.708,-5523.105,-9270.893,-6045.768,-0.043,0.965,-0.259,0.427,-1.740,0.336,80.000,825.000,1.000
-23060.955,-18405.869,630.272,-76805.256,2476.158,-5470.898,-9291.155,-6026.527,-0.042,0.965,-0.259,0.397,-1.587,0.519,80.000,826.000,1.000
-22946.584,-17990.466,615.026,-76519.859,2462.638,-5419.251,-9311.610,-6007.041,-0.042,0.967,-0.259,0.427,-1.526,0.427,80.000,827.000,1.000
-22832.119,-17577.659,599.765,-76234.188,2449.101,-5367.443,-9330.523,-5986.778,-0.042,0.967,-0.260,0.397,-1.465,0.336,80.000,828.000,1.000
-22718.330,-17167.215,584.334,-75948.418,2435.379,-5314.964,-9347.237,-5965.866,-0.042,0.967,-0.260,0.397,-1.343,0.458,80.000,829.000,1.000
-22605.004,-16758.173,568.762,-75662.574,2421.453,-5261.826,-9363.226,-5944.926,-0.042,0.967,-0.259,0.488,-1.282,0.427,80.000,830.000,1.000
