EEG 1,EEG 2,EEG 3,EEG 4,EEG 5,EEG 6,EEG 7,EEG 8,Accelerometer X,Accelerometer Y,Accelerometer Z,Gyroscope X,Gyroscope Y,Gyroscope Z,Battery Level,Counter,Validation Indicator
2709.123,-8443.897,-100680.572,-95873.586,-336.659,1846.703,-1938.345,5032.396,-0.018,0.915,-0.339,0.000,0.000,0.000,73.333,1.000,1.000
31068.899,-13724.640,-130026.948,-139184.029,-25213.919,31528.334,-44629.968,23198.064,-0.017,0.919,-0.352,0.000,0.000,0.000,73.333,2.000,1.000
108544.359,-48896.957,-213070.558,-263134.500,-92947.246,112512.940,-161089.275,69808.217,-0.016,0.919,-0.360,0.000,0.000,0.000,73.333,3.000,1.000
238950.932,-150094.329,-356324.289,-486374.374,-202634.926,248812.149,-357057.286,139399.415,-0.014,0.917,-0.359,0.000,0.000,0.000,73.333,4.000,1.000
393728.726,-325655.699,-527563.835,-776619.301,-317245.370,410614.887,-589647.038,205044.713,-0.014,0.914,-0.358,-0.519,0.305,0.061,73.333,5.000,1.000
530738.731,-530044.597,-673241.885,-1060480.740,-385728.135,553883.918,-795559.637,239251.124,-0.015,0.912,-0.360,1.953,-3.479,2.869,73.333,6.000,1.000
616484.928,-680153.163,-741702.289,-1244484.142,-375570.630,643576.835,-922900.827,231722.393,-0.018,0.908,-0.364,9.247,-9.125,4.333,73.333,7.000,1.000
638723.422,-694838.696,-703605.127,-1250225.720,-289233.390,667196.384,-946095.110,191918.098,-0.017,0.906,-0.366,12.054,-10.986,5.035,73.333,8.000,1.000
608921.331,-535652.021,-570112.930,-1061563.230,-159487.670,639112.138,-870758.104,141890.816,-0.017,0.908,-0.370,13.275,-11.536,5.585,73.333,9.000,1.000
551497.281,-230985.001,-389427.679,-742724.464,-32106.764,591666.404,-729865.381,103634.458,-0.016,0.910,-0.370,13.641,-11.688,5.707,73.333,10.000,1.000
485605.804,131416.393,-218262.378,-402569.752,55720.088,553419.226,-566385.549,85975.449,-0.018,0.914,-0.368,14.191,-11.597,6.042,73.333,11.000,1.000
415209.645,445381.208,-93210.964,-134583.156,92823.453,529037.537,-411796.085,80542.874,-0.021,0.922,-0.369,14.404,-11.536,6.622,73.333,12.000,1.000
335422.305,639304.502,-22396.246,20049.252,94216.396,500247.573,-280006.085,71598.293,-0.023,0.924,-0.368,14.618,-11.780,7.080,73.333,13.000,1.000
246471.993,702629.354,4872.819,71006.928,82687.027,447549.194,-177593.361,50992.981,-0.023,0.927,-0.371,14.679,-11.841,7.629,73.333,14.000,1.000
159967.565,669284.294,4474.615,56453.888,70941.196,368752.241,-111283.957,23723.508,-0.025,0.927,-0.374,14.526,-11.871,8.087,73.333,15.000,1.000
91097.115,582978.054,-9776.286,19024.086,60639.968,277492.098,-82051.776,-25.874,-0.025,0.923,-0.379,14.374,-11.810,8.514,73.333,16.000,1.000
45964.602,476872.246,-26553.986,-11134.807,52466.582,190148.115,-77465.203,-15805.377,-0.024,0.919,-0.381,14.252,-11.749,8.575,73.333,17.000,1.000
18378.784,372916.337,-36916.651,-22556.692,50571.132,117327.918,-77460.956,-26673.771,-0.021,0.920,-0.378,14.404,-11.841,8.728,73.333,18.000,1.000
-1326.509,286305.387,-37120.962,-18326.308,56808.404,64102.451,-69652.133,-36206.542,-0.019,0.926,-0.377,14.496,-11.810,8.789,73.333,19.000,1.000
-16854.850,225305.898,-30514.210,-7205.954,65728.119,32203.894,-56398.327,-43295.457,-0.016,0.929,-0.376,14.404,-11.902,8.820,73.333,20.000,1.000
-26205.645,189074.139,-24127.124,3324.399,69270.117,19252.468,-46180.259,-44926.431,-0.013,0.930,-0.379,14.221,-11.871,8.667,73.333,21.000,1.000
-28646.070,169717.431,-22327.118,9345.427,65544.297,17922.901,-41335.605,-41698.465,-0.011,0.929,-0.380,14.069,-11.719,8.606,73.333,22.000,1.000
-28072.362,158443.418,-24044.331,9900.965,60171.313,19115.319,-36864.934,-38044.352,-0.010,0.928,-0.381,13.733,-11.566,8.392,73.333,23.000,1.000
-29107.739,149953.927,-25850.609,6204.590,58812.755,17215.191,-29092.685,-37238.306,-0.010,0.923,-0.382,13.580,-11.688,8.301,73.333,24.000,1.000
-32227.775,142032.951,-26365.299,1051.173,60867.931,12098.476,-20940.345,-38172.433,-0.011,0.920,-0.383,13.611,-11.810,8.148,73.333,25.000,1.000
-34487.111,133242.449,-26838.386,-2570.304,61784.710,6304.547,-17249.752,-37816.283,-0.011,0.917,-0.384,13.733,-12.085,7.965,73.333,26.000,1.000
-34246.689,122502.251,-28332.504,-3377.428,59702.852,1254.984,-17746.430,-35524.142,-0.008,0.918,-0.388,13.977,-12.177,7.874,73.333,27.000,1.000
-33351.673,110290.186,-29923.822,-2409.307,57378.929,-3461.182,-17433.751,-33525.294,-0.002,0.922,-0.391,14.069,-12.177,7.751,73.333,28.000,1.000
-34376.947,98680.496,-30102.309,-1555.213,57747.903,-8237.371,-13199.055,-33593.613,0.000,0.924,-0.396,13.641,-11.902,7.538,73.333,29.000,1.000
-37203.934,89476.291,-28974.884,-1614.446,59884.182,-12352.544,-7363.595,-34751.544,-0.002,0.926,-0.401,13.031,-11.108,7.294,73.333,30.000,1.000
-39444.953,82620.754,-28171.704,-2013.161,60585.973,-14993.778,-3988.544,-34821.840,-0.006,0.921,-0.397,12.482,-10.559,7.141,73.333,31.000,1.000
-39677.906,76703.210,-28786.216,-2134.949,58754.541,-16548.987,-3600.140,-33306.408,-0.007,0.922,-0.396,12.451,-10.498,7.019,73.333,32.000,1.000
-39031.702,70647.522,-30182.345,-2277.799,56526.334,-18245.707,-3192.294,-31752.521,-0.010,0.925,-0.394,12.177,-10.345,6.775,73.333,33.000,1.000
-39400.173,64492.336,-31023.251,-3050.070,56166.081,-20742.514,-616.513,-31529.559,-0.010,0.924,-0.396,11.871,-10.223,6.653,73.333,34.000,1.000
-41031.826,58747.087,-30926.618,-4282.688,57285.024,-23577.467,2915.504,-32196.626,-0.010,0.923,-0.395,11.780,-10.193,6.470,73.333,35.000,1.000
-42548.365,53562.595,-30671.816,-5108.752,57806.088,-25978.075,5006.635,-32368.425,-0.009,0.921,-0.398,11.658,-10.498,6.439,73.333,36.000,1.000
-42918.467,48710.611,-31019.372,-5101.111,56812.493,-27770.746,5317.738,-31558.337,-0.004,0.921,-0.400,11.353,-10.345,6.317,73.333,37.000,1.000
-42624.715,44028.105,-31831.321,-4848.290,55412.614,-29329.317,5615.982,-30571.304,-0.006,0.921,-0.398,10.895,-10.223,6.348,73.333,38.000,1.000
-42791.024,39573.017,-32441.931,-5167.600,54965.550,-30950.443,7211.489,-30274.067,-0.007,0.918,-0.395,10.773,-10.254,6.195,73.333,39.000,1.000
-43737.038,35447.951,-32546.314,-6054.140,55395.817,-32582.043,9498.502,-30559.713,-0.005,0.919,-0.399,10.773,-10.468,5.890,73.333,40.000,1.000
-44778.773,31695.827,-32467.645,-6777.983,55614.208,-34060.508,11130.555,-30682.582,-0.002,0.921,-0.406,10.376,-10.498,5.524,73.333,41.000,1.000
-45216.478,28332.546,-32667.741,-6920.782,55033.035,-35337.280,11772.253,-30244.698,-0.001,0.922,-0.406,9.857,-10.040,5.188,73.333,42.000,1.000
-45109.173,25294.405,-33230.092,-6900.326,54105.152,-36444.178,12197.796,-29547.981,0.000,0.921,-0.407,9.583,-10.010,4.883,73.333,43.000,1.000
-45044.467,22360.514,-33853.753,-7326.221,53535.474,-37432.450,13105.239,-29100.449,0.002,0.922,-0.408,9.277,-9.979,4.486,73.333,44.000,1.000
-45416.345,19326.553,-34220.308,-8150.426,53460.600,-38410.352,14413.515,-29048.418,0.003,0.923,-0.405,9.064,-10.010,4.089,73.333,45.000,1.000
-46074.980,16306.422,-34300.818,-8776.314,53498.401,-39488.220,15638.074,-29127.579,0.003,0.920,-0.408,8.667,-10.071,3.784,73.333,46.000,1.000
-46577.148,13669.867,-34354.509,-8905.105,53280.386,-40594.020,16493.013,-29003.503,0.005,0.918,-0.410,8.331,-10.101,3.510,73.333,47.000,1.000
-46656.459,11555.537,-34661.300,-8919.444,52750.973,-41475.039,17023.813,-28582.956,0.006,0.917,-0.408,8.179,-9.918,3.235,73.333,48.000,1.000
-46468.353,9603.741,-35227.075,-9321.242,52114.244,-42020.069,17459.079,-28070.918,0.007,0.917,-0.415,7.904,-10.040,2.930,73.333,49.000,1.000
-46424.163,7381.083,-35754.702,-10053.346,51657.400,-42482.974,18083.443,-27770.058,0.006,0.913,-0.413,7.599,-10.132,2.686,73.333,50.000,1.000
-46758.505,4986.842,-35964.621,-10624.206,51528.984,-43201.192,19036.985,-27770.178,0.003,0.910,-0.411,7.446,-10.223,2.380,73.333,51.000,1.000
-47244.911,2963.387,-35945.567,-10800.586,51545.929,-44118.892,20078.005,-27814.203,0.002,0.909,-0.414,7.294,-10.284,2.197,73.333,52.000,1.000
-47417.941,1551.949,-36086.874,-10892.663,51303.757,-44808.726,20731.180,-27554.217,0.001,0.907,-0.415,7.050,-9.979,1.923,73.333,53.000,1.000
-47131.059,308.543,-36603.014,-11288.562,50641.626,-45047.118,20877.183,-26982.757,-0.004,0.903,-0.414,6.958,-10.101,1.740,73.333,54.000,1.000
-46788.214,-1328.798,-37228.227,-11930.315,49931.152,-45164.466,21039.835,-26498.134,-0.006,0.900,-0.413,6.836,-10.071,1.404,73.333,55.000,1.000
-46879.051,-3264.427,-37525.797,-12435.700,49681.184,-45629.346,21792.487,-26429.949,-0.008,0.903,-0.412,6.927,-10.193,1.282,73.333,56.000,1.000
-47337.371,-4855.485,-37463.689,-12639.398,49847.948,-46395.646,22942.125,-26583.130,-0.013,0.907,-0.410,6.744,-10.345,1.038,73.333,57.000,1.000
-47577.999,-5797.313,-37490.031,-12790.315,49804.408,-46934.933,23677.085,-26443.494,-0.019,0.907,-0.408,6.531,-10.590,0.793,73.333,58.000,1.000
-47244.977,-6567.429,-37981.727,-13202.978,49117.041,-46957.003,23640.544,-25850.562,-0.021,0.906,-0.409,6.287,-10.925,0.549,73.333,59.000,1.000
-46712.253,-7787.738,-38833.789,-13943.484,48073.344,-46831.040,23494.270,-25248.317,-0.023,0.904,-0.410,5.920,-11.200,0.397,73.333,60.000,1.000
-46622.780,-9370.259,-39772.244,-14974.076,47157.999,-47096.908,24085.297,-25120.494,-0.023,0.900,-0.410,5.920,-11.475,0.153,73.333,61.000,1.000
-47028.853,-10634.612,-40936.378,-16440.301,46171.644,-47720.643,25268.858,-25329.132,-0.022,0.900,-0.410,5.829,-11.810,-0.061,73.333,62.000,1.000
-47294.453,-11246.406,-42877.045,-18621.840,44276.653,-48131.277,26043.869,-25270.902,-0.019,0.898,-0.410,5.585,-12.146,-0.427,73.333,63.000,1.000
-46936.115,-11682.242,-45876.616,-21578.384,41056.154,-48005.995,25905.972,-24683.893,-0.018,0.896,-0.412,5.402,-12.329,-0.916,73.333,64.000,1.000
-46286.307,-12576.502,-49433.859,-24946.336,37235.110,-47720.331,25577.403,-24017.428,-0.018,0.894,-0.414,5.493,-12.451,-1.312,73.333,65.000,1.000
-46061.625,-13855.843,-52649.905,-28178.111,34009.591,-47836.682,26050.925,-23837.211,-0.017,0.889,-0.416,5.463,-12.482,-1.617,73.333,66.000,1.000
-46396.754,-14854.173,-55118.203,-30969.716,31744.124,-48335.929,27220.035,-24055.762,-0.018,0.885,-0.420,5.615,-12.482,-1.801,73.333,67.000,1.000
-46655.440,-15236.348,-57225.650,-33398.529,29709.019,-48651.296,27999.511,-24042.464,-0.020,0.883,-0.416,5.768,-12.512,-1.831,73.333,68.000,1.000
-46289.537,-15451.982,-59509.813,-35676.104,27187.629,-48452.175,27806.852,-23478.032,-0.022,0.884,-0.415,5.981,-12.390,-1.740,73.333,69.000,1.000
-45582.523,-16107.430,-61937.271,-37874.026,24455.124,-48091.518,27371.874,-22789.129,-0.025,0.886,-0.417,6.165,-12.482,-1.556,73.333,70.000,1.000
-45263.157,-17140.074,-64031.720,-39929.833,22329.045,-48109.667,27743.990,-22566.528,-0.030,0.889,-0.419,6.439,-12.482,-1.404,73.333,71.000,1.000
-45516.645,-17926.163,-65610.203,-41827.925,20962.888,-48492.884,28856.830,-22761.459,-0.034,0.893,-0.418,6.531,-12.665,-1.099,73.333,72.000,1.000
-45741.471,-18146.537,-67081.538,-43659.951,19581.032,-48705.936,29626.572,-22757.869,-0.037,0.897,-0.417,6.592,-13.000,-0.732,73.333,73.000,1.000
-45375.046,-18209.602,-68900.591,-45500.673,17525.471,-48435.823,29441.333,-22215.780,-0.034,0.900,-0.419,6.470,-13.367,-0.427,73.333,74.000,1.000
-44653.389,-18673.829,-70946.160,-47304.807,15158.289,-48012.818,28986.809,-21528.085,-0.035,0.904,-0.423,5.951,-13.489,-0.305,73.333,75.000,1.000
-44277.668,-19492.424,-72683.709,-48972.566,13369.118,-47947.435,29286.558,-21277.557,-0.034,0.907,-0.427,5.524,-13.336,0.122,73.333,76.000,1.000
-44460.835,-20107.459,-73884.831,-50478.915,12369.096,-48240.414,30300.913,-21448.947,-0.032,0.905,-0.430,5.310,-13.062,0.549,73.333,77.000,1.000
-44656.170,-20225.374,-74921.026,-51889.351,11423.726,-48405.339,31006.864,-21466.577,-0.029,0.905,-0.428,5.402,-12.848,1.160,73.333,78.000,1.000
-44315.283,-20196.943,-76249.629,-53262.909,9866.480,-48143.399,30813.634,-20984.738,-0.026,0.905,-0.425,5.371,-12.817,1.556,73.333,79.000,1.000
-43622.335,-20510.821,-77808.876,-54589.007,7986.157,-47730.079,30352.129,-20340.908,-0.024,0.904,-0.426,5.157,-12.604,1.831,73.333,80.000,1.000
-43218.263,-21130.648,-79133.910,-55829.399,6593.391,-47609.094,30584.481,-20074.320,-0.020,0.905,-0.426,5.066,-12.604,2.228,73.333,81.000,1.000
-43323.545,-21575.027,-80004.384,-56982.331,5900.800,-47782.864,31496.638,-20193.419,-0.016,0.903,-0.424,4.883,-12.482,2.594,73.333,82.000,1.000
-43460.961,-21588.691,-80731.166,-58077.250,5256.348,-47831.376,32157.918,-20187.189,-0.013,0.900,-0.430,4.608,-12.421,2.777,73.333,83.000,1.000
-43125.011,-21470.570,-81717.287,-59127.011,4054.332,-47501.452,32011.313,-19734.277,-0.014,0.900,-0.430,4.608,-12.360,3.204,73.333,84.000,1.000
-42458.205,-21640.817,-82918.516,-60117.829,2544.113,-47041.577,31601.782,-19125.658,-0.009,0.896,-0.434,4.120,-12.207,3.479,73.333,85.000,1.000
-42029.535,-22075.783,-83930.267,-61043.101,1451.440,-46847.075,31788.494,-18847.774,-0.008,0.890,-0.434,3.937,-11.444,3.845,73.333,86.000,1.000
-42056.395,-22373.508,-84550.058,-61918.335,978.535,-46930.849,32576.004,-18925.155,-0.013,0.891,-0.430,4.486,-10.895,4.608,73.333,87.000,1.000
-42137.178,-22316.657,-85037.951,-62754.700,557.595,-46935.842,33154.371,-18913.427,-0.014,0.893,-0.428,4.608,-10.712,4.761,73.333,88.000,1.000
-41822.423,-22147.972,-85746.299,-63540.662,-351.399,-46635.899,33028.821,-18517.228,-0.019,0.892,-0.425,4.791,-10.742,4.883,73.333,89.000,1.000
-41214.585,-22213.165,-86650.213,-64265.263,-1544.901,-46223.106,32664.173,-17972.417,-0.023,0.893,-0.423,4.852,-10.529,5.157,73.333,90.000,1.000
-40797.302,-22495.861,-87408.656,-64944.165,-2394.834,-46017.291,32808.252,-17698.978,-0.025,0.894,-0.423,4.730,-10.559,5.432,73.333,91.000,1.000
-40769.675,-22670.797,-87839.422,-65601.458,-2713.659,-46028.899,33478.361,-17732.431,-0.031,0.897,-0.423,4.791,-10.620,5.798,73.333,92.000,1.000
-40801.380,-22561.919,-88150.329,-66232.369,-2977.095,-45967.517,33986.115,-17702.804,-0.037,0.904,-0.424,4.944,-10.681,5.920,73.333,93.000,1.000
-40505.145,-22365.651,-88638.767,-66808.099,-3650.027,-45650.645,33900.083,-17351.980,-0.040,0.906,-0.425,4.730,-10.925,6.226,73.333,94.000,1.000
-39950.896,-22362.925,-89295.946,-67321.256,-4573.389,-45237.087,33600.777,-16865.572,-0.045,0.911,-0.423,4.486,-11.261,6.653,73.333,95.000,1.000
-39539.704,-22545.539,-89845.231,-67804.051,-5222.719,-44990.478,33717.515,-16594.831,-0.046,0.915,-0.426,3.998,-11.688,6.866,73.333,96.000,1.000
-39451.381,-22656.650,-90129.490,-68286.778,-5431.716,-44924.921,34276.849,-16581.064,-0.051,0.916,-0.425,3.418,-11.963,7.233,73.333,97.000,1.000
-39426.161,-22551.939,-90309.139,-68754.129,-5586.366,-44809.863,34714.060,-16525.114,-0.051,0.916,-0.425,3.174,-12.360,7.843,73.333,98.000,1.000
-39142.005,-22376.749,-90626.775,-69165.987,-6073.671,-44496.261,34665.002,-16208.515,-0.051,0.913,-0.422,2.777,-12.848,8.087,73.333,99.000,1.000
-38642.476,-22344.554,-91084.689,-69516.746,-6773.445,-44104.204,34428.841,-15774.220,-0.052,0.909,-0.421,2.411,-13.245,8.484,73.333,100.000,1.000
-38249.247,-22448.864,-91465.721,-69847.968,-7261.170,-43839.928,34517.225,-15509.555,-0.054,0.906,-0.412,2.045,-13.885,9.094,73.333,101.000,1.000
-38117.958,-22492.778,-91638.798,-70192.981,-7394.285,-43719.170,34963.000,-15458.484,-0.051,0.904,-0.416,1.404,-14.679,9.460,73.333,102.000,1.000
-38050.115,-22362.901,-91723.063,-70530.616,-7475.999,-43567.899,35320.351,-15386.253,-0.047,0.896,-0.419,0.885,-14.984,9.644,73.333,103.000,1.000
-37783.943,-22165.213,-91910.103,-70815.319,-7818.790,-43270.712,35293.726,-15111.138,-0.049,0.888,-0.419,1.312,-14.862,10.315,73.333,104.000,1.000
-37339.196,-22062.075,-92209.397,-71042.567,-8335.908,-42914.134,35112.271,-14733.904,-0.048,0.887,-0.418,1.740,-15.015,11.078,73.333,105.000,1.000
-36962.754,-22058.697,-92455.907,-71257.257,-8694.335,-42650.379,35180.987,-14477.271,-0.051,0.889,-0.415,2.045,-15.381,11.536,73.333,106.000,1.000
-36786.363,-22021.307,-92542.762,-71492.256,-8774.534,-42491.228,35535.154,-14384.449,-0.053,0.894,-0.409,2.167,-15.747,11.963,73.333,107.000,1.000
-36669.755,-21871.105,-92553.577,-71723.254,-8805.186,-42307.441,35832.159,-14282.638,-0.057,0.898,-0.407,2.167,-16.144,12.360,73.333,108.000,1.000
-36413.084,-21680.277,-92634.928,-71904.076,-9030.810,-42011.494,35835.414,-14031.667,-0.057,0.902,-0.406,1.953,-16.785,12.970,73.333,109.000,1.000
-36023.166,-21559.055,-92802.956,-72033.029,-9394.817,-41664.791,35707.511,-13703.474,-0.057,0.900,-0.407,1.648,-17.578,13.306,73.333,110.000,1.000
-35682.943,-21508.970,-92940.255,-72157.085,-9648.311,-41381.408,35752.707,-13467.388,-0.054,0.894,-0.408,1.373,-18.341,13.672,73.333,111.000,1.000
-35496.051,-21435.290,-92963.417,-72307.855,-9695.048,-41178.277,36007.269,-13361.517,-0.046,0.889,-0.414,1.068,-19.043,13.550,73.333,112.000,1.000
-35361.030,-21278.630,-92925.340,-72458.832,-9697.983,-40969.320,36227.296,-13257.613,-0.042,0.882,-0.417,1.038,-19.379,13.458,73.333,113.000,1.000
-35123.095,-21082.621,-92930.697,-72563.387,-9838.510,-40690.815,36240.315,-13043.438,-0.039,0.884,-0.423,1.312,-19.653,13.489,73.333,114.000,1.000
-34776.217,-20923.506,-92997.186,-72619.746,-10081.954,-40378.213,36159.972,-12762.244,-0.039,0.885,-0.415,1.587,-19.836,13.824,73.333,115.000,1.000
-34452.152,-20814.542,-93046.140,-72673.033,-10250.676,-40105.538,36202.830,-12537.508,-0.031,0.886,-0.417,1.740,-20.447,13.855,73.333,116.000,1.000
-34237.631,-20707.786,-93015.992,-72753.261,-10270.755,-39886.301,36395.666,-12406.361,-0.025,0.886,-0.422,1.404,-20.935,14.099,73.333,117.000,1.000
-34072.907,-20569.252,-92937.570,-72835.995,-10252.658,-39665.937,36565.139,-12284.082,-0.020,0.884,-0.429,1.282,-20.966,14.465,73.333,118.000,1.000
-33848.003,-20419.261,-92882.647,-72878.705,-10325.957,-39399.901,36584.257,-12086.876,-0.020,0.887,-0.432,1.404,-20.966,14.893,73.333,119.000,1.000
-33546.784,-20294.941,-92869.638,-72880.159,-10473.787,-39104.695,36525.853,-11835.251,-0.014,0.887,-0.436,0.732,-21.698,15.717,73.333,120.000,1.000
-33252.048,-20199.158,-92850.398,-72881.048,-10577.128,-38826.264,36542.203,-11612.860,-0.003,0.886,-0.433,1.160,-20.935,15.900,73.333,121.000,1.000
-33027.395,-20102.140,-92780.702,-72907.601,-10580.441,-38580.921,36664.491,-11456.059,0.005,0.883,-0.433,1.282,-20.111,16.113,73.333,122.000,1.000
-32842.194,-19980.894,-92673.421,-72937.378,-10550.723,-38340.991,36785.965,-11322.534,0.017,0.871,-0.433,1.862,-19.318,15.900,73.333,123.000,1.000
-32625.245,-19842.073,-92573.249,-72932.715,-10574.150,-38069.762,36817.678,-11162.233,0.030,0.866,-0.435,3.479,-17.731,14.801,73.333,124.000,1.000
-32358.611,-19708.194,-92498.239,-72892.813,-10647.326,-37756.463,36793.064,-10981.179,0.028,0.867,-0.441,4.944,-16.388,13.336,73.333,125.000,1.000
-32090.571,-19595.899,-92424.104,-72852.889,-10698.473,-37419.920,36802.171,-10821.812,0.017,0.872,-0.437,6.317,-15.289,12.268,73.333,126.000,1.000
-31866.924,-19510.656,-92320.535,-72834.462,-10687.254,-37089.694,36871.337,-10700.183,0.007,0.881,-0.431,7.172,-14.557,11.658,73.333,127.000,1.000
-31677.671,-19450.989,-92186.377,-72816.943,-10645.889,-36789.391,36946.553,-10584.652,0.001,0.885,-0.431,7.385,-14.282,11.536,73.333,128.000,1.000
-31478.649,-19411.062,-92044.765,-72767.984,-10625.371,-36532.892,36976.078,-10436.856,-0.004,0.889,-0.428,7.446,-13.916,11.292,73.333,129.000,1.000
-31246.889,-19382.218,-91913.297,-72687.993,-10632.679,-36322.447,36970.287,-10255.936,-0.007,0.890,-0.431,6.958,-13.733,10.864,73.333,130.000,1.000
-31000.245,-19358.465,-91787.199,-72608.002,-10634.459,-36146.523,36974.274,-10075.022,-0.014,0.886,-0.440,7.019,-13.275,10.681,73.333,131.000,1.000
-30767.776,-19337.909,-91649.054,-72546.577,-10604.683,-35984.786,37009.726,-9921.974,-0.020,0.883,-0.433,7.446,-12.756,10.681,73.333,132.000,1.000
-30554.647,-19314.829,-91488.745,-72486.295,-10550.245,-35817.624,37060.748,-9792.681,-0.026,0.888,-0.432,7.660,-12.787,10.590,73.333,133.000,1.000
-30341.383,-19278.412,-91313.191,-72400.356,-10494.845,-35632.492,37102.087,-9662.490,-0.029,0.891,-0.431,7.446,-12.878,10.223,73.333,134.000,1.000
-30110.012,-19226.381,-91138.857,-72290.108,-10452.515,-35424.976,37123.965,-9514.446,-0.037,0.896,-0.424,8.209,-12.970,10.498,73.333,135.000,1.000
-29865.011,-19176.366,-90975.353,-72182.441,-10419.163,-35201.094,37132.139,-9354.501,-0.039,0.907,-0.423,8.606,-13.184,11.597,73.333,136.000,1.000
-29629.167,-19152.069,-90815.772,-72093.428,-10380.845,-34977.646,37137.592,-9202.860,-0.038,0.911,-0.420,8.331,-13.763,11.932,73.333,137.000,1.000
-29420.202,-19152.840,-90644.317,-72008.851,-10326.464,-34770.882,37148.302,-9071.975,-0.041,0.910,-0.417,8.148,-14.008,12.573,73.333,138.000,1.000
-29231.982,-19146.175,-90454.978,-71906.035,-10258.088,-34580.331,37161.654,-8953.789,-0.045,0.913,-0.419,7.996,-14.313,13.000,73.333,139.000,1.000
-29039.523,-19097.682,-90260.026,-71784.443,-10191.319,-34385.439,37164.236,-8829.043,-0.049,0.914,-0.422,7.629,-14.862,13.245,73.333,140.000,1.000
-28825.238,-19005.265,-90075.981,-71664.042,-10140.056,-34165.301,37147.258,-8690.636,-0.051,0.910,-0.421,7.202,-15.503,13.397,73.333,141.000,1.000
-28598.826,-18895.030,-89902.278,-71556.858,-10098.127,-33923.482,37123.553,-8553.088,-0.053,0.905,-0.422,6.805,-16.205,13.489,73.333,142.000,1.000
-28385.709,-18783.963,-89720.304,-71451.886,-10042.675,-33685.922,37118.582,-8433.665,-0.053,0.902,-0.423,6.409,-16.998,13.428,73.333,143.000,1.000
-28195.243,-18659.531,-89516.678,-71331.866,-9961.843,-33470.980,37137.765,-8329.098,-0.049,0.897,-0.425,6.256,-17.578,13.367,73.333,144.000,1.000
-28007.070,-18502.760,-89301.328,-71196.198,-9872.781,-33268.092,37153.389,-8217.634,-0.048,0.890,-0.425,6.134,-17.853,13.458,73.333,145.000,1.000
-27796.210,-18324.681,-89095.236,-71059.393,-9801.849,-33054.823,37136.357,-8085.310,-0.045,0.881,-0.424,5.951,-18.341,13.611,73.333,146.000,1.000
-27567.055,-18164.255,-88902.435,-70930.162,-9748.886,-32828.631,37095.985,-7944.143,-0.042,0.871,-0.423,5.859,-18.738,13.611,73.333,147.000,1.000
-27350.787,-18045.487,-88703.879,-70801.055,-9684.655,-32607.937,37071.011,-7818.803,-0.039,0.865,-0.428,5.981,-18.921,13.611,73.333,148.000,1.000
-27167.100,-17951.881,-88483.264,-70661.240,-9589.721,-32402.460,37077.585,-7716.463,-0.038,0.862,-0.433,6.348,-19.196,13.702,73.333,149.000,1.000
-26998.566,-17852.484,-88250.613,-70512.467,-9483.636,-32194.974,37084.608,-7615.980,-0.032,0.863,-0.433,6.775,-19.562,13.733,73.333,150.000,1.000
-26813.003,-17743.676,-88030.682,-70366.365,-9401.769,-31962.395,37053.584,-7494.584,-0.025,0.863,-0.433,7.141,-19.531,13.794,73.333,151.000,1.000
-26605.631,-17650.051,-87830.265,-70228.429,-9347.831,-31707.769,36992.089,-7359.521,-0.027,0.863,-0.436,7.599,-19.318,13.977,73.333,152.000,1.000
-26404.332,-17584.907,-87628.325,-70091.157,-9286.857,-31457.343,36946.894,-7240.052,-0.030,0.867,-0.440,8.026,-19.257,13.947,73.333,153.000,1.000
-26230.830,-17528.086,-87403.458,-69944.729,-9191.129,-31226.786,36942.262,-7148.621,-0.032,0.869,-0.448,8.331,-19.135,13.763,73.333,154.000,1.000
-26069.905,-17451.476,-87162.219,-69789.443,-9077.846,-31002.278,36946.907,-7062.636,-0.033,0.874,-0.446,8.667,-18.890,13.672,73.333,155.000,1.000
-25889.625,-17356.685,-86930.172,-69633.877,-8986.408,-30763.301,36915.361,-6954.045,-0.033,0.876,-0.444,8.728,-18.921,13.489,73.333,156.000,1.000
-25685.425,-17272.089,-86717.685,-69483.092,-8925.207,-30515.272,36848.508,-6827.655,-0.034,0.881,-0.444,8.850,-19.012,13.367,73.333,157.000,1.000
-25487.277,-17212.554,-86506.713,-69333.322,-8860.515,-30285.380,36791.306,-6715.037,-0.032,0.888,-0.448,8.881,-19.135,13.214,73.333,158.000,1.000
-25320.357,-17159.256,-86276.232,-69178.852,-8763.110,-30087.599,36770.470,-6632.418,-0.033,0.890,-0.448,8.759,-19.043,13.092,73.333,159.000,1.000
-25171.829,-17086.465,-86030.988,-69019.930,-8648.497,-29903.221,36758.272,-6558.699,-0.035,0.890,-0.448,8.484,-19.165,13.153,73.333,160.000,1.000
-25008.774,-16998.138,-85794.657,-68861.422,-8555.607,-29702.925,36711.730,-6463.791,-0.029,0.892,-0.454,7.904,-19.104,13.367,73.333,161.000,1.000
-24822.496,-16924.238,-85577.431,-68705.687,-8493.501,-29479.145,36632.359,-6348.264,-0.029,0.891,-0.459,7.111,-18.555,13.855,73.333,162.000,1.000
-24638.616,-16881.444,-85362.372,-68549.857,-8429.163,-29242.263,36563.929,-6240.344,-0.031,0.888,-0.463,6.287,-18.036,15.015,73.333,163.000,1.000
-24480.687,-16852.563,-85128.733,-68390.376,-8332.799,-28985.318,36531.753,-6156.538,-0.035,0.885,-0.462,5.310,-17.761,16.479,73.333,164.000,1.000
-24337.152,-16809.884,-84879.815,-68227.564,-8218.055,-28664.873,36508.574,-6078.934,-0.035,0.888,-0.456,4.547,-17.700,18.372,73.333,165.000,1.000
-24176.387,-16748.985,-84637.838,-68064.492,-8122.667,-28227.638,36453.439,-5979.381,-0.042,0.893,-0.452,3.113,-18.402,20.813,73.333,166.000,1.000
-23988.745,-16687.856,-84413.960,-67902.962,-8057.298,-27653.466,36369.115,-5856.617,-0.040,0.896,-0.451,2.045,-19.287,22.858,73.333,167.000,1.000
-23798.900,-16635.323,-84194.676,-67742.473,-7992.840,-26968.993,36298.225,-5736.265,-0.046,0.904,-0.459,-0.458,-20.660,25.482,73.333,168.000,1.000
-23633.725,-16575.301,-83962.262,-67582.795,-7902.278,-26231.766,36263.150,-5636.522,-0.029,0.887,-0.438,-0.580,-21.454,26.825,73.333,169.000,1.000
-23489.216,-16486.628,-83719.960,-67425.391,-7798.255,-25510.938,36233.530,-5546.684,-0.002,0.884,-0.455,-1.923,-21.393,26.917,73.333,170.000,1.000
-23339.967,-16369.511,-83487.553,-67271.696,-7715.400,-24868.769,36165.709,-5447.081,0.012,0.866,-0.451,-1.343,-18.982,26.367,73.333,171.000,1.000
-23175.491,-16242.233,-83274.038,-67120.877,-7662.783,-24332.526,36060.700,-5339.864,0.014,0.850,-0.444,0.427,-17.365,24.872,73.333,172.000,1.000
-23012.711,-16113.967,-83064.702,-66969.949,-7611.407,-23872.469,35963.227,-5247.507,0.037,0.832,-0.479,0.641,-16.724,22.217,73.333,173.000,1.000
-22869.786,-15973.693,-82839.589,-66815.900,-7532.459,-23417.736,35904.365,-5183.308,0.037,0.818,-0.486,2.533,-14.496,20.264,73.333,174.000,1.000
-22738.484,-15809.763,-82597.397,-66656.703,-7432.913,-22914.903,35866.006,-5133.150,0.032,0.825,-0.478,4.822,-12.207,17.487,73.333,175.000,1.000
-22593.712,-15633.600,-82353.383,-66490.849,-7341.596,-22390.993,35811.210,-5073.722,0.024,0.837,-0.476,6.042,-11.230,14.923,73.333,176.000,1.000
-22426.679,-15475.455,-82116.466,-66317.546,-7267.838,-21959.991,35734.621,-5002.207,0.010,0.857,-0.482,7.080,-10.315,13.550,73.333,177.000,1.000
-22256.317,-15356.794,-81877.656,-66137.863,-7189.956,-21754.728,35664.003,-4936.934,0.002,0.870,-0.487,7.141,-9.491,13.458,73.333,178.000,1.000
-22105.132,-15274.926,-81624.366,-65954.718,-7087.190,-21835.111,35615.293,-4890.650,0.004,0.876,-0.493,7.111,-8.728,13.367,73.333,179.000,1.000
-21971.742,-15214.434,-81359.167,-65770.653,-6969.138,-22142.452,35567.861,-4851.991,0.006,0.883,-0.496,7.080,-8.148,12.878,73.333,180.000,1.000
-21835.518,-15166.316,-81097.416,-65586.210,-6863.153,-22536.190,35492.866,-4799.405,0.009,0.896,-0.492,7.050,-7.629,12.482,73.333,181.000,1.000
-21684.799,-15130.066,-80847.952,-65401.090,-6778.735,-22880.854,35393.409,-4728.266,0.014,0.907,-0.496,6.653,-7.050,11.993,73.333,182.000,1.000
-21530.326,-15100.503,-80603.153,-65216.054,-6697.381,-23109.722,35301.623,-4655.222,0.019,0.913,-0.494,5.859,-6.378,11.292,73.333,183.000,1.000
-21388.696,-15063.945,-80350.871,-65032.746,-6599.718,-23225.762,35237.318,-4596.563,0.025,0.917,-0.492,5.066,-5.493,10.590,73.333,184.000,1.000
-21259.541,-15010.610,-80090.859,-64851.508,-6491.307,-23261.999,35184.671,-4549.016,0.027,0.922,-0.492,4.150,-4.486,9.888,73.333,185.000,1.000
-21127.191,-14947.239,-79833.971,-64670.627,-6393.274,-23250.758,35115.609,-4496.940,0.030,0.926,-0.488,3.113,-3.723,9.064,73.333,186.000,1.000
-20982.637,-14892.904,-79586.775,-64488.461,-6313.001,-23219.515,35026.273,-4433.246,0.033,0.929,-0.486,1.984,-2.869,8.270,73.333,187.000,1.000
-20834.668,-14861.338,-79343.042,-64305.531,-6235.197,-23192.791,34938.730,-4365.351,0.036,0.931,-0.484,0.824,-1.831,7.660,73.333,188.000,1.000
-20696.961,-14851.390,-79092.841,-64123.673,-6143.706,-23184.380,34868.327,-4302.461,0.037,0.936,-0.481,-0.397,-0.946,7.080,73.333,189.000,1.000
-20569.728,-14853.865,-78835.647,-63943.240,-6042.616,-23187.457,34803.262,-4243.208,0.037,0.936,-0.476,-1.678,0.000,6.256,73.333,190.000,1.000
-20440.653,-14863.981,-78580.093,-63762.447,-5949.065,-23181.091,34721.994,-4180.357,0.034,0.932,-0.473,-2.777,0.946,5.341,73.333,191.000,1.000
-20302.192,-14883.904,-78331.950,-63579.901,-5869.695,-23150.855,34622.420,-4113.602,0.031,0.928,-0.470,-3.845,1.587,4.364,73.333,192.000,1.000
-20160.744,-14913.534,-78086.875,-63396.519,-5792.866,-23099.845,34524.527,-4050.582,0.029,0.923,-0.463,-4.913,2.472,3.571,73.333,193.000,1.000
-20026.736,-14944.732,-77836.870,-63214.099,-5705.376,-23039.537,34444.580,-3995.820,0.028,0.918,-0.457,-5.859,3.143,2.625,73.333,194.000,1.000
-19897.588,-14962.933,-77580.172,-63032.008,-5608.993,-22970.628,34376.774,-3940.945,0.027,0.910,-0.453,-6.775,3.845,1.740,73.333,195.000,1.000
-19754.347,-14949.180,-77320.981,-62846.173,-5514.772,-22874.485,34306.172,-3867.727,0.025,0.902,-0.448,-7.660,4.456,0.946,73.333,196.000,1.000
-19581.447,-14888.878,-77061.608,-62652.893,-5425.954,-22730.371,34230.169,-3765.953,0.024,0.891,-0.444,-8.331,5.066,0.061,73.333,197.000,1.000
-19393.860,-14796.843,-76800.582,-62454.608,-5335.434,-22549.492,34153.272,-3654.769,0.021,0.882,-0.438,-8.728,5.463,-0.916,73.333,198.000,1.000
-19238.223,-14733.965,-76539.479,-62260.717,-5240.584,-22387.974,34066.163,-3581.089,0.026,0.875,-0.437,-8.820,5.981,-1.984,73.333,199.000,1.000
-19153.184,-14771.097,-76285.918,-62079.991,-5151.564,-22306.958,33950.283,-3579.855,0.026,0.870,-0.431,-8.881,6.531,-2.930,73.333,200.000,1.000
-19125.729,-14917.564,-76045.518,-61911.631,-5079.238,-22311.316,33806.963,-3632.252,0.029,0.866,-0.430,-8.881,7.050,-3.937,73.333,201.000,1.000
-19097.614,-15097.583,-75813.245,-61745.661,-5019.398,-22339.030,33666.492,-3676.035,0.035,0.858,-0.430,-8.698,7.538,-4.791,73.333,202.000,1.000
-19019.810,-15212.983,-75576.888,-61572.657,-4955.646,-22319.180,33558.861,-3663.116,0.036,0.853,-0.427,-8.240,8.118,-5.585,73.333,203.000,1.000
-18893.232,-15226.334,-75329.160,-61391.467,-4877.478,-22233.468,33482.432,-3599.602,0.035,0.851,-0.429,-7.751,8.698,-6.348,73.333,204.000,1.000
-18753.431,-15176.028,-75073.698,-61206.974,-4790.331,-22115.177,33409.634,-3526.034,0.035,0.847,-0.428,-7.050,9.460,-7.111,73.333,205.000,1.000
-18626.360,-15119.757,-74818.919,-61022.896,-4706.529,-21999.504,33319.443,-3469.751,0.036,0.849,-0.430,-6.317,10.162,-7.782,73.333,206.000,1.000
-18509.297,-15079.982,-74568.586,-60839.050,-4630.580,-21890.257,33215.725,-3426.495,0.037,0.852,-0.431,-5.707,10.864,-8.362,73.333,207.000,1.000
-18389.868,-15045.548,-74320.040,-60654.531,-4556.828,-21773.769,33113.776,-3382.047,0.034,0.856,-0.430,-5.066,11.505,-8.667,73.333,208.000,1.000
-18268.625,-15007.527,-74069.954,-60470.544,-4479.500,-21648.681,33018.083,-3336.218,0.030,0.862,-0.430,-4.547,12.115,-9.094,73.333,209.000,1.000
-18156.167,-14975.005,-73818.840,-60288.786,-4400.250,-21529.629,32919.777,-3299.243,0.024,0.865,-0.428,-3.937,12.695,-9.277,73.333,210.000,1.000
-18055.471,-14957.520,-73569.353,-60108.677,-4324.532,-21426.960,32811.424,-3273.667,0.020,0.869,-0.424,-3.357,13.153,-9.338,73.333,211.000,1.000
-17956.405,-14946.376,-73322.090,-59927.856,-4253.653,-21333.724,32697.162,-3249.403,0.017,0.874,-0.426,-2.869,13.428,-9.216,73.333,212.000,1.000
-17848.123,-14921.451,-73074.737,-59745.039,-4183.345,-21234.918,32587.062,-3216.166,0.011,0.879,-0.425,-2.411,13.794,-9.308,73.333,213.000,1.000
-17731.015,-14872.542,-72825.065,-59561.176,-4109.601,-21124.306,32485.214,-3174.846,0.007,0.885,-0.423,-1.953,13.977,-8.881,73.333,214.000,1.000
-17614.078,-14807.868,-72573.512,-59377.733,-4033.402,-21008.222,32386.456,-3134.284,0.000,0.893,-0.424,-1.465,14.069,-8.759,73.333,215.000,1.000
-17504.070,-14743.338,-72322.531,-59195.048,-3958.963,-20895.815,32283.396,-3100.774,-0.006,0.896,-0.422,-1.221,13.947,-8.545,73.333,216.000,1.000
-17400.299,-14688.032,-72073.968,-59012.781,-3888.710,-20789.422,32173.914,-3073.312,-0.011,0.898,-0.421,-1.068,13.855,-8.118,73.333,217.000,1.000
-17298.308,-14639.904,-71827.410,-58830.958,-3821.143,-20683.919,32061.570,-3047.006,-0.015,0.901,-0.420,-0.793,13.702,-7.629,73.333,218.000,1.000
-17195.072,-14591.657,-71580.866,-58649.696,-3753.183,-20572.751,31950.739,-3018.185,-0.019,0.901,-0.418,-0.641,13.336,-7.019,73.333,219.000,1.000
-17090.473,-14538.530,-71332.755,-58468.358,-3683.486,-20453.294,31842.931,-2986.268,-0.026,0.900,-0.415,-0.397,12.878,-6.378,73.333,220.000,1.000
-16986.158,-14482.235,-71083.277,-58285.998,-3613.278,-20328.237,31736.708,-2953.506,-0.031,0.898,-0.418,-0.366,12.451,-5.615,73.333,221.000,1.000
-16883.789,-14428.649,-70833.946,-58102.656,-3544.528,-20202.708,31630.043,-2922.996,-0.037,0.898,-0.414,-0.031,11.810,-5.005,73.333,222.000,1.000
-16783.413,-14381.125,-70585.893,-57919.475,-3477.852,-20079.135,31522.731,-2895.242,-0.041,0.898,-0.411,0.183,11.078,-4.456,73.333,223.000,1.000
-16683.021,-14336.204,-70338.799,-57737.325,-3412.215,-19955.058,31416.120,-2867.276,-0.044,0.897,-0.411,0.397,10.254,-3.784,73.333,224.000,1.000
-16580.887,-14287.135,-70091.512,-57555.811,-3346.337,-19827.063,31310.222,-2836.734,-0.048,0.896,-0.411,0.641,9.277,-3.326,73.333,225.000,1.000
-16478.814,-14231.902,-69843.678,-57374.142,-3280.288,-19697.201,31201.729,-2806.619,-0.053,0.894,-0.410,0.854,8.301,-2.777,73.333,226.000,1.000
-16381.232,-14175.262,-69596.440,-57192.561,-3215.606,-19572.477,31086.498,-2783.244,-0.051,0.893,-0.410,1.068,7.202,-2.106,73.333,227.000,1.000
-16289.758,-14121.608,-69351.057,-57012.027,-3153.555,-19455.897,30964.509,-2768.317,-0.052,0.891,-0.410,1.312,6.134,-1.526,73.333,228.000,1.000
-16199.915,-14068.023,-69107.002,-56832.509,-3093.310,-19340.627,30841.414,-2755.235,-0.048,0.893,-0.412,1.434,5.096,-0.916,73.333,229.000,1.000
-16105.685,-14007.677,-68862.085,-56652.452,-3032.392,-19216.318,30723.871,-2735.444,-0.046,0.894,-0.411,1.648,3.998,-0.488,73.333,230.000,1.000
-16007.175,-13941.401,-68614.902,-56470.560,-2969.387,-19081.479,30612.677,-2708.389,-0.039,0.894,-0.413,1.740,3.174,0.061,73.333,231.000,1.000
-15910.975,-13881.661,-68366.659,-56287.596,-2905.816,-18945.729,30501.963,-2682.146,-0.033,0.893,-0.414,1.923,2.502,0.641,73.333,232.000,1.000
-15821.724,-13840.069,-68119.829,-56105.544,-2844.481,-18817.656,30386.089,-2663.174,-0.029,0.893,-0.416,2.045,1.801,1.434,73.333,233.000,1.000
-15735.598,-13812.230,-67875.147,-55925.107,-2786.067,-18693.805,30265.979,-2648.509,-0.024,0.891,-0.416,2.075,1.251,2.045,73.333,234.000,1.000
-15645.082,-13780.328,-67630.839,-55744.961,-2728.347,-18563.379,30147.183,-2630.653,-0.019,0.888,-0.421,2.350,0.854,2.777,73.333,235.000,1.000
-15549.240,-13732.767,-67385.234,-55563.860,-2669.287,-18423.079,30032.079,-2608.754,-0.015,0.888,-0.421,2.625,0.488,3.479,73.333,236.000,1.000
-15455.194,-13676.348,-67139.160,-55382.521,-2609.914,-18281.913,29916.931,-2590.083,-0.011,0.888,-0.422,2.869,0.275,4.242,73.333,237.000,1.000
-15368.354,-13625.086,-66894.746,-55202.504,-2552.915,-18149.037,29797.863,-2579.225,-0.008,0.890,-0.424,3.021,0.061,4.852,73.333,238.000,1.000
-15284.719,-13581.025,-66652.295,-55023.783,-2498.786,-18021.633,29676.944,-2570.422,-0.005,0.888,-0.425,3.082,-0.092,5.371,73.333,239.000,1.000
-15196.262,-13532.618,-66409.563,-54844.505,-2444.820,-17889.469,29559.474,-2554.277,-0.002,0.886,-0.426,3.235,-0.244,5.890,73.333,240.000,1.000
-15102.239,-13472.149,-66164.622,-54663.438,-2388.550,-17750.067,29446.088,-2530.492,0.001,0.883,-0.431,3.357,-0.336,6.165,73.333,241.000,1.000
-15010.699,-13407.440,-65918.487,-54481.711,-2331.116,-17613.258,29331.081,-2508.941,0.005,0.880,-0.435,3.326,-0.275,6.622,73.333,242.000,1.000
-14928.204,-13351.730,-65673.908,-54301.394,-2275.918,-17488.518,29209.177,-2497.152,0.009,0.877,-0.433,3.448,-0.305,6.989,73.333,243.000,1.000
-14851.610,-13305.969,-65431.921,-54122.885,-2224.317,-17372.436,29081.434,-2491.221,0.014,0.874,-0.432,3.632,-0.183,7.446,73.333,244.000,1.000
-14772.920,-13257.629,-65190.718,-53944.612,-2174.049,-17252.829,28953.140,-2481.837,0.015,0.868,-0.434,3.784,0.000,7.782,73.333,245.000,1.000
-14690.172,-13197.798,-64948.198,-53765.286,-2122.382,-17124.300,28826.565,-2467.005,0.013,0.865,-0.435,4.059,0.122,8.179,73.333,246.000,1.000
-14608.985,-13132.698,-64704.464,-53585.329,-2069.481,-16994.019,28698.756,-2453.916,0.013,0.861,-0.435,4.364,0.183,8.514,73.333,247.000,1.000
-14532.824,-13073.536,-64460.896,-53405.527,-2017.399,-16869.659,28568.102,-2447.575,0.011,0.859,-0.438,4.639,0.397,8.850,73.333,248.000,1.000
-14456.133,-13019.575,-64217.571,-53225.246,-1966.545,-16747.123,28439.797,-2442.668,0.011,0.864,-0.436,5.066,0.458,9.247,73.333,249.000,1.000
-14370.900,-12958.435,-63972.931,-53043.068,-1914.871,-16615.554,28321.369,-2430.167,0.011,0.873,-0.439,5.493,0.549,9.460,73.333,250.000,1.000
-14278.256,-12883.513,-63726.270,-52859.111,-1861.018,-16473.101,28213.180,-2409.866,0.010,0.879,-0.441,5.524,0.488,9.583,73.333,251.000,1.000
-14189.327,-12804.756,-63479.547,-52675.718,-1807.032,-16332.197,28105.662,-2392.050,0.013,0.884,-0.441,5.615,0.305,9.796,73.333,252.000,1.000
-14113.838,-12738.195,-63235.799,-52495.326,-1756.669,-16206.926,27986.999,-2386.302,0.016,0.887,-0.443,5.554,0.397,10.040,73.333,253.000,1.000
-14049.750,-12686.980,-62995.768,-52317.894,-1711.046,-16097.610,27853.929,-2391.172,0.014,0.887,-0.445,5.524,0.275,10.010,73.333,254.000,1.000
-13985.976,-12637.464,-62756.797,-52140.859,-1667.019,-15990.765,27714.515,-2396.376,0.010,0.882,-0.443,5.371,0.305,10.406,73.333,255.000,1.000
-13914.533,-12575.664,-62515.597,-51961.770,-1620.606,-15874.303,27579.468,-2394.510,0.011,0.876,-0.442,5.219,0.397,11.078,73.333,256.000,1.000
-13836.966,-12502.621,-62271.591,-51780.470,-1571.244,-15748.546,27452.882,-2387.041,0.010,0.878,-0.439,5.310,0.305,11.963,73.333,257.000,1.000
-13758.485,-12429.352,-62026.775,-51598.385,-1521.601,-15620.496,27332.704,-2378.008,0.005,0.887,-0.441,5.829,-0.092,12.146,73.333,258.000,1.000
-13679.734,-12360.114,-61782.797,-51416.390,-1473.732,-15492.479,27216.415,-2367.074,0.005,0.897,-0.445,5.981,-0.549,11.688,73.333,259.000,1.000
-13598.054,-12287.055,-61539.363,-51234.262,-1426.948,-15361.467,27102.252,-2352.746,0.013,0.895,-0.441,5.554,-0.854,11.505,73.333,260.000,1.000
-13515.074,-12202.535,-61295.780,-51052.104,-1379.912,-15228.183,26985.939,-2339.927,0.015,0.888,-0.439,5.127,-0.977,11.597,73.333,261.000,1.000
-13437.790,-12110.463,-61052.855,-50871.171,-1333.396,-15100.296,26861.162,-2338.016,0.017,0.885,-0.440,4.944,-1.129,11.566,73.333,262.000,1.000
-13370.350,-12021.079,-60812.185,-50692.575,-1289.599,-14983.453,26725.948,-2349.604,0.015,0.890,-0.444,4.883,-1.282,11.658,73.333,263.000,1.000
-13307.744,-11938.401,-60573.834,-50515.641,-1249.020,-14872.908,26586.750,-2364.651,0.014,0.895,-0.442,4.974,-1.526,11.810,73.333,264.000,1.000
-13240.565,-11858.209,-60335.692,-50338.246,-1209.267,-14757.939,26453.521,-2368.776,0.016,0.899,-0.444,4.822,-1.862,11.810,73.333,265.000,1.000
-13164.946,-11777.709,-60095.503,-50158.823,-1167.504,-14634.140,26330.349,-2357.048,0.020,0.901,-0.442,4.486,-2.136,11.749,73.333,266.000,1.000
-13085.356,-11701.674,-59853.062,-49977.602,-1123.438,-14507.908,26212.543,-2337.636,0.020,0.900,-0.446,4.181,-2.319,11.841,73.333,267.000,1.000
-13008.219,-11636.429,-59610.072,-49795.915,-1079.245,-14388.120,26092.840,-2322.467,0.022,0.896,-0.447,3.937,-2.472,11.963,73.333,268.000,1.000
-12935.008,-11580.154,-59368.121,-49614.739,-1036.850,-14276.193,25968.640,-2316.736,0.026,0.897,-0.447,3.723,-2.625,11.902,73.333,269.000,1.000
-12862.830,-11522.587,-59127.302,-49434.161,-996.059,-14165.898,25842.541,-2317.691,0.028,0.897,-0.444,3.601,-2.869,11.932,73.333,270.000,1.000
-12790.303,-11455.655,-58886.957,-49254.105,-955.698,-14052.194,25716.854,-2321.221,0.028,0.897,-0.446,3.235,-2.960,11.749,73.333,271.000,1.000
-12719.909,-11381.922,-58647.087,-49074.950,-915.727,-13937.108,25590.130,-2326.028,0.031,0.896,-0.448,2.960,-3.052,11.414,73.333,272.000,1.000
-12653.893,-11310.511,-58408.282,-48896.968,-877.213,-13825.349,25460.049,-2331.107,0.031,0.893,-0.449,2.625,-3.235,11.200,73.333,273.000,1.000
-12589.884,-11246.647,-58170.551,-48719.606,-840.516,-13716.829,25327.878,-2333.072,0.033,0.890,-0.449,2.502,-3.174,11.108,73.333,274.000,1.000
-12523.069,-11188.059,-57932.938,-48541.850,-804.473,-13606.533,25197.889,-2328.870,0.035,0.887,-0.451,2.441,-3.174,10.925,73.333,275.000,1.000
-12452.216,-11130.936,-57694.578,-48363.306,-767.775,-13491.740,25072.019,-2320.781,0.040,0.884,-0.452,2.411,-3.204,10.651,73.333,276.000,1.000
-12380.956,-11075.034,-57455.643,-48184.462,-730.491,-13375.915,24947.442,-2315.717,0.043,0.883,-0.453,2.350,-3.082,10.529,73.333,277.000,1.000
-12312.949,-11021.395,-57216.942,-48005.857,-693.743,-13264.012,24820.560,-2318.223,0.049,0.883,-0.450,2.319,-2.960,10.468,73.333,278.000,1.000
-12248.063,-10968.381,-56978.984,-47827.546,-658.293,-13156.720,24691.092,-2326.183,0.052,0.882,-0.452,2.380,-2.686,10.529,73.333,279.000,1.000
-12184.338,-10912.642,-56741.670,-47649.428,-623.909,-13051.074,24560.612,-2334.535,0.052,0.880,-0.451,2.380,-2.441,10.498,73.333,280.000,1.000
-12121.687,-10853.410,-56504.705,-47471.666,-589.987,-12945.327,24428.951,-2341.658,0.049,0.876,-0.444,2.533,-2.197,10.620,73.333,281.000,1.000
-12061.553,-10793.494,-56267.960,-47294.446,-556.342,-12840.645,24294.547,-2349.974,0.041,0.869,-0.443,2.625,-1.862,10.559,73.333,282.000,1.000
-12003.276,-10735.114,-56031.207,-47117.307,-522.996,-12737.620,24157.985,-2360.914,0.037,0.863,-0.443,2.838,-1.648,10.468,73.333,283.000,1.000
-11942.136,-10675.493,-55793.622,-46938.962,-489.304,-12633.108,24023.790,-2371.220,0.034,0.857,-0.442,3.235,-1.617,10.529,73.333,284.000,1.000
-11872.917,-10608.311,-55554.093,-46758.171,-454.004,-12522.453,23897.471,-2375.253,0.025,0.854,-0.439,3.571,-1.831,10.590,73.333,285.000,1.000
-11796.151,-10530.921,-55312.516,-46575.146,-416.722,-12405.688,23779.634,-2371.507,0.021,0.856,-0.437,4.181,-2.106,10.986,73.333,286.000,1.000
-11719.106,-10448.412,-55070.462,-46391.779,-379.032,-12289.523,23664.206,-2365.130,0.020,0.861,-0.432,4.669,-2.289,11.261,73.333,287.000,1.000
-11649.850,-10369.193,-54830.134,-46210.224,-343.421,-12181.768,23543.330,-2363.221,0.016,0.869,-0.433,5.157,-2.808,11.566,73.333,288.000,1.000
-11591.211,-10297.946,-54592.724,-46031.402,-311.293,-12085.074,23412.951,-2369.321,0.016,0.878,-0.437,5.402,-3.235,11.871,73.333,289.000,1.000
-11540.389,-10233.060,-54357.734,-45854.718,-282.025,-11996.001,23274.283,-2382.410,0.016,0.881,-0.438,5.676,-3.601,12.115,73.333,290.000,1.000
-11492.547,-10169.421,-54123.614,-45678.802,-253.788,-11908.659,23131.732,-2399.561,0.015,0.886,-0.438,5.859,-4.181,12.207,73.333,291.000,1.000
-11444.004,-10102.606,-53888.936,-45502.402,-225.052,-11818.418,22989.991,-2418.329,0.015,0.886,-0.439,5.829,-4.669,12.482,73.333,292.000,1.000
-11393.271,-10030.884,-53653.108,-45324.859,-195.373,-11723.332,22851.864,-2437.012,0.022,0.886,-0.441,5.585,-4.974,13.000,73.333,293.000,1.000
-11340.294,-9954.632,-53416.268,-45146.120,-165.043,-11623.892,22717.522,-2453.949,0.025,0.883,-0.444,5.554,-5.280,13.550,73.333,294.000,1.000
-11285.611,-9875.311,-53178.751,-44966.476,-134.364,-11521.737,22585.524,-2467.132,0.027,0.880,-0.445,5.554,-5.707,14.221,73.333,295.000,1.000
-11230.238,-9795.579,-52940.837,-44786.334,-103.466,-11418.632,22454.299,-2475.107,0.036,0.882,-0.442,5.615,-6.012,15.137,73.333,296.000,1.000
-11175.317,-9718.581,-52702.812,-44606.043,-72.562,-11315.859,22322.866,-2478.109,0.046,0.887,-0.447,5.859,-6.134,15.839,73.333,297.000,1.000
-11121.253,-9645.388,-52464.954,-44425.752,-42.003,-11213.415,22191.028,-2478.176,0.046,0.896,-0.450,6.073,-6.409,15.839,73.333,298.000,1.000
-11067.120,-9572.973,-52227.425,-44245.459,-12.044,-11109.785,22059.418,-2478.481,0.044,0.897,-0.448,5.951,-6.470,15.717,73.333,299.000,1.000
-11011.464,-9495.169,-51990.198,-44065.159,17.347,-11002.915,21929.163,-2482.352,0.041,0.892,-0.452,5.646,-6.561,15.167,73.333,300.000,1.000
-10953.922,-9406.788,-51753.172,-43884.976,46.334,-10892.249,21800.835,-2492.396,0.034,0.878,-0.450,5.096,-6.714,14.832,73.333,301.000,1.000
-10895.768,-9307.822,-51516.381,-43705.166,74.879,-10780.085,21673.407,-2509.207,0.034,0.868,-0.452,4.944,-6.836,14.435,73.333,302.000,1.000
-10838.912,-9204.333,-51280.017,-43525.941,102.715,-10670.669,21544.536,-2530.140,0.038,0.866,-0.454,5.005,-7.233,14.069,73.333,303.000,1.000
-10784.333,-9105.539,-51044.217,-43347.275,129.676,-10567.506,21412.557,-2549.724,0.043,0.871,-0.456,5.096,-7.538,13.702,73.333,304.000,1.000
-10731.653,-9019.274,-50808.817,-43168.844,156.003,-10470.716,21278.466,-2561.999,0.051,0.875,-0.456,5.249,-7.751,13.580,73.333,305.000,1.000
-10680.019,-8948.903,-50573.390,-42990.183,182.219,-10377.139,21145.237,-2564.025,0.056,0.877,-0.455,5.310,-7.629,13.641,73.333,306.000,1.000
-10628.891,-8892.576,-50337.500,-42810.883,208.764,-10282.782,21015.241,-2557.992,0.058,0.879,-0.457,5.219,-7.568,13.702,73.333,307.000,1.000
-10578.250,-8844.437,-50100.988,-42630.779,235.721,-10184.983,20888.454,-2550.318,0.057,0.880,-0.461,4.974,-7.538,13.702,73.333,308.000,1.000
-10528.182,-8796.931,-49864.119,-42450.093,262.766,-10083.151,20762.796,-2548.411,0.052,0.878,-0.462,4.761,-7.385,13.550,73.333,309.000,1.000
-10478.384,-8743.164,-49627.322,-42269.265,289.484,-9978.019,20636.097,-2556.485,0.050,0.875,-0.464,4.700,-7.233,13.367,73.333,310.000,1.000
-10428.293,-8679.292,-49390.891,-42088.674,315.642,-9870.803,20507.627,-2573.261,0.050,0.874,-0.463,4.669,-7.355,13.153,73.333,311.000,1.000
-10377.386,-8605.737,-49154.944,-41908.529,341.157,-9762.524,20378.527,-2592.912,0.052,0.874,-0.459,4.608,-7.385,12.726,73.333,312.000,1.000
-10325.404,-8526.387,-48919.470,-41728.836,366.021,-9653.614,20251.027,-2608.619,0.055,0.873,-0.462,4.486,-7.324,12.177,73.333,313.000,1.000
-10272.615,-8446.989,-48684.412,-41549.486,390.253,-9544.816,20126.189,-2616.830,0.060,0.873,-0.463,4.425,-7.263,11.719,73.333,314.000,1.000
-10220.005,-8373.383,-48449.730,-41370.394,413.882,-9437.774,20002.450,-2618.953,0.063,0.872,-0.464,4.395,-7.141,11.292,73.333,315.000,1.000
-10168.748,-8309.462,-48215.395,-41191.538,436.978,-9334.122,19876.745,-2619.618,0.068,0.872,-0.464,4.181,-6.836,10.864,73.333,316.000,1.000
-10119.132,-8255.315,-47981.309,-41012.853,459.693,-9234.147,19746.888,-2623.424,0.073,0.872,-0.465,4.089,-6.622,10.468,73.333,317.000,1.000
-10070.361,-8207.293,-47747.301,-40834.175,482.223,-9136.487,19612.895,-2632.725,0.078,0.871,-0.467,3.998,-6.256,10.193,73.333,318.000,1.000
-10021.186,-8160.244,-47513.210,-40655.304,504.708,-9039.087,19476.600,-2647.245,0.082,0.870,-0.471,4.028,-5.981,10.010,73.333,319.000,1.000
-9970.256,-8109.454,-47278.814,-40475.960,527.338,-8939.658,19340.999,-2664.196,0.088,0.872,-0.470,4.211,-5.432,9.735,73.333,320.000,1.000
-9916.538,-8051.798,-47043.852,-40295.858,550.350,-8836.125,19209.313,-2679.556,0.088,0.873,-0.468,4.181,-4.791,9.308,73.333,321.000,1.000
-9860.445,-7986.886,-46808.353,-40115.040,573.722,-8728.131,19083.200,-2690.805,0.081,0.868,-0.467,4.120,-4.303,8.942,73.333,322.000,1.000
-9804.478,-7917.481,-46572.811,-39934.059,596.980,-8617.983,18961.610,-2698.696,0.075,0.863,-0.467,4.028,-3.845,8.270,73.333,323.000,1.000
-9751.981,-7848.458,-46338.018,-39753.763,619.336,-8509.701,18841.529,-2706.625,0.070,0.862,-0.468,4.089,-3.632,7.812,73.333,324.000,1.000
-9705.094,-7784.372,-46104.594,-39574.771,640.155,-8406.677,18719.612,-2718.028,0.075,0.865,-0.469,4.242,-3.479,7.507,73.333,325.000,1.000
-9663.472,-7726.999,-45872.476,-39396.961,659.492,-8309.768,18593.758,-2733.696,0.081,0.871,-0.471,4.211,-3.174,6.897,73.333,326.000,1.000
-9624.332,-7674.315,-45640.802,-39219.423,678.233,-8216.577,18464.613,-2750.791,0.083,0.879,-0.472,4.425,-3.021,6.165,73.333,327.000,1.000
-9584.093,-7621.709,-45408.408,-39041.010,697.579,-8122.458,18335.632,-2764.633,0.064,0.865,-0.479,3.998,-2.563,5.493,73.333,328.000,1.000
-9540.633,-7565.231,-45174.681,-38861.158,718.146,-8023.662,18210.643,-2771.919,0.063,0.843,-0.475,2.960,-1.923,6.439,73.333,329.000,1.000
-9494.528,-7504.964,-44940.021,-38680.277,739.493,-7920.384,18090.764,-2772.198,0.070,0.839,-0.467,3.510,-1.587,8.820,73.333,330.000,1.000
-9448.080,-7445.676,-44705.440,-38499.348,760.573,-7817.061,17973.266,-2767.628,0.071,0.861,-0.466,4.761,-1.770,9.552,73.333,331.000,1.000
-9403.049,-7392.721,-44471.651,-38319.071,780.679,-7718.806,17853.592,-2762.534,0.078,0.895,-0.472,5.371,-2.106,8.514,73.333,332.000,1.000
-9359.578,-7346.580,-44238.632,-38139.435,799.889,-7627.266,17728.626,-2762.750,0.085,0.906,-0.473,5.066,-2.014,7.843,73.333,333.000,1.000
-9316.593,-7301.769,-44006.015,-37960.091,818.596,-7540.269,17598.411,-2773.622,0.089,0.899,-0.476,4.120,-1.556,7.568,73.333,334.000,1.000
-9272.649,-7250.344,-43773.601,-37780.858,836.966,-7454.226,17465.787,-2796.683,0.088,0.889,-0.478,3.296,-0.732,7.782,73.333,335.000,1.000
-9226.699,-7186.776,-43541.434,-37601.800,854.908,-7366.650,17334.422,-2827.703,0.076,0.882,-0.476,2.808,-0.244,7.843,73.333,336.000,1.000
-9178.579,-7111.604,-43309.527,-37422.942,872.417,-7277.672,17206.672,-2857.775,0.068,0.881,-0.475,2.625,-0.153,8.148,73.333,337.000,1.000
-9129.286,-7032.442,-43077.705,-37244.101,889.726,-7190.222,17082.496,-2877.348,0.062,0.879,-0.470,2.472,-0.305,8.514,73.333,338.000,1.000
-9080.562,-6960.914,-42845.809,-37065.103,907.032,-7108.569,16959.798,-2881.555,0.061,0.877,-0.470,2.289,-0.488,8.728,73.333,339.000,1.000
-9033.795,-6905.809,-42613.912,-36885.986,924.250,-7035.070,16836.084,-2873.432,0.061,0.873,-0.468,2.045,-0.732,8.728,73.333,340.000,1.000
-8989.105,-6867.249,-42382.286,-36706.975,941.073,-6968.071,16710.151,-2862.994,0.059,0.872,-0.466,1.709,-0.977,8.545,73.333,341.000,1.000
-8945.445,-6836.748,-42151.247,-36528.371,957.202,-6903.171,16582.654,-2861.960,0.057,0.878,-0.469,1.282,-1.251,8.209,73.333,342.000,1.000
-8901.757,-6802.882,-41920.961,-36350.376,972.531,-6836.464,16454.879,-2877.101,0.056,0.883,-0.470,0.854,-1.617,7.904,73.333,343.000,1.000
-8857.696,-6757.622,-41691.241,-36172.860,987.277,-6766.741,16326.980,-2906.753,0.056,0.887,-0.473,0.427,-1.984,7.294,73.333,344.000,1.000
-8813.284,-6698.903,-41461.492,-35995.244,1001.994,-6694.554,16198.483,-2941.991,0.064,0.886,-0.472,-0.031,-2.258,6.805,73.333,345.000,1.000
-8768.522,-6630.004,-41231.069,-35816.837,1017.272,-6620.496,16069.924,-2971.829,0.067,0.883,-0.473,-0.580,-2.441,6.409,73.333,346.000,1.000
-8723.588,-6557.683,-40999.748,-35637.361,1033.309,-6544.960,15942.643,-2989.415,0.069,0.883,-0.472,-1.007,-2.655,5.859,73.333,347.000,1.000
-8679.199,-6489.708,-40767.869,-35457.131,1049.782,-6468.541,15817.270,-2995.115,0.071,0.882,-0.472,-1.404,-2.747,5.432,73.333,348.000,1.000
-8636.135,-6431.824,-40536.123,-35276.856,1066.024,-6391.987,15693.292,-2994.998,0.073,0.877,-0.471,-1.801,-2.686,5.188,73.333,349.000,1.000
-8594.430,-6384.932,-40305.091,-35097.168,1081.443,-6315.488,15570.045,-2996.417,0.072,0.875,-0.470,-2.167,-2.686,5.035,73.333,350.000,1.000
-8553.246,-6344.632,-40074.862,-34918.190,1095.932,-6238.544,15447.351,-3004.223,0.074,0.874,-0.470,-2.258,-2.655,4.883,73.333,351.000,1.000
-8511.472,-6303.749,-39845.069,-34739.566,1109.877,-6160.489,15325.404,-3019.200,0.076,0.874,-0.470,-2.472,-2.625,4.669,73.333,352.000,1.000
-8468.638,-6256.226,-39615.289,-34560.871,1123.758,-6081.003,15204.421,-3038.719,0.077,0.872,-0.472,-2.777,-2.502,4.425,73.333,353.000,1.000
-8425.233,-6199.963,-39385.394,-34381.967,1137.751,-6000.773,15084.003,-3059.200,0.078,0.868,-0.470,-2.899,-2.472,4.150,73.333,354.000,1.000
-8382.319,-6137.047,-39155.575,-34203.028,1151.656,-5921.476,14962.792,-3078.415,0.076,0.866,-0.472,-2.899,-2.380,3.815,73.333,355.000,1.000
-8341.012,-6072.153,-38926.181,-34024.401,1165.064,-5844.906,14838.981,-3096.449,0.076,0.864,-0.469,-2.991,-2.289,3.662,73.333,356.000,1.000
-8301.797,-6010.022,-38697.441,-33846.336,1177.689,-5771.820,14711.571,-3114.813,0.076,0.863,-0.469,-3.082,-2.106,3.387,73.333,357.000,1.000
-8264.082,-5953.198,-38469.223,-33668.726,1189.664,-5701.272,14581.514,-3134.480,0.077,0.860,-0.468,-3.174,-1.923,3.174,73.333,358.000,1.000
-8226.430,-5901.335,-38241.130,-33491.161,1201.425,-5631.043,14451.518,-3154.836,0.078,0.860,-0.468,-3.143,-1.770,2.777,73.333,359.000,1.000
-8187.443,-5851.780,-38012.740,-33313.175,1213.420,-5558.635,14324.357,-3174.080,0.077,0.858,-0.467,-2.960,-1.709,2.411,73.333,360.000,1.000
-8146.561,-5800.974,-37783.776,-33134.456,1225.938,-5482.610,14200.949,-3190.620,0.076,0.853,-0.468,-2.930,-1.556,2.197,73.333,361.000,1.000
-8104.243,-5746.091,-37554.233,-32955.002,1238.992,-5403.293,14080.135,-3204.079,0.076,0.851,-0.469,-2.594,-1.526,1.953,73.333,362.000,1.000
-8061.774,-5686.220,-37324.455,-32775.180,1252.249,-5322.236,13960.007,-3215.223,0.078,0.852,-0.464,-2.228,-1.251,1.648,73.333,363.000,1.000
-8020.522,-5622.565,-37094.996,-32595.558,1265.172,-5241.237,13839.256,-3225.463,0.079,0.860,-0.462,-1.892,-1.099,1.434,73.333,364.000,1.000
-7981.178,-5557.573,-36866.224,-32416.498,1277.412,-5161.246,13717.943,-3236.145,0.077,0.872,-0.462,-1.801,-0.916,1.251,73.333,365.000,1.000
-7943.602,-5494.040,-36638.150,-32238.005,1288.960,-5082.276,13596.978,-3248.168,0.079,0.880,-0.461,-1.892,-0.702,1.068,73.333,366.000,1.000
-7906.903,-5434.252,-36410.599,-32059.929,1299.963,-5004.191,13476.806,-3261.733,0.080,0.886,-0.463,-2.136,-0.580,0.885,73.333,367.000,1.000
-7869.866,-5379.228,-36183.358,-31882.106,1310.575,-4927.183,13356.790,-3276.178,0.081,0.887,-0.465,-2.472,-0.366,0.732,73.333,368.000,1.000
-7831.765,-5328.792,-35956.299,-31704.429,1320.882,-4851.796,13235.931,-3290.540,0.080,0.886,-0.463,-2.594,-0.183,0.580,73.333,369.000,1.000
-7792.997,-5281.899,-35729.476,-31526.901,1330.838,-4778.447,13114.121,-3304.173,0.078,0.885,-0.462,-2.777,-0.031,0.549,73.333,370.000,1.000
-7754.722,-5236.636,-35503.099,-31349.641,1340.296,-4707.148,12992.227,-3317.142,0.079,0.886,-0.463,-2.930,0.214,0.519,73.333,371.000,1.000
-7717.663,-5190.134,-35277.293,-31172.709,1349.226,-4637.458,12871.125,-3330.069,0.080,0.886,-0.464,-3.082,0.336,0.427,73.333,372.000,1.000
-7681.584,-5139.567,-35051.847,-30995.909,1357.906,-4568.319,12751.177,-3343.372,0.081,0.886,-0.461,-3.052,0.580,0.488,73.333,373.000,1.000
-7645.580,-5084.103,-34826.295,-30818.853,1366.797,-4498.386,12632.315,-3356.848,0.092,0.892,-0.457,-3.113,0.854,0.549,73.333,374.000,1.000
-7608.524,-5025.473,-34600.208,-30641.214,1376.231,-4426.463,12514.345,-3369.705,0.092,0.895,-0.458,-3.174,1.282,0.610,73.333,375.000,1.000
-7569.446,-4966.517,-34373.460,-30462.925,1386.198,-4351.840,12397.288,-3380.987,0.092,0.887,-0.458,-3.448,1.556,0.336,73.333,376.000,1.000
-7528.102,-4909.261,-34146.310,-30284.223,1396.375,-4274.630,12281.449,-3390.240,0.095,0.876,-0.457,-3.998,2.106,0.153,73.333,377.000,1.000
-7485.665,-4854.442,-33919.237,-30105.516,1406.329,-4196.092,12166.761,-3398.091,0.094,0.868,-0.456,-4.059,2.655,0.549,73.333,378.000,1.000
-7444.221,-4802.282,-33692.663,-29927.166,1415.749,-4118.526,12052.214,-3406.095,0.092,0.863,-0.455,-3.906,3.052,0.885,73.333,379.000,1.000
-7405.325,-4752.838,-33466.734,-29749.292,1424.573,-4044.056,11936.371,-3415.608,0.094,0.862,-0.455,-3.662,3.357,0.946,73.333,380.000,1.000
-7369.215,-4706.011,-33241.416,-29571.862,1432.862,-3973.601,11818.198,-3427.264,0.088,0.856,-0.456,-3.479,3.815,1.038,73.333,381.000,1.000
-7334.929,-4661.430,-33016.647,-29394.818,1440.678,-3906.695,11697.873,-3441.131,0.108,0.855,-0.459,-3.754,4.272,1.617,73.333,382.000,1.000
-7300.873,-4618.323,-32792.237,-29217.991,1448.187,-3841.756,11577.282,-3456.410,0.128,0.860,-0.465,-3.693,5.524,3.082,73.333,383.000,1.000
-7265.356,-4575.738,-32567.732,-29040.968,1455.790,-3776.865,11459.038,-3471.227,0.100,0.868,-0.464,-2.777,6.042,4.028,73.333,384.000,1.000
-7227.290,-4532.244,-32342.578,-28863.227,1463.990,-3710.710,11344.343,-3483.965,0.081,0.878,-0.463,-2.136,6.195,3.235,73.333,385.000,1.000
-7186.962,-4485.017,-32116.596,-28684.583,1472.955,-3643.720,11231.559,-3495.948,0.082,0.868,-0.464,-2.563,6.256,2.502,73.333,386.000,1.000
-7145.962,-4430.290,-31890.245,-28505.484,1482.235,-3577.902,11117.416,-3511.330,0.083,0.852,-0.463,-2.899,6.409,2.411,73.333,387.000,1.000
-7106.447,-4366.476,-31664.330,-28326.742,1491.038,-3514.900,10999.618,-3533.106,0.075,0.844,-0.458,-2.716,6.531,2.228,73.333,388.000,1.000
-7070.141,-4296.572,-31439.539,-28149.047,1498.698,-3454.830,10878.057,-3559.913,0.074,0.849,-0.465,-2.197,6.500,2.167,73.333,389.000,1.000
-7037.309,-4226.560,-31216.100,-27972.587,1505.021,-3396.365,10754.587,-3586.380,0.072,0.859,-0.464,-1.862,6.226,2.258,73.333,390.000,1.000
-7006.350,-4162.544,-30993.679,-27796.971,1510.379,-3337.576,10632.010,-3606.271,0.069,0.862,-0.458,-1.526,6.012,2.655,73.333,391.000,1.000
-6974.674,-4109.016,-30771.573,-27621.474,1515.503,-3277.147,10512.521,-3616.143,0.072,0.865,-0.458,-1.373,5.798,2.991,73.333,392.000,1.000
-6940.661,-4067.420,-30549.127,-27445.471,1521.055,-3215.079,10396.448,-3617.801,0.070,0.865,-0.459,-1.221,5.554,3.326,73.333,393.000,1.000
-6904.665,-4035.057,-30326.147,-27268.804,1527.203,-3152.416,10282.261,-3618.285,0.065,0.863,-0.462,-1.190,5.280,3.418,73.333,394.000,1.000
-6868.223,-4005.466,-30102.892,-27091.752,1533.652,-3089.979,10168.093,-3626.036,0.065,0.861,-0.461,-1.068,4.974,3.540,73.333,395.000,1.000
-6832.518,-3970.897,-29879.725,-26914.676,1540.029,-3027.374,10053.303,-3645.369,0.065,0.864,-0.458,-0.916,4.578,3.815,73.333,396.000,1.000
-6797.528,-3925.411,-29656.774,-26737.697,1546.224,-2963.118,9938.665,-3673.574,0.060,0.871,-0.457,-0.763,4.028,3.662,73.333,397.000,1.000
-6762.823,-3867.119,-29433.960,-26560.737,1552.338,-2895.913,9825.008,-3703.264,0.058,0.878,-0.459,-0.763,3.387,3.571,73.333,398.000,1.000
-6728.669,-3798.989,-29211.294,-26383.825,1558.357,-2826.222,9712.102,-3727.755,0.058,0.885,-0.457,-1.007,2.838,3.387,73.333,399.000,1.000
-6695.844,-3727.707,-28988.940,-26207.144,1564.098,-2756.025,9599.445,-3744.113,0.059,0.889,-0.457,-1.190,2.258,3.357,73.333,400.000,1.000
-6664.611,-3661.289,-28767.014,-26030.801,1569.428,-2687.314,9487.425,-3752.550,0.059,0.893,-0.458,-1.587,1.709,3.571,73.333,401.000,1.000
-6634.113,-3605.778,-28545.409,-25854.672,1574.447,-2620.854,9377.103,-3754.850,0.060,0.893,-0.457,-1.984,1.221,3.693,73.333,402.000,1.000
-6603.006,-3562.052,-28323.844,-25678.473,1579.446,-2556.083,9268.580,-3754.389,0.063,0.891,-0.454,-2.533,0.793,3.906,73.333,403.000,1.000
-6570.567,-3525.335,-28102.135,-25502.036,1584.624,-2492.330,9159.817,-3756.552,0.068,0.888,-0.452,-3.021,0.336,4.150,73.333,404.000,1.000
-6537.086,-3488.105,-27880.338,-25325.428,1589.943,-2429.349,9048.271,-3766.250,0.070,0.885,-0.453,-3.296,-0.061,4.395,73.333,405.000,1.000
-6503.185,-3444.343,-27658.639,-25148.825,1595.210,-2366.610,8933.509,-3784.501,0.071,0.883,-0.455,-3.510,-0.305,4.608,73.333,406.000,1.000
-6468.840,-3391.757,-27437.229,-24972.378,1600.228,-2302.598,8817.811,-3808.029,0.075,0.884,-0.452,-3.723,-0.702,4.761,73.333,407.000,1.000
-6433.556,-3331.493,-27216.238,-24796.180,1604.863,-2235.361,8704.351,-3832.151,0.070,0.884,-0.452,-3.815,-0.885,4.700,73.333,408.000,1.000
-6397.438,-3267.383,-26995.704,-24620.258,1609.091,-2164.754,8593.775,-3854.249,0.071,0.884,-0.449,-4.089,-1.129,4.639,73.333,409.000,1.000
-6361.715,-3204.925,-26775.507,-24444.521,1613.051,-2093.539,8482.809,-3874.583,0.076,0.876,-0.448,-4.395,-1.282,4.700,73.333,410.000,1.000
-6327.851,-3149.218,-26555.441,-24268.806,1616.955,-2025.519,8367.443,-3894.456,0.078,0.868,-0.446,-4.364,-1.434,5.127,73.333,411.000,1.000
-6296.191,-3102.365,-26335.400,-24093.048,1620.900,-1962.833,8247.034,-3914.196,0.078,0.862,-0.449,-4.059,-1.373,5.615,73.333,412.000,1.000
-6265.792,-3062.237,-26115.383,-23917.248,1624.871,-1904.952,8125.057,-3932.660,0.083,0.861,-0.450,-3.662,-1.434,6.073,73.333,413.000,1.000
-6235.179,-3023.673,-25895.329,-23741.331,1628.916,-1849.543,8006.772,-3948.439,0.082,0.861,-0.446,-3.113,-1.526,6.561,73.333,414.000,1.000
-6203.368,-2981.190,-25675.153,-23565.195,1633.126,-1793.920,7895.641,-3961.560,0.083,0.865,-0.442,-2.777,-1.526,6.775,73.333,415.000,1.000
-6170.444,-2931.589,-25455.010,-23388.968,1637.387,-1736.451,7790.732,-3974.220,0.085,0.869,-0.443,-2.533,-1.495,6.958,73.333,416.000,1.000
-6137.088,-2874.808,-25235.258,-23212.973,1641.396,-1676.866,7687.836,-3989.208,0.085,0.873,-0.442,-2.289,-1.617,7.141,73.333,417.000,1.000
-6104.104,-2813.322,-25016.151,-23037.463,1644.927,-1615.534,7582.961,-4007.676,0.089,0.876,-0.446,-2.106,-1.587,7.294,73.333,418.000,1.000
-6072.310,-2751.179,-24797.758,-22862.529,1647.890,-1553.119,7474.596,-4028.727,0.094,0.877,-0.446,-1.953,-1.465,7.477,73.333,419.000,1.000
-6042.150,-2692.464,-24579.972,-22688.076,1650.332,-1490.134,7364.129,-4049.829,0.094,0.878,-0.445,-1.709,-1.282,7.782,73.333,420.000,1.000
-6013.077,-2639.712,-24362.445,-22513.758,1652.532,-1426.347,7254.851,-4067.446,0.092,0.879,-0.444,-1.587,-1.251,7.935,73.333,421.000,1.000
-5983.815,-2593.235,-24144.715,-22339.118,1654.909,-1361.252,7149.261,-4078.987,0.094,0.877,-0.446,-1.495,-1.068,7.904,73.333,422.000,1.000
-5953.758,-2551.533,-23926.583,-22163.966,1657.679,-1295.637,7045.966,-4085.604,0.094,0.872,-0.444,-1.312,-0.977,7.874,73.333,423.000,1.000
-5923.313,-2511.876,-23708.315,-21988.554,1660.660,-1231.941,6940.325,-4092.345,0.095,0.860,-0.442,-1.099,-0.824,7.874,73.333,424.000,1.000
-5892.644,-2470.430,-23490.338,-21813.301,1663.502,-1171.879,6829.401,-4104.109,0.096,0.850,-0.439,-0.702,-0.580,7.874,73.333,425.000,1.000
-5860.835,-2423.173,-23272.805,-21638.402,1666.064,-1114.565,6714.925,-4121.943,0.095,0.844,-0.440,-0.092,-0.427,7.843,73.333,426.000,1.000
-5826.703,-2368.145,-23055.482,-21463.669,1668.533,-1057.423,6601.250,-4143.163,0.095,0.841,-0.440,0.549,-0.305,7.904,73.333,427.000,1.000
-5790.558,-2307.558,-22838.136,-21288.869,1671.104,-998.316,6491.815,-4164.014,0.096,0.845,-0.442,1.129,-0.244,8.118,73.333,428.000,1.000
-5754.709,-2247.450,-22621.020,-21114.214,1673.510,-937.139,6387.241,-4182.195,0.100,0.853,-0.440,1.709,-0.092,8.362,73.333,429.000,1.000
-5722.035,-2194.196,-22404.707,-20940.244,1675.191,-875.419,6285.587,-4197.316,0.103,0.865,-0.442,2.258,0.092,8.514,73.333,430.000,1.000
-5694.014,-2150.522,-22189.468,-20767.228,1675.904,-814.652,6183.814,-4210.279,0.107,0.874,-0.443,2.625,0.275,8.484,73.333,431.000,1.000
-5669.638,-2113.737,-21974.980,-20594.841,1676.008,-754.937,6079.631,-4222.636,0.108,0.878,-0.445,2.899,0.427,8.575,73.333,432.000,1.000
-5646.086,-2077.242,-21760.576,-20422.393,1676.196,-694.835,5972.859,-4235.909,0.110,0.878,-0.447,2.777,0.702,8.514,73.333,433.000,1.000
-5620.545,-2034.421,-21545.741,-20249.352,1676.972,-632.589,5865.390,-4250.972,0.113,0.877,-0.451,2.838,0.946,8.606,73.333,434.000,1.000
-5591.888,-1981.986,-21330.401,-20075.651,1678.372,-567.279,5759.848,-4267.428,0.112,0.877,-0.449,2.930,1.160,8.667,73.333,435.000,1.000
-5561.027,-1921.131,-21114.854,-19901.613,1680.056,-499.594,5657.299,-4283.907,0.109,0.877,-0.453,2.991,1.434,8.545,73.333,436.000,1.000
-5529.652,-1856.460,-20899.524,-19727.696,1681.559,-431.866,5555.965,-4299.059,0.109,0.873,-0.453,2.747,1.556,8.423,73.333,437.000,1.000
-5498.749,-1793.646,-20684.714,-19554.233,1682.566,-366.589,5452.872,-4312.108,0.111,0.867,-0.449,2.594,1.709,8.575,73.333,438.000,1.000
-5468.183,-1737.204,-20470.492,-19381.294,1683.039,-304.579,5346.843,-4323.171,0.109,0.859,-0.452,2.655,1.923,8.942,73.333,439.000,1.000
-5437.477,-1689.038,-20256.762,-19208.741,1683.156,-244.617,5239.440,-4333.340,0.108,0.854,-0.450,2.655,2.106,9.644,73.333,440.000,1.000
-5406.612,-1648.231,-20043.482,-19036.457,1683.060,-185.492,5132.648,-4344.565,0.113,0.851,-0.447,3.082,2.228,10.956,73.333,441.000,1.000
-5375.887,-1611.500,-19830.702,-18864.468,1682.732,-127.867,5026.263,-4359.159,0.107,0.860,-0.449,3.967,1.984,11.658,73.333,442.000,1.000
-5345.599,-1573.678,-19618.418,-18692.820,1682.118,-72.740,4918.204,-4378.998,0.109,0.867,-0.463,4.333,1.770,11.139,73.333,443.000,1.000
-5315.773,-1528.577,-19406.566,-18521.531,1681.168,-18.446,4807.039,-4404.828,0.112,0.865,-0.472,4.181,1.984,10.345,73.333,444.000,1.000
-5286.013,-1470.760,-19195.112,-18350.612,1679.823,39.716,4693.771,-4435.603,0.110,0.858,-0.468,3.540,2.869,9.918,73.333,445.000,1.000
-5255.849,-1398.132,-18984.019,-18180.024,1678.096,106.706,4581.323,-4468.414,0.107,0.856,-0.460,3.510,3.204,9.888,73.333,446.000,1.000
-5225.360,-1313.451,-18773.158,-18009.603,1676.170,185.630,4472.902,-4498.774,0.104,0.864,-0.458,3.754,3.326,10.132,73.333,447.000,1.000
-5195.001,-1223.098,-18562.160,-17838.929,1674.518,278.064,4370.834,-4520.951,0.102,0.871,-0.454,3.906,3.052,10.162,73.333,448.000,1.000
-5164.109,-1133.808,-18350.304,-17667.233,1673.939,384.001,4275.984,-4529.593,0.100,0.876,-0.451,4.242,2.716,9.857,73.333,449.000,1.000
-5130.881,-1050.087,-18136.898,-17493.800,1675.159,499.584,4187.175,-4523.214,0.100,0.883,-0.451,4.547,2.380,9.521,73.333,450.000,1.000
-5094.972,-974.141,-17922.115,-17318.812,1677.998,614.809,4100.709,-4507.657,0.107,0.885,-0.454,4.242,2.045,9.186,73.333,451.000,1.000
-5058.858,-906.082,-17707.253,-17143.589,1681.126,715.787,4011.688,-4494.813,0.104,0.882,-0.459,3.754,2.075,8.942,73.333,452.000,1.000
-5025.902,-843.119,-17493.880,-16969.729,1682.938,791.487,3916.774,-4495.900,0.102,0.876,-0.457,3.448,2.014,8.820,73.333,453.000,1.000
-4997.539,-780.068,-17282.819,-16798.103,1682.567,839.415,3815.657,-4515.012,0.105,0.868,-0.456,3.082,1.801,8.606,73.333,454.000,1.000
-4972.584,-712.015,-17073.882,-16628.569,1680.166,867.260,3710.549,-4547.657,0.106,0.866,-0.456,3.113,1.587,8.331,73.333,455.000,1.000
-4948.655,-636.958,-16866.272,-16460.327,1676.516,890.232,3604.535,-4584.545,0.109,0.865,-0.454,2.960,1.373,8.209,73.333,456.000,1.000
-4923.649,-556.067,-16659.024,-16292.355,1672.592,924.982,3500.238,-4616.931,0.110,0.868,-0.458,2.899,0.977,7.935,73.333,457.000,1.000
-4896.312,-472.204,-16451.314,-16123.758,1669.253,982.507,3399.602,-4639.823,0.116,0.873,-0.468,2.533,0.977,7.660,73.333,458.000,1.000
-4866.202,-388.587,-16242.775,-15954.124,1666.936,1063.404,3303.355,-4652.853,0.116,0.873,-0.471,2.167,1.099,7.355,73.333,459.000,1.000
-4834.024,-307.897,-16033.548,-15783.603,1665.570,1158.990,3209.900,-4659.492,0.118,0.871,-0.469,1.953,1.007,7.324,73.333,460.000,1.000
-4801.862,-231.556,-15824.032,-15612.660,1664.753,1257.617,3116.097,-4664.767,0.120,0.869,-0.464,1.709,1.007,7.324,73.333,461.000,1.000
-4771.886,-158.924,-15614.626,-15441.787,1663.985,1351.475,3020.481,-4671.993,0.121,0.867,-0.461,1.251,0.977,7.324,73.333,462.000,1.000
-4744.934,-87.361,-15405.725,-15271.425,1662.762,1439.653,2924.397,-4681.638,0.119,0.867,-0.461,0.793,0.763,7.477,73.333,463.000,1.000
-4720.689,-13.963,-15197.866,-15102.078,1660.523,1527.329,2828.809,-4693.719,0.117,0.869,-0.462,0.305,0.488,7.812,73.333,464.000,1.000
-4698.480,62.867,-14991.548,-14934.166,1656.831,1624.740,2731.884,-4709.275,0.114,0.868,-0.456,-0.061,0.244,8.026,73.333,465.000,1.000
-4677.262,143.362,-14786.790,-14767.642,1651.757,1746.466,2630.809,-4728.809,0.105,0.872,-0.449,-0.275,-0.427,8.301,73.333,466.000,1.000
-4655.557,227.007,-14583.141,-14602.029,1645.812,1909.480,2524.793,-4750.842,0.108,0.866,-0.449,-0.305,-1.312,8.301,73.333,467.000,1.000
-4632.402,312.597,-14380.246,-14436.982,1639.376,2129.958,2415.808,-4772.701,0.121,0.863,-0.463,-0.580,-1.984,7.965,73.333,468.000,1.000
-4607.734,398.531,-14178.218,-14272.653,1632.326,2419.124,2307.689,-4792.208,0.140,0.856,-0.468,-0.610,-1.831,6.989,73.333,469.000,1.000
-4581.469,484.253,-13977.349,-14109.389,1624.318,2777.834,2205.332,-4808.124,0.140,0.856,-0.465,-0.031,-1.434,5.859,73.333,470.000,1.000
-4552.809,570.758,-13777.642,-13947.217,1615.282,3189.435,2112.652,-4820.266,0.146,0.865,-0.461,0.061,-1.495,4.822,73.333,471.000,1.000
-4520.763,658.871,-13578.644,-13785.671,1605.635,3615.458,2029.605,-4829.949,0.155,0.871,-0.459,-0.397,-1.007,3.693,73.333,472.000,1.000
-4485.350,747.188,-13379.541,-13623.915,1596.203,4001.848,1951.701,-4839.275,0.154,0.880,-0.458,-0.305,0.092,2.625,73.333,473.000,1.000
-4448.035,831.849,-13179.433,-13461.028,1587.927,4297.652,1872.776,-4849.419,0.161,0.887,-0.461,-0.336,1.251,1.465,73.333,474.000,1.000
-4411.283,908.470,-12977.683,-13296.367,1581.479,4477.003,1788.380,-4859.980,0.161,0.892,-0.461,-0.183,2.167,0.427,73.333,475.000,1.000
-4377.657,974.585,-12774.251,-13129.920,1576.922,4547.400,1697.317,-4870.494,0.157,0.898,-0.455,-0.244,2.869,-0.427,73.333,476.000,1.000
-4348.771,1030.936,-12569.769,-12962.357,1573.641,4537.527,1600.837,-4881.985,0.153,0.901,-0.454,-0.397,3.418,-1.190,73.333,477.000,1.000
-4324.895,1080.945,-12365.117,-12794.560,1570.761,4475.447,1500.489,-4896.546,0.148,0.902,-0.456,-0.732,4.028,-1.495,73.333,478.000,1.000
-4304.679,1129.464,-12160.678,-12626.866,1567.875,4373.794,1397.295,-4915.514,0.142,0.898,-0.455,-1.343,4.517,-1.526,73.333,479.000,1.000
-4284.850,1182.429,-11955.792,-12458.568,1565.610,4231.787,1293.556,-4937.468,0.136,0.891,-0.453,-1.801,4.852,-1.312,73.333,480.000,1.000
-4260.998,1246.330,-11749.093,-12288.292,1565.323,4048.764,1193.726,-4958.203,0.131,0.882,-0.450,-2.075,5.280,-1.038,73.333,481.000,1.000
-4229.781,1326.051,-11539.650,-12115.128,1567.964,3835.899,1102.069,-4973.409,0.124,0.873,-0.453,-2.258,5.585,-0.824,73.333,482.000,1.000
-4191.158,1422.431,-11327.862,-11939.508,1573.163,3617.330,1019.741,-4981.758,0.117,0.863,-0.448,-2.380,5.676,-0.488,73.333,483.000,1.000
-4148.543,1531.950,-11115.377,-11763.113,1579.288,3419.573,943.791,-4985.592,0.115,0.845,-0.447,-2.655,5.737,0.366,73.333,484.000,1.000
-4107.182,1648.968,-10904.226,-11587.998,1584.314,3255.836,868.228,-4988.692,0.131,0.860,-0.447,-2.808,5.798,3.326,73.333,485.000,1.000
-4071.777,1769.733,-10695.782,-11415.525,1586.862,3119.657,786.727,-4993.849,0.112,0.882,-0.444,-1.465,6.042,3.998,73.333,486.000,1.000
-4044.011,1897.283,-10490.096,-11245.731,1586.853,3000.440,696.093,-5002.583,0.100,0.899,-0.448,-1.068,5.249,1.862,73.333,487.000,1.000
-4022.095,2042.173,-10286.219,-11077.654,1585.201,2904.629,597.859,-5016.556,0.100,0.893,-0.450,-1.953,4.669,0.061,73.333,488.000,1.000
-4002.452,2214.525,-10083.238,-10910.354,1582.823,2850.528,496.426,-5037.789,0.097,0.878,-0.445,-2.472,4.578,-0.183,73.333,489.000,1.000
-3981.823,2413.233,-9880.796,-10743.442,1580.113,2844.552,396.021,-5066.069,0.094,0.862,-0.438,-2.594,4.089,-0.488,73.333,490.000,1.000
-3958.903,2622.523,-9678.977,-10576.976,1577.029,2872.815,298.781,-5096.906,0.101,0.858,-0.439,-2.411,3.357,-0.977,73.333,491.000,1.000
-3934.592,2818.590,-9478.037,-10411.213,1573.329,2911.519,204.833,-5122.511,0.104,0.863,-0.438,-2.106,2.838,-1.068,73.333,492.000,1.000
-3910.516,2980.718,-9277.987,-10246.194,1568.967,2938.745,114.003,-5135.056,0.109,0.871,-0.438,-1.678,2.197,-1.129,73.333,493.000,1.000
-3887.135,3100.271,-9078.299,-10081.426,1564.414,2942.803,26.953,-5131.186,0.113,0.881,-0.435,-1.373,1.831,-1.190,73.333,494.000,1.000
-3863.856,3182.889,-8878.249,-9916.221,1560.351,2927.044,-55.799,-5115.250,0.116,0.886,-0.439,-1.190,1.190,-1.251,73.333,495.000,1.000
-3840.668,3242.249,-8677.715,-9750.470,1556.915,2905.494,-135.762,-5098.312,0.128,0.889,-0.448,-1.373,1.007,-1.587,73.333,496.000,1.000
-3818.299,3290.888,-8477.402,-9584.862,1553.472,2891.119,-216.234,-5092.161,0.138,0.886,-0.454,-1.587,1.160,-1.801,73.333,497.000,1.000
-3796.598,3335.978,-8278.138,-9420.202,1549.270,2888.136,-299.691,-5102.006,0.143,0.887,-0.454,-1.831,1.678,-2.014,73.333,498.000,1.000
-3773.613,3381.050,-8080.085,-9256.650,1544.171,2894.814,-386.148,-5123.711,0.149,0.893,-0.450,-1.831,2.075,-2.258,73.333,499.000,1.000
-3747.213,3428.516,-7882.754,-9093.729,1538.643,2910.767,-473.898,-5147.501,0.150,0.902,-0.447,-1.923,2.563,-2.411,73.333,500.000,1.000
-3717.473,3479.075,-7685.661,-8930.954,1533.126,2938.005,-561.219,-5164.986,0.153,0.904,-0.448,-2.228,2.930,-2.533,73.333,501.000,1.000
-3686.694,3530.175,-7488.641,-8768.133,1527.741,2975.552,-647.343,-5173.518,0.149,0.907,-0.449,-2.686,3.418,-2.533,73.333,502.000,1.000
-3657.621,3576.634,-7291.621,-8605.159,1522.520,3016.667,-732.230,-5175.331,0.150,0.906,-0.450,-3.143,3.876,-2.655,73.333,503.000,1.000
-3632.082,3613.176,-7094.619,-8442.033,1517.427,3053.027,-816.198,-5174.671,0.149,0.905,-0.452,-3.662,4.242,-2.777,73.333,504.000,1.000
-3610.598,3637.395,-6897.888,-8279.011,1512.249,3081.514,-900.138,-5176.001,0.146,0.898,-0.450,-4.120,4.639,-3.021,73.333,505.000,1.000
-3592.099,3651.302,-6701.685,-8116.366,1506.819,3105.720,-985.087,-5182.803,0.142,0.890,-0.447,-4.517,5.035,-3.174,73.333,506.000,1.000
-3573.944,3660.267,-6505.922,-7954.052,1501.279,3130.737,-1070.562,-5195.506,0.142,0.885,-0.445,-4.639,5.402,-3.571,73.333,507.000,1.000
-3553.514,3669.799,-6310.243,-7791.760,1495.958,3157.652,-1155.027,-5210.952,0.135,0.880,-0.442,-4.791,5.615,-3.967,73.333,508.000,1.000
-3529.823,3682.762,-6114.413,-7629.265,1491.043,3183.394,-1238.685,-5225.473,0.132,0.870,-0.438,-4.761,5.890,-4.547,73.333,509.000,1.000
-3503.378,3699.081,-5918.476,-7466.573,1486.467,3205.202,-1323.373,-5237.688,0.123,0.860,-0.435,-4.883,5.798,-4.913,73.333,510.000,1.000
-3475.329,3716.278,-5722.616,-7303.836,1482.011,3223.559,-1409.840,-5248.452,0.124,0.853,-0.429,-4.517,5.890,-5.249,73.333,511.000,1.000
-3447.160,3729.888,-5526.962,-7141.195,1477.504,3241.239,-1497.019,-5259.433,0.123,0.852,-0.434,-3.906,5.646,-5.829,73.333,512.000,1.000
-3420.596,3735.134,-5331.510,-6978.678,1472.933,3261.933,-1583.109,-5271.564,0.122,0.854,-0.433,-3.174,5.615,-6.836,73.333,513.000,1.000
-3396.989,3729.631,-5136.326,-6816.352,1468.282,3289.466,-1666.387,-5284.122,0.118,0.854,-0.435,-2.747,5.432,-7.690,73.333,514.000,1.000
-3376.872,3714.977,-4941.729,-6654.496,1463.320,3325.770,-1746.139,-5295.227,0.116,0.857,-0.429,-2.411,5.585,-8.301,73.333,515.000,1.000
-3360.165,3695.416,-4748.168,-6493.532,1457.640,3367.955,-1824.068,-5303.968,0.119,0.859,-0.432,-1.953,5.280,-8.453,73.333,516.000,1.000
-3346.372,3674.970,-4555.935,-6333.765,1450.941,3408.626,-1903.886,-5311.665,0.113,0.869,-0.429,-1.465,5.310,-8.698,73.333,517.000,1.000
-3334.435,3656.116,-4364.884,-6175.082,1443.349,3441.085,-1988.163,-5320.278,0.112,0.874,-0.435,-0.793,5.035,-9.064,73.333,518.000,1.000
-3322.444,3640.550,-4174.396,-6016.885,1435.481,3464.181,-2076.016,-5330.239,0.105,0.881,-0.430,-0.488,4.944,-9.369,73.333,519.000,1.000
-3308.509,3629.754,-3983.732,-5858.426,1428.070,3482.148,-2164.500,-5340.707,0.108,0.886,-0.434,-0.153,4.517,-9.613,73.333,520.000,1.000
-3292.169,3624.163,-3792.519,-5699.314,1421.466,3501.000,-2251.529,-5351.597,0.109,0.895,-0.430,-0.061,4.517,-9.888,73.333,521.000,1.000
-3273.793,3623.267,-3600.733,-5539.504,1415.665,3525.904,-2336.325,-5363.611,0.109,0.898,-0.434,0.061,4.333,-10.132,73.333,522.000,1.000
-3253.147,3626.766,-3408.347,-5378.943,1410.699,3559.665,-2418.209,-5376.352,0.104,0.906,-0.429,-0.061,4.303,-10.071,73.333,523.000,1.000
-3229.710,3634.425,-3215.373,-5217.636,1406.573,3600.652,-2496.746,-5388.135,0.105,0.908,-0.431,-0.092,4.120,-10.223,73.333,524.000,1.000
-3203.856,3645.248,-3022.109,-5055.893,1402.987,3643.254,-2572.322,-5397.233,0.101,0.907,-0.427,-0.275,4.089,-10.284,73.333,525.000,1.000
-3177.018,3657.157,-2829.129,-4894.316,1399.356,3681.479,-2646.164,-5403.012,0.104,0.894,-0.431,-0.427,3.998,-10.315,73.333,526.000,1.000
-3150.885,3667.368,-2637.062,-4733.552,1395.059,3712.082,-2720.126,-5406.495,0.104,0.885,-0.438,-0.427,4.059,-10.345,73.333,527.000,1.000
-3126.651,3673.522,-2446.287,-4573.980,1389.749,3736.188,-2795.418,-5409.606,0.110,0.873,-0.437,-0.061,3.998,-10.437,73.333,528.000,1.000
-3104.364,3674.711,-2256.795,-4415.588,1383.466,3759.656,-2871.065,-5413.740,0.112,0.861,-0.437,0.275,3.998,-10.834,73.333,529.000,1.000
-3082.969,3671.381,-2068.277,-4258.073,1376.519,3790.798,-2945.166,-5419.559,0.120,0.847,-0.441,0.671,4.181,-11.169,73.333,530.000,1.000
-3061.246,3664.000,-1880.257,-4100.972,1369.351,3834.664,-3018.446,-5428.084,0.125,0.829,-0.437,1.282,4.486,-10.895,73.333,531.000,1.000
-3038.404,3652.118,-1692.207,-3943.757,1362.447,3888.778,-3094.108,-5440.064,0.132,0.814,-0.440,2.075,5.219,-10.620,73.333,532.000,1.000
-3014.353,3634.388,-1503.777,-3786.072,1356.118,3945.223,-3173.659,-5453.917,0.131,0.805,-0.444,3.326,5.859,-10.040,73.333,533.000,1.000
-2990.139,3608.747,-1315.120,-3628.081,1350.197,3996.227,-3255.607,-5466.253,0.131,0.803,-0.441,4.791,6.470,-9.705,73.333,534.000,1.000
-2967.810,3573.416,-1126.844,-3470.401,1344.095,4038.733,-3337.663,-5474.581,0.123,0.802,-0.442,6.165,6.897,-9.705,73.333,535.000,1.000
-2948.957,3528.817,-939.568,-3313.634,1337.256,4075.692,-3418.024,-5479.168,0.111,0.805,-0.440,7.294,7.385,-9.674,73.333,536.000,1.000
-2933.223,3478.798,-753.517,-3157.966,1329.537,4113.792,-3495.471,-5482.880,0.106,0.808,-0.440,8.301,7.568,-9.674,73.333,537.000,1.000
-2918.779,3429.612,-568.418,-3003.084,1321.270,4159.419,-3569.802,-5489.431,0.104,0.816,-0.442,9.155,7.751,-9.735,73.333,538.000,1.000
-2903.566,3387.374,-383.659,-2848.372,1313.053,4215.512,-3641.639,-5500.704,0.107,0.826,-0.447,10.071,7.721,-9.857,73.333,539.000,1.000
-2886.063,3355.821,-198.530,-2693.162,1305.520,4281.111,-3711.371,-5514.680,0.109,0.839,-0.446,10.803,7.660,-9.888,73.333,540.000,1.000
-2866.267,3334.577,-12.600,-2537.095,1299.022,4352.500,-3779.509,-5526.886,0.114,0.845,-0.450,11.353,7.721,-9.857,73.333,541.000,1.000
-2846.114,3319.069,173.909,-2380.444,1293.319,4425.127,-3847.807,-5534.330,0.115,0.852,-0.450,11.627,7.812,-9.918,73.333,542.000,1.000
-2827.945,3303.427,360.300,-2223.879,1287.757,4496.305,-3918.483,-5537.483,0.115,0.854,-0.450,11.902,7.874,-9.644,73.333,543.000,1.000
-2812.072,3284.356,545.977,-2067.893,1281.801,4566.451,-3992.179,-5539.117,0.116,0.857,-0.448,12.238,7.629,-9.460,73.333,544.000,1.000
-2796.487,3262.595,730.772,-1912.563,1275.314,4637.243,-4067.189,-5542.011,0.123,0.865,-0.453,12.634,7.538,-9.247,73.333,545.000,1.000
-2778.975,3241.046,914.774,-1757.784,1268.378,4707.681,-4140.844,-5547.629,0.131,0.880,-0.469,12.726,7.874,-9.155,73.333,546.000,1.000
-2758.878,3222.312,1098.083,-1603.515,1261.049,4771.830,-4211.630,-5556.033,0.132,0.896,-0.473,12.390,8.820,-8.972,73.333,547.000,1.000
-2737.271,3207.669,1280.791,-1449.749,1253.369,4821.405,-4280.471,-5566.718,0.130,0.900,-0.474,11.688,9.399,-8.514,73.333,548.000,1.000
-2715.768,3197.064,1463.083,-1296.389,1245.481,4851.461,-4350.171,-5579.545,0.126,0.908,-0.470,11.139,9.796,-8.026,73.333,549.000,1.000
-2695.059,3189.712,1645.401,-1143.036,1237.801,4865.051,-4422.669,-5593.947,0.121,0.906,-0.472,10.681,10.132,-7.812,73.333,550.000,1.000
-2674.639,3184.415,1828.371,-989.028,1230.961,4873.030,-4496.839,-5607.875,0.112,0.907,-0.471,9.857,10.132,-7.446,73.333,551.000,1.000
-2653.780,3179.536,2012.323,-833.931,1225.373,4888.386,-4569.610,-5618.889,0.109,0.904,-0.474,9.064,10.040,-7.294,73.333,552.000,1.000
-2632.508,3173.507,2196.963,-677.963,1220.842,4918.247,-4639.376,-5626.469,0.099,0.904,-0.470,8.423,9.766,-7.202,73.333,553.000,1.000
-2611.550,3165.513,2381.539,-521.877,1216.654,4958.728,-4708.113,-5632.851,0.098,0.900,-0.468,7.629,9.613,-7.141,73.333,554.000,1.000
-2591.740,3155.858,2565.287,-366.472,1212.010,4997.694,-4779.440,-5641.080,0.093,0.896,-0.469,6.927,9.094,-6.866,73.333,555.000,1.000
-2573.538,3145.755,2747.770,-212.186,1206.422,5023.601,-4854.792,-5652.494,0.092,0.890,-0.468,6.317,8.820,-6.714,73.333,556.000,1.000
-2556.740,3136.564,2928.955,-59.044,1199.821,5033.080,-4932.026,-5666.021,0.091,0.887,-0.467,5.829,8.240,-6.592,73.333,557.000,1.000
-2540.652,3128.866,3109.162,93.244,1192.509,5032.229,-5007.380,-5679.194,0.096,0.891,-0.464,5.554,7.904,-6.622,73.333,558.000,1.000
-2524.097,3122.329,3288.940,245.152,1185.028,5031.711,-5078.469,-5689.687,0.094,0.897,-0.465,4.913,7.324,-6.683,73.333,559.000,1.000
-2505.456,3116.684,3468.878,397.219,1177.980,5040.194,-5145.584,-5696.376,0.096,0.898,-0.461,4.333,6.927,-6.866,73.333,560.000,1.000
-2483.659,3112.045,3649.281,549.769,1171.710,5060.015,-5211.124,-5700.183,0.092,0.895,-0.460,3.601,6.348,-6.805,73.333,561.000,1.000
-2459.181,3108.380,3829.961,702.682,1166.064,5086.700,-5278.392,-5703.856,0.092,0.887,-0.461,3.052,5.920,-6.927,73.333,562.000,1.000
-2433.721,3105.538,4010.493,855.587,1160.613,5112.423,-5349.652,-5709.800,0.086,0.877,-0.454,2.808,5.463,-6.927,73.333,563.000,1.000
-2408.868,3103.614,4190.631,1008.260,1155.072,5130.691,-5424.065,-5718.032,0.086,0.872,-0.462,2.563,4.883,-6.958,73.333,564.000,1.000
-2385.406,3102.739,4370.463,1160.779,1149.509,5139.311,-5497.693,-5726.065,0.088,0.869,-0.461,2.380,4.333,-6.653,73.333,565.000,1.000
-2363.639,3102.326,4550.130,1313.260,1144.076,5140.649,-5566.380,-5730.657,0.096,0.868,-0.455,2.472,3.845,-6.195,73.333,566.000,1.000
-2343.667,3101.044,4729.471,1465.512,1138.627,5140.243,-5628.938,-5730.037,0.101,0.867,-0.453,2.350,3.326,-5.951,73.333,567.000,1.000
-2325.299,3097.958,4908.082,1617.118,1132.751,5144.705,-5687.838,-5725.116,0.104,0.867,-0.455,2.197,3.082,-5.707,73.333,568.000,1.000
-2307.757,3093.456,5085.634,1767.752,1126.096,5158.682,-5747.278,-5719.315,0.105,0.868,-0.454,1.984,2.960,-5.280,73.333,569.000,1.000
-2289.965,3089.200,5262.044,1917.356,1118.584,5182.945,-5810.024,-5716.559,0.103,0.867,-0.449,2.167,2.777,-4.974,73.333,570.000,1.000
-2271.281,3087.512,5437.538,2066.179,1110.472,5215.479,-5875.501,-5718.589,0.105,0.869,-0.452,2.197,2.625,-4.791,73.333,571.000,1.000
-2251.688,3090.569,5612.577,2214.678,1102.245,5253.798,-5940.804,-5723.862,0.111,0.879,-0.456,1.923,2.380,-4.486,73.333,572.000,1.000
-2231.828,3099.042,5787.463,2363.144,1094.218,5295.254,-6003.509,-5729.152,0.111,0.892,-0.459,1.770,2.380,-4.517,73.333,573.000,1.000
-2212.488,3111.321,5962.071,2511.455,1086.291,5335.720,-6063.334,-5732.300,0.115,0.906,-0.463,1.373,2.563,-4.547,73.333,574.000,1.000
-2193.539,3124.874,6136.213,2659.426,1078.294,5370.191,-6121.303,-5733.162,0.118,0.908,-0.463,0.549,2.716,-4.272,73.333,575.000,1.000
-2174.051,3137.588,6310.033,2807.185,1070.360,5394.805,-6179.112,-5733.215,0.118,0.908,-0.460,-0.275,2.808,-3.876,73.333,576.000,1.000
-2153.553,3147.656,6483.916,2955.085,1062.822,5408.747,-6239.615,-5734.889,0.120,0.909,-0.461,-0.946,3.021,-3.815,73.333,577.000,1.000
-2132.644,3153.862,6658.198,3103.451,1055.962,5416.324,-6305.594,-5740.037,0.118,0.906,-0.460,-1.434,3.357,-4.150,73.333,578.000,1.000
-2112.228,3156.778,6832.940,3252.364,1049.810,5427.006,-6376.981,-5748.635,0.117,0.897,-0.458,-1.953,3.540,-4.669,73.333,579.000,1.000
-2092.647,3159.332,7007.894,3401.577,1044.098,5451.997,-6449.742,-5758.698,0.117,0.887,-0.456,-2.380,3.693,-5.157,73.333,580.000,1.000
-2073.643,3165.452,7182.629,3550.633,1038.398,5498.699,-6518.478,-5767.340,0.115,0.878,-0.450,-2.533,3.876,-5.493,73.333,581.000,1.000
-2054.876,3177.700,7356.683,3699.050,1032.303,5566.758,-6581.249,-5772.960,0.116,0.873,-0.450,-2.655,3.815,-5.981,73.333,582.000,1.000
-2036.377,3195.624,7529.756,3846.549,1025.590,5649.032,-6641.254,-5776.723,0.116,0.872,-0.447,-2.533,3.906,-6.531,73.333,583.000,1.000
-2018.272,3215.575,7701.869,3993.216,1018.328,5736.181,-6703.020,-5781.048,0.108,0.866,-0.449,-2.197,3.845,-7.355,73.333,584.000,1.000
-2000.384,3232.673,7873.291,4139.364,1010.766,5821.861,-6768.094,-5786.830,0.108,0.861,-0.452,-2.197,3.876,-8.972,73.333,585.000,1.000
-1982.211,3244.088,8044.241,4285.190,1003.062,5905.145,-6834.510,-5792.924,0.118,0.850,-0.450,-2.167,3.937,-10.193,73.333,586.000,1.000
-1962.925,3250.674,8214.748,4430.656,995.190,5987.635,-6898.438,-5797.190,0.124,0.843,-0.448,-1.678,4.181,-10.742,73.333,587.000,1.000
-1941.989,3255.124,8384.758,4575.671,987.101,6068.649,-6956.617,-5797.464,0.130,0.841,-0.446,-0.977,4.547,-11.261,73.333,588.000,1.000
-1920.013,3259.012,8554.245,4720.222,978.819,6144.791,-7009.154,-5792.931,0.136,0.840,-0.445,-0.397,5.066,-11.597,73.333,589.000,1.000
-1898.558,3262.237,8723.292,4864.427,970.476,6214.689,-7059.864,-5784.875,0.148,0.834,-0.449,0.092,5.737,-11.932,73.333,590.000,1.000
-1878.732,3264.196,8892.138,5008.552,962.324,6283.038,-7113.163,-5775.846,0.160,0.836,-0.452,0.702,6.805,-11.932,73.333,591.000,1.000
-1860.231,3264.532,9060.966,5152.807,954.523,6360.081,-7170.690,-5768.178,0.168,0.841,-0.453,1.617,7.904,-11.932,73.333,592.000,1.000
-1842.224,3263.128,9229.593,5297.029,946.852,6457.309,-7231.069,-5763.330,0.171,0.848,-0.456,2.289,8.911,-12.207,73.333,593.000,1.000
-1824.242,3260.107,9397.550,5440.731,938.797,6581.072,-7292.347,-5762.187,0.178,0.848,-0.462,2.594,10.162,-12.787,73.333,594.000,1.000
-1805.867,3256.397,9564.568,5583.604,930.083,6726.909,-7353.796,-5764.853,0.182,0.847,-0.462,2.930,11.566,-13.123,73.333,595.000,1.000
-1786.589,3253.896,9730.829,5725.803,920.933,6878.187,-7415.486,-5770.110,0.185,0.844,-0.466,3.448,12.939,-13.489,73.333,596.000,1.000
-1766.073,3255.137,9896.767,5867.749,911.842,7012.067,-7476.377,-5775.198,0.186,0.847,-0.468,4.028,14.374,-13.855,73.333,597.000,1.000
-1744.533,3262.434,10062.772,6009.818,903.245,7109.513,-7533.786,-5776.737,0.186,0.849,-0.469,4.730,15.839,-14.069,73.333,598.000,1.000
-1723.194,3275.653,10228.895,6152.074,895.201,7160.331,-7586.355,-5773.564,0.184,0.858,-0.474,5.310,17.212,-14.038,73.333,599.000,1.000
-1704.084,3290.693,10394.865,6294.292,887.396,7162.098,-7636.819,-5768.480,0.174,0.867,-0.475,5.615,18.585,-14.038,73.333,600.000,1.000
-1688.485,3301.381,10560.543,6436.380,879.625,7118.817,-7690.347,-5766.406,0.164,0.878,-0.478,5.280,19.897,-14.221,73.333,601.000,1.000
-1675.325,3303.712,10726.262,6578.665,872.180,7041.479,-7750.041,-5770.851,0.155,0.875,-0.476,4.761,21.149,-14.496,73.333,602.000,1.000
-1661.584,3298.912,10892.606,6721.679,865.652,6947.259,-7813.873,-5781.520,0.144,0.872,-0.472,4.395,21.942,-14.648,73.333,603.000,1.000
-1644.240,3292.818,11059.861,6865.659,860.367,6854.445,-7875.713,-5794.263,0.136,0.871,-0.469,4.181,22.644,-14.923,73.333,604.000,1.000
-1622.317,3292.038,11227.667,7010.215,855.994,6775.636,-7930.776,-5803.999,0.123,0.869,-0.464,3.967,23.010,-15.137,73.333,605.000,1.000
-1597.677,3299.661,11395.144,7154.474,851.638,6714.278,-7981.034,-5809.472,0.118,0.871,-0.461,3.540,23.193,-15.289,73.333,606.000,1.000
-1573.387,3314.322,11561.500,7297.684,846.470,6667.640,-8033.264,-5813.999,0.105,0.873,-0.462,3.174,23.010,-15.808,73.333,607.000,1.000
-1551.407,3332.728,11726.559,7439.729,840.300,6633.779,-8091.860,-5820.905,0.095,0.875,-0.466,2.625,22.675,-17.273,73.333,608.000,1.000
-1531.844,3352.140,11890.619,7580.952,833.475,6615.585,-8155.656,-5830.270,0.098,0.875,-0.469,1.984,22.461,-18.585,73.333,609.000,1.000
-1513.667,3371.123,12054.055,7721.720,826.441,6618.516,-8220.096,-5839.440,0.102,0.879,-0.470,1.740,22.278,-19.196,73.333,610.000,1.000
-1495.798,3388.681,12217.129,7862.240,819.499,6644.368,-8280.602,-5845.003,0.099,0.887,-0.473,1.617,22.064,-19.440,73.333,611.000,1.000
-1477.563,3403.605,12380.061,8002.682,812.844,6687.400,-8334.462,-5844.226,0.100,0.894,-0.471,1.373,21.667,-19.592,73.333,612.000,1.000
-1458.303,3415.666,12543.244,8143.422,806.793,6736.694,-8379.929,-5834.772,0.103,0.906,-0.465,0.885,21.301,-19.745,73.333,613.000,1.000
-1437.063,3426.507,12707.108,8284.897,801.700,6782.042,-8415.728,-5815.045,0.096,0.918,-0.455,0.000,20.874,-20.172,73.333,614.000,1.000
-1413.865,3438.254,12871.528,8427.000,797.419,6820.046,-8445.435,-5788.436,0.104,0.913,-0.456,-1.617,20.447,-21.362,73.333,615.000,1.000
-1390.825,3451.876,13035.580,8568.816,793.072,6857.209,-8480.149,-5766.420,0.115,0.892,-0.454,-3.510,20.233,-21.729,73.333,616.000,1.000
-1370.303,3468.022,13198.225,8709.286,787.680,6906.682,-8530.611,-5761.754,0.109,0.856,-0.457,-4.456,20.386,-21.393,73.333,617.000,1.000
-1352.472,3488.365,13359.129,8848.033,780.935,6980.563,-8597.885,-5777.653,0.111,0.824,-0.463,-4.517,20.172,-21.393,73.333,618.000,1.000
-1335.357,3514.567,13518.634,8985.417,773.183,7084.112,-8673.936,-5805.500,0.118,0.797,-0.462,-3.815,19.714,-21.667,73.333,619.000,1.000
-1316.430,3546.450,13677.343,9122.134,765.042,7214.654,-8747.148,-5830.330,0.119,0.784,-0.457,-2.228,19.562,-22.583,73.333,620.000,1.000
-1294.089,3581.183,13835.794,9258.830,757.086,7362.014,-8807.134,-5838.421,0.126,0.781,-0.455,-0.488,19.653,-23.834,73.333,621.000,1.000
-1268.424,3614.216,13994.216,9395.761,749.551,7509.816,-8849.820,-5824.853,0.138,0.785,-0.456,0.763,19.867,-24.689,73.333,622.000,1.000
-1241.239,3641.774,14152.467,9532.709,742.240,7639.006,-8880.873,-5797.304,0.143,0.797,-0.458,1.831,20.355,-25.116,73.333,623.000,1.000
-1215.139,3662.707,14310.221,9669.237,734.741,7731.990,-8912.667,-5771.707,0.141,0.816,-0.466,2.869,20.935,-25.482,73.333,624.000,1.000
-1192.233,3678.452,14467.332,9805.130,726.840,7777.463,-8954.650,-5760.805,0.124,0.838,-0.469,3.662,21.484,-25.818,73.333,625.000,1.000
-1173.174,3691.494,14624.015,9940.590,718.745,7775.182,-9005.876,-5765.303,0.116,0.856,-0.472,3.876,21.729,-26.154,73.333,626.000,1.000
-1156.863,3703.573,14780.597,10075.984,710.847,7735.675,-9058.468,-5776.198,0.111,0.869,-0.471,3.601,21.942,-25.604,73.333,627.000,1.000
-1141.395,3714.794,14937.158,10211.443,703.316,7672.889,-9106.858,-5783.982,0.103,0.873,-0.470,3.021,21.942,-24.536,73.333,628.000,1.000
-1125.462,3724.002,15093.506,10346.806,696.029,7596.441,-9151.393,-5784.525,0.101,0.872,-0.478,2.136,22.186,-23.346,73.333,629.000,1.000
-1109.241,3729.982,15249.405,10481.822,688.761,7511.065,-9196.748,-5780.134,0.092,0.865,-0.484,1.282,22.461,-22.125,73.333,630.000,1.000
-1094.117,3732.271,15404.704,10616.287,681.336,7422.002,-9249.082,-5777.988,0.081,0.853,-0.487,0.824,22.369,-20.935,73.333,631.000,1.000
-1080.944,3731.716,15559.447,10750.212,673.757,7341.313,-9310.532,-5784.079,0.075,0.840,-0.484,0.671,22.034,-20.111,73.333,632.000,1.000
-1069.168,3730.701,15713.902,10883.885,666.251,7289.789,-9376.637,-5797.935,0.072,0.829,-0.485,0.580,21.637,-19.745,73.333,633.000,1.000
-1057.614,3732.472,15868.253,11017.557,658.970,7289.579,-9441.161,-5815.036,0.070,0.828,-0.484,0.732,21.118,-19.409,73.333,634.000,1.000
-1044.930,3740.563,16022.417,11151.193,651.820,7350.752,-9500.221,-5830.947,0.070,0.834,-0.486,1.373,20.538,-19.531,73.333,635.000,1.000
-1029.805,3757.545,16176.100,11284.483,644.507,7459.900,-9551.898,-5841.997,0.062,0.852,-0.486,2.472,20.660,-19.958,73.333,636.000,1.000
-1012.065,3782.961,16328.837,11416.931,636.568,7579.315,-9596.426,-5846.186,0.053,0.882,-0.485,3.052,20.355,-19.836,73.333,637.000,1.000
-993.327,3813.274,16480.335,11548.247,627.743,7663.287,-9637.372,-5845.229,0.029,0.908,-0.476,2.930,19.409,-20.081,73.333,638.000,1.000
-975.626,3844.424,16630.994,11678.859,618.487,7684.470,-9679.418,-5843.499,0.019,0.921,-0.477,1.801,18.311,-21.515,73.333,639.000,1.000
-959.647,3873.993,16781.813,11809.793,609.848,7648.767,-9723.418,-5843.073,0.023,0.921,-0.477,0.031,17.029,-22.034,73.333,640.000,1.000
-944.514,3900.432,16933.497,11941.715,602.532,7584.219,-9765.975,-5841.590,0.021,0.919,-0.471,-1.251,15.839,-21.149,73.333,641.000,1.000
-928.885,3921.433,17085.754,12074.238,596.222,7516.692,-9805.170,-5836.255,0.017,0.927,-0.473,-2.167,14.709,-20.660,73.333,642.000,1.000
-912.995,3934.325,17237.691,12206.399,589.994,7456.279,-9844.545,-5828.105,0.006,0.924,-0.471,-3.418,13.824,-21.057,73.333,643.000,1.000
-899.237,3938.345,17388.758,12337.679,583.257,7399.834,-9890.072,-5821.665,0.000,0.911,-0.470,-4.761,12.573,-21.301,73.333,644.000,1.000
-889.328,3937.315,17539.210,12468.436,576.237,7340.259,-9943.911,-5821.226,-0.002,0.896,-0.463,-5.493,11.261,-21.393,73.333,645.000,1.000
-881.934,3939.175,17689.840,12599.502,569.701,7274.373,-10002.198,-5827.840,0.000,0.892,-0.458,-5.859,10.223,-21.149,73.333,646.000,1.000
-874.155,3951.043,17841.330,12731.478,564.319,7206.651,-10058.500,-5839.247,0.002,0.900,-0.456,-6.073,8.911,-20.966,73.333,647.000,1.000
-864.054,3974.109,17993.702,12864.313,560.145,7147.265,-10108.561,-5851.777,0.000,0.899,-0.452,-6.256,7.568,-20.752,73.333,648.000,1.000
-850.880,4002.357,18146.240,12997.345,556.522,7103.311,-10152.429,-5862.319,0.006,0.901,-0.447,-6.622,5.829,-19.867,73.333,649.000,1.000
-834.553,4025.520,18297.970,13129.711,552.524,7070.376,-10193.071,-5868.778,0.016,0.904,-0.461,-7.202,4.822,-18.890,73.333,650.000,1.000
-816.029,4034.708,18448.244,13260.764,547.513,7034.557,-10233.402,-5869.766,0.016,0.905,-0.461,-7.172,4.883,-17.670,73.333,651.000,1.000
-796.860,4028.378,18597.035,13390.358,541.445,6984.890,-10274.260,-5864.847,0.021,0.906,-0.452,-7.141,4.242,-16.327,73.333,652.000,1.000
-778.075,4014.326,18744.834,13518.890,534.774,6923.284,-10314.837,-5855.575,0.025,0.902,-0.446,-7.355,3.601,-14.893,73.333,653.000,1.000
-759.950,4005.027,18892.059,13646.845,527.895,6860.617,-10354.930,-5846.290,0.027,0.895,-0.447,-7.629,3.296,-13.580,73.333,654.000,1.000
-742.451,4010.844,19038.670,13774.313,520.779,6807.327,-10395.088,-5841.633,0.032,0.885,-0.446,-7.935,2.930,-12.054,73.333,655.000,1.000
-725.431,4036.165,19184.542,13901.130,513.347,6771.858,-10435.039,-5842.762,0.029,0.873,-0.442,-8.118,2.533,-10.559,73.333,656.000,1.000
-708.608,4079.279,19329.861,14027.221,505.807,6763.701,-10475.448,-5848.513,0.032,0.858,-0.441,-8.392,2.045,-9.186,73.333,657.000,1.000
-691.917,4134.928,19474.838,14152.640,498.342,6792.252,-10519.923,-5859.144,0.043,0.841,-0.446,-8.545,1.465,-8.148,73.333,658.000,1.000
-675.783,4196.956,19619.375,14277.502,490.795,6862.277,-10571.483,-5875.484,0.052,0.825,-0.448,-7.935,1.190,-7.568,73.333,659.000,1.000
-660.912,4259.465,19763.309,14401.883,482.989,6971.263,-10628.310,-5895.309,0.061,0.823,-0.449,-6.866,1.099,-7.294,73.333,660.000,1.000
-647.579,4317.394,19906.779,14525.389,475.089,7109.283,-10684.482,-5913.335,0.068,0.839,-0.448,-5.646,1.099,-7.324,73.333,661.000,1.000
-634.906,4367.485,20050.175,14647.159,467.507,7259.383,-10733.715,-5924.489,0.074,0.862,-0.448,-4.974,1.068,-7.690,73.333,662.000,1.000
-621.315,4408.556,20193.784,14767.099,460.519,7398.782,-10773.635,-5927.119,0.081,0.878,-0.454,-4.639,1.099,-7.904,73.333,663.000,1.000
-605.638,4440.405,20337.495,14886.634,453.986,7503.788,-10807.827,-5924.277,0.084,0.881,-0.453,-4.486,1.129,-8.118,73.333,664.000,1.000
-587.567,4463.592,20480.864,15006.045,447.490,7559.632,-10842.924,-5921.487,0.094,0.877,-0.458,-4.608,1.099,-8.392,73.333,665.000,1.000
-567.381,4480.618,20623.244,15119.092,440.585,7567.845,-10883.558,-5922.853,0.098,0.882,-0.461,-4.547,1.251,-8.545,73.333,666.000,1.000
-545.869,4495.782,20763.793,15213.812,432.804,7542.916,-10929.580,-5928.635,0.109,0.897,-0.470,-4.486,1.617,-9.003,73.333,667.000,1.000
-524.886,4512.716,20901.931,15285.696,423.707,7501.273,-10976.856,-5935.720,0.110,0.911,-0.476,-4.669,2.838,-9.827,73.333,668.000,1.000
-506.653,4532.620,21038.018,15348.404,413.197,7453.396,-11020.715,-5940.793,0.101,0.916,-0.471,-5.249,3.937,-11.230,73.333,669.000,1.000
-491.711,4555.798,21173.291,15421.474,401.839,7405.408,-11059.125,-5943.101,0.113,0.908,-0.468,-6.073,4.639,-12.177,73.333,670.000,1.000
-478.200,4583.131,21309.011,15505.511,390.770,7363.338,-11093.577,-5944.326,0.118,0.898,-0.465,-6.500,5.707,-11.841,73.333,671.000,1.000
-463.376,4614.082,21445.832,15579.352,381.177,7331.792,-11127.285,-5945.834,0.122,0.897,-0.464,-6.439,6.592,-11.108,73.333,672.000,1.000
-445.744,4644.136,21583.802,15626.413,373.664,7310.268,-11162.336,-5946.292,0.124,0.903,-0.465,-6.470,7.507,-10.498,73.333,673.000,1.000
-425.648,4666.006,21722.526,15655.722,367.921,7292.971,-11198.944,-5943.136,0.113,0.907,-0.459,-6.683,8.392,-10.315,73.333,674.000,1.000
-404.336,4674.949,21861.441,15690.777,363.007,7273.244,-11236.685,-5936.210,0.103,0.912,-0.456,-7.233,9.186,-11.261,73.333,675.000,1.000
-383.053,4673.403,22000.114,15742.253,357.902,7248.901,-11275.394,-5929.392,0.102,0.911,-0.457,-8.026,9.888,-11.597,73.333,676.000,1.000
-362.526,4670.499,22138.282,15799.669,351.879,7223.629,-11314.572,-5927.850,0.100,0.908,-0.455,-8.453,10.834,-11.414,73.333,677.000,1.000
-342.621,4676.849,22275.864,15849.793,344.810,7203.677,-11352.250,-5932.772,0.092,0.914,-0.452,-8.789,11.322,-11.017,73.333,678.000,1.000
-322.499,4697.876,22412.884,15894.030,337.129,7192.611,-11386.167,-5939.641,0.083,0.923,-0.447,-9.430,11.627,-11.108,73.333,679.000,1.000
-301.731,4730.327,22549.331,15942.990,329.346,7188.552,-11417.094,-5942.483,0.069,0.927,-0.450,-10.437,11.932,-11.688,73.333,680.000,1.000
-281.050,4764.886,22685.252,15999.595,321.711,7186.323,-11449.566,-5939.067,0.068,0.919,-0.453,-11.444,12.115,-12.512,73.333,681.000,1.000
-261.203,4793.148,22820.982,16055.161,314.363,7182.278,-11487.593,-5931.200,0.067,0.908,-0.451,-12.115,12.268,-13.000,73.333,682.000,1.000
-241.838,4812.806,22956.986,16101.649,307.533,7176.660,-11530.573,-5921.689,0.066,0.896,-0.449,-12.207,12.268,-13.275,73.333,683.000,1.000
-222.402,4826.636,23093.256,16141.024,301.259,7170.720,-11574.753,-5913.238,0.063,0.897,-0.440,-12.299,12.299,-13.397,73.333,684.000,1.000
-203.538,4838.566,23229.090,16181.110,295.076,7163.385,-11617.148,-5908.382,0.058,0.898,-0.437,-12.390,12.054,-13.916,73.333,685.000,1.000
-186.622,4851.434,23363.657,16226.394,288.230,7152.059,-11657.113,-5908.283,0.055,0.902,-0.430,-12.604,11.993,-15.015,73.333,686.000,1.000
-171.952,4866.642,23496.627,16275.449,280.216,7135.672,-11695.348,-5911.957,0.051,0.903,-0.434,-12.695,11.841,-16.022,73.333,687.000,1.000
-158.227,4884.391,23628.325,16325.543,271.192,7115.630,-11732.295,-5917.026,0.055,0.902,-0.437,-12.939,11.841,-16.693,73.333,688.000,1.000
-143.746,4903.642,23759.448,16376.035,261.928,7093.236,-11767.815,-5921.349,0.052,0.903,-0.435,-13.092,11.749,-16.693,73.333,689.000,1.000
-127.771,4922.173,23890.639,16427.488,253.257,7067.858,-11802.016,-5923.870,0.054,0.898,-0.429,-13.123,11.658,-16.632,73.333,690.000,1.000
-110.723,4937.134,24022.123,16479.693,245.433,7038.662,-11835.875,-5924.289,0.051,0.894,-0.426,-13.214,11.444,-16.876,73.333,691.000,1.000
-93.225,4946.282,24153.671,16531.409,238.044,7007.339,-11870.733,-5922.495,0.049,0.890,-0.424,-13.184,11.261,-17.334,73.333,692.000,1.000
-75.672,4949.551,24284.828,16581.486,230.462,6978.410,-11907.058,-5918.618,0.048,0.889,-0.422,-13.184,11.169,-17.792,73.333,693.000,1.000
-58.493,4949.741,24415.109,16629.294,222.235,6956.478,-11943.870,-5913.603,0.047,0.889,-0.420,-13.000,11.139,-17.731,73.333,694.000,1.000
-42.079,4951.938,24544.297,16675.623,213.325,6944.118,-11979.273,-5908.658,0.048,0.894,-0.416,-12.878,10.986,-17.639,73.333,695.000,1.000
-26.479,4961.233,24672.685,16723.779,204.160,6942.130,-12012.089,-5904.287,0.049,0.897,-0.414,-12.695,11.047,-17.578,73.333,696.000,1.000
-11.217,4979.931,24800.841,16777.950,195.303,6950.185,-12043.045,-5900.288,0.038,0.901,-0.413,-12.726,11.200,-17.578,73.333,697.000,1.000
4.446,5006.740,24929.196,16839.341,187.105,6967.305,-12073.766,-5895.849,0.031,0.904,-0.405,-12.665,11.078,-17.395,73.333,698.000,1.000
21.012,5037.667,25057.860,16904.009,179.621,6991.927,-12105.327,-5890.017,0.023,0.904,-0.399,-12.482,10.681,-17.120,73.333,699.000,1.000
38.321,5067.494,25186.635,16966.071,172.666,7021.568,-12138.025,-5882.634,0.024,0.903,-0.396,-12.268,10.162,-16.968,73.333,700.000,1.000
55.688,5091.731,25315.171,17023.553,165.900,7052.668,-12171.638,-5874.658,0.025,0.898,-0.395,-11.932,9.491,-16.876,73.333,701.000,1.000
72.898,5108.971,25443.216,17079.893,159.024,7081.627,-12205.330,-5867.330,0.030,0.893,-0.388,-11.505,8.972,-16.724,73.333,702.000,1.000
90.440,5121.673,25570.668,17138.444,151.863,7106.600,-12237.843,-5861.218,0.032,0.887,-0.395,-10.925,8.484,-16.571,73.333,703.000,1.000
108.575,5134.028,25697.327,17196.401,144.199,7127.820,-12268.125,-5856.024,0.040,0.884,-0.392,-10.406,8.240,-16.388,73.333,704.000,1.000
126.999,5149.669,25822.932,17247.775,135.816,7146.952,-12295.291,-5850.346,0.048,0.884,-0.394,-10.101,8.209,-16.327,73.333,705.000,1.000
145.338,5170.748,25947.449,17291.615,126.727,7165.986,-12319.852,-5843.023,0.049,0.884,-0.394,-9.857,8.514,-16.479,73.333,706.000,1.000
163.560,5197.473,26071.192,17333.517,117.259,7186.378,-12345.573,-5835.608,0.049,0.883,-0.396,-9.583,8.942,-16.632,73.333,707.000,1.000
181.869,5228.266,26194.739,17378.976,108.008,7210.281,-12377.046,-5831.287,0.045,0.879,-0.393,-9.003,9.399,-16.876,73.333,708.000,1.000
200.495,5260.481,26318.699,17427.332,99.618,7241.935,-12415.255,-5831.347,0.035,0.880,-0.388,-8.087,9.491,-17.181,73.333,709.000,1.000
219.586,5291.457,26443.493,17474.598,92.549,7286.440,-12456.963,-5834.022,0.031,0.883,-0.385,-7.111,8.698,-17.578,73.333,710.000,1.000
239.222,5319.149,26569.178,17521.545,86.855,7345.416,-12497.299,-5836.047,0.034,0.885,-0.390,-6.531,8.179,-17.975,73.333,711.000,1.000
259.336,5342.089,26695.243,17575.221,81.984,7412.375,-12532.262,-5834.297,0.039,0.886,-0.400,-6.073,8.087,-18.219,73.333,712.000,1.000
279.058,5359.274,26820.642,17640.687,76.850,7473.515,-12560.357,-5826.922,0.044,0.887,-0.407,-5.524,8.331,-18.494,73.333,713.000,1.000
296.623,5370.395,26944.257,17713.516,70.319,7514.993,-12583.318,-5814.723,0.042,0.888,-0.404,-4.913,8.728,-18.799,73.333,714.000,1.000
310.604,5376.767,27065.591,17783.982,61.905,7531.027,-12604.881,-5801.051,0.045,0.890,-0.405,-4.364,9.003,-19.012,73.333,715.000,1.000
321.286,5381.692,27185.083,17847.567,52.061,7526.316,-12628.213,-5789.519,0.041,0.895,-0.395,-3.815,9.644,-19.196,73.333,716.000,1.000
330.893,5389.015,27303.875,17908.174,41.942,7512.927,-12653.869,-5781.406,0.035,0.900,-0.392,-3.326,9.918,-19.012,73.333,717.000,1.000
342.315,5400.967,27423.422,17971.112,33.005,7505.842,-12679.716,-5774.875,0.037,0.898,-0.390,-3.235,9.674,-19.226,73.333,718.000,1.000
357.493,5416.968,27544.838,18035.461,26.380,7516.560,-12703.153,-5766.854,0.044,0.896,-0.393,-3.052,9.644,-19.531,73.333,719.000,1.000
376.276,5434.394,27668.097,18095.843,22.037,7544.652,-12723.568,-5755.599,0.048,0.892,-0.398,-2.686,9.796,-19.684,73.333,720.000,1.000
396.248,5450.450,27791.898,18150.341,18.644,7573.856,-12742.711,-5742.004,0.049,0.884,-0.403,-2.258,10.376,-19.897,73.333,721.000,1.000
414.216,5463.898,27914.586,18203.086,14.529,7579.107,-12762.894,-5729.094,0.044,0.876,-0.405,-1.831,10.803,-20.203,73.333,722.000,1.000
428.222,5475.921,28035.322,18258.208,8.862,7540.512,-12785.360,-5720.302,0.048,0.875,-0.400,-1.404,11.017,-20.233,73.333,723.000,1.000
438.841,5489.410,28154.458,18314.006,2.001,7453.370,-12810.007,-5717.436,0.050,0.874,-0.404,-0.946,11.414,-20.203,73.333,724.000,1.000
448.783,5507.085,28273.096,18366.196,-4.974,7328.958,-12835.358,-5718.831,0.049,0.873,-0.402,-0.580,11.841,-20.142,73.333,725.000,1.000
460.321,5528.827,28392.181,18414.649,-11.126,7186.625,-12860.170,-5720.643,0.050,0.875,-0.409,-0.031,11.902,-20.355,73.333,726.000,1.000
472.968,5550.350,28511.699,18463.683,-16.439,7041.081,-12885.988,-5721.032,0.045,0.875,-0.413,0.519,12.085,-20.630,73.333,727.000,1.000
483.974,5565.875,28630.815,18516.470,-21.711,6892.201,-12915.996,-5721.475,0.039,0.877,-0.419,1.160,12.390,-21.057,73.333,728.000,1.000
491.066,5572.610,28748.833,18571.315,-27.620,6723.519,-12951.116,-5724.383,0.031,0.882,-0.427,1.526,12.756,-21.240,73.333,729.000,1.000
494.529,5573.025,28866.050,18625.792,-33.887,6511.622,-12988.288,-5730.876,0.024,0.885,-0.425,1.648,13.062,-21.179,73.333,730.000,1.000
497.053,5573.325,28983.755,18683.320,-39.256,6241.142,-13022.199,-5740.362,0.017,0.889,-0.424,1.770,13.031,-21.027,73.333,731.000,1.000
502.278,5579.697,29103.497,18751.864,-42.210,5915.193,-13048.319,-5750.748,0.017,0.891,-0.422,1.892,12.665,-21.088,73.333,732.000,1.000
512.738,5594.655,29226.107,18834.703,-41.951,5553.385,-13065.575,-5759.107,0.017,0.896,-0.424,1.587,12.360,-21.301,73.333,733.000,1.000
528.339,5615.210,29350.905,18923.886,-39.178,5177.094,-13077.601,-5763.701,0.009,0.896,-0.422,1.282,11.810,-21.515,73.333,734.000,1.000
546.761,5634.966,29475.955,19006.075,-35.804,4792.753,-13090.698,-5765.180,0.007,0.904,-0.419,0.916,11.047,-21.576,73.333,735.000,1.000
565.233,5648.719,29599.461,19075.018,-33.542,4386.579,-13109.662,-5765.677,0.002,0.913,-0.418,0.671,10.651,-20.660,73.333,736.000,1.000
582.089,5655.755,29720.991,19135.784,-32.739,3939.431,-13135.001,-5767.281,-0.003,0.927,-0.422,0.214,10.376,-18.860,73.333,737.000,1.000
596.965,5659.778,29841.389,19196.694,-32.525,3459.001,-13163.357,-5770.928,-0.007,0.935,-0.423,-0.854,9.766,-16.998,73.333,738.000,1.000
610.205,5665.435,29961.626,19259.750,-31.978,3003.871,-13190.528,-5776.131,-0.002,0.937,-0.426,-2.289,8.789,-15.472,73.333,739.000,1.000
622.218,5674.367,30081.666,19320.926,-31.219,2671.007,-13214.374,-5780.867,0.002,0.936,-0.427,-3.632,7.935,-13.947,73.333,740.000,1.000
632.713,5683.716,30200.103,19376.697,-31.707,2550.596,-13235.703,-5781.983,0.013,0.932,-0.423,-4.944,7.141,-13.062,73.333,741.000,1.000
640.777,5688.377,30314.848,19426.798,-35.522,2681.882,-13257.002,-5776.673,0.022,0.929,-0.421,-6.073,6.592,-13.245,73.333,742.000,1.000
646.102,5686.191,30424.525,19471.883,-44.006,3036.106,-13280.321,-5764.312,0.030,0.931,-0.425,-6.927,6.195,-13.824,73.333,743.000,1.000
649.820,5681.297,30529.352,19511.092,-56.915,3528.760,-13306.420,-5748.038,0.036,0.932,-0.423,-7.812,5.951,-14.435,73.333,744.000,1.000
653.792,5682.194,30630.983,19544.294,-72.594,4053.961,-13334.792,-5733.798,0.042,0.936,-0.428,-8.789,5.768,-15.137,73.333,745.000,1.000
659.267,5695.796,30731.575,19576.014,-88.880,4525.453,-13363.836,-5726.547,0.049,0.939,-0.430,-9.827,5.646,-16.052,73.333,746.000,1.000
666.278,5721.929,30832.668,19614.067,-104.227,4901.138,-13391.984,-5727.018,0.055,0.945,-0.435,-10.681,6.012,-17.273,73.333,747.000,1.000
673.988,5752.944,30934.688,19663.185,-118.216,5181.444,-13418.882,-5731.229,0.062,0.963,-0.433,-11.475,6.409,-18.097,73.333,748.000,1.000
681.857,5778.604,31037.370,19720.743,-131.131,5392.619,-13445.219,-5732.885,0.062,0.975,-0.427,-12.451,6.409,-19.470,73.333,749.000,1.000
690.080,5792.040,31140.400,19780.055,-143.296,5569.824,-13471.651,-5727.396,0.060,0.977,-0.425,-13.824,6.683,-21.057,73.333,750.000,1.000
698.984,5792.681,31243.690,19837.347,-154.783,5742.925,-13497.847,-5714.804,0.057,0.980,-0.426,-15.442,7.202,-22.064,73.333,751.000,1.000
709.041,5785.658,31347.411,19894.176,-165.398,5925.131,-13521.988,-5698.884,0.052,0.978,-0.426,-17.365,7.416,-23.437,73.333,752.000,1.000
720.663,5778.470,31451.797,19952.990,-174.914,6109.852,-13541.928,-5683.864,0.043,0.970,-0.427,-19.226,7.660,-24.963,73.333,753.000,1.000
733.229,5776.329,31556.711,20011.670,-183.503,6275.807,-13557.938,-5672.681,0.034,0.966,-0.425,-20.599,7.935,-26.184,73.333,754.000,1.000
745.203,5780.153,31661.643,20065.145,-191.693,6397.309,-13573.029,-5666.426,0.033,0.960,-0.425,-22.217,7.629,-27.618,73.333,755.000,1.000
755.668,5788.196,31766.249,20111.903,-199.798,6456.727,-13590.041,-5664.005,0.031,0.951,-0.430,-23.346,7.751,-29.419,73.333,756.000,1.000
765.327,5798.419,31870.716,20156.443,-207.578,6450.711,-13609.382,-5663.009,0.027,0.940,-0.433,-24.200,8.209,-31.433,73.333,757.000,1.000
775.715,5809.954,31975.706,20205.297,-214.351,6385.255,-13629.232,-5661.470,0.020,0.933,-0.426,-24.811,8.484,-33.569,73.333,758.000,1.000
788.081,5823.459,32082.131,20261.532,-219.246,6266.858,-13647.227,-5658.959,0.012,0.928,-0.413,-25.208,8.179,-35.248,73.333,759.000,1.000
802.966,5840.595,32190.827,20323.656,-221.469,6102.045,-13662.073,-5655.821,0.004,0.926,-0.405,-26.001,7.599,-36.346,73.333,760.000,1.000
819.756,5862.133,32301.893,20388.160,-220.921,5907.220,-13674.449,-5652.014,0.000,0.918,-0.403,-27.069,7.202,-36.987,73.333,761.000,1.000
836.588,5885.847,32414.014,20451.816,-218.877,5715.261,-13686.884,-5647.049,0.003,0.910,-0.402,-28.107,6.989,-37.659,73.333,762.000,1.000
851.143,5906.943,32524.794,20512.665,-217.715,5566.129,-13702.423,-5640.453,0.005,0.903,-0.397,-28.809,6.866,-38.147,73.333,763.000,1.000
862.072,5920.803,32632.114,20569.818,-219.598,5488.664,-13722.822,-5632.257,0.008,0.896,-0.400,-28.961,6.775,-38.696,73.333,764.000,1.000
869.955,5926.098,32735.315,20623.736,-225.254,5490.845,-13747.130,-5622.799,0.016,0.896,-0.395,-28.839,6.958,-39.642,73.333,765.000,1.000
876.880,5925.997,32835.249,20676.591,-233.867,5561.687,-13772.036,-5612.525,0.020,0.895,-0.389,-28.503,6.927,-40.344,73.333,766.000,1.000
885.121,5926.490,32933.422,20730.537,-243.897,5678.165,-13794.143,-5602.394,0.040,0.901,-0.392,-28.534,7.202,-41.321,73.333,767.000,1.000
895.652,5933.029,33031.083,20785.002,-254.023,5814.039,-13812.288,-5593.722,0.054,0.904,-0.398,-28.442,8.362,-42.389,73.333,768.000,1.000
907.774,5947.391,33128.688,20836.181,-263.733,5948.043,-13827.869,-5587.151,0.054,0.905,-0.390,-27.832,9.583,-42.755,73.333,769.000,1.000
920.055,5967.126,33225.953,20880.742,-273.268,6068.611,-13842.659,-5581.365,0.063,0.902,-0.384,-27.771,10.284,-43.549,73.333,770.000,1.000
931.529,5987.901,33322.359,20919.836,-283.086,6173.277,-13857.086,-5573.716,0.071,0.903,-0.389,-27.435,11.688,-44.617,73.333,771.000,1.000
942.318,6006.471,33417.534,20958.393,-293.448,6264.217,-13870.908,-5562.664,0.071,0.905,-0.393,-26.825,13.336,-45.013,73.333,772.000,1.000
953.043,6022.268,33511.387,21001.176,-304.347,6344.695,-13883.982,-5548.736,0.074,0.907,-0.390,-26.276,14.984,-45.532,73.333,773.000,1.000
963.824,6036.632,33604.092,21049.714,-315.664,6417.621,-13896.182,-5533.811,0.080,0.909,-0.393,-25.574,16.937,-46.295,73.333,774.000,1.000
974.076,6051.118,33696.002,21102.889,-327.253,6484.577,-13907.393,-5520.114,0.077,0.909,-0.392,-25.146,19.623,-47.028,73.333,775.000,1.000
983.294,6066.366,33787.609,21159.362,-338.828,6543.909,-13917.872,-5509.547,0.070,0.909,-0.386,-25.177,22.064,-47.974,73.333,776.000,1.000
991.985,6081.877,33879.589,21218.472,-349.796,6588.931,-13928.297,-5503.259,0.064,0.903,-0.380,-25.696,24.048,-49.438,73.333,777.000,1.000
1001.295,6096.565,33972.703,21279.322,-359.375,6608.321,-13939.251,-5501.024,0.064,0.900,-0.380,-26.184,26.184,-50.873,73.333,778.000,1.000
1011.927,6109.227,34067.419,21339.663,-367.089,6588.498,-13951.151,-5501.308,0.052,0.895,-0.382,-26.123,28.534,-51.392,73.333,779.000,1.000
1023.916,6119.324,34163.762,21396.859,-372.958,6520.160,-13964.382,-5501.955,0.045,0.886,-0.385,-25.909,31.128,-51.117,73.333,780.000,1.000
1037.234,6128.029,34261.611,21450.283,-377.147,6407.342,-13978.944,-5501.111,0.035,0.875,-0.378,-25.482,33.325,-51.117,73.333,781.000,1.000
1052.338,6138.497,34360.923,21502.054,-379.670,6268.822,-13994.129,-5498.303,0.026,0.862,-0.369,-24.719,35.004,-51.300,73.333,782.000,1.000
1069.480,6154.540,34461.593,21555.073,-380.549,6128.308,-14008.748,-5494.552,0.013,0.858,-0.359,-23.468,36.530,-51.605,73.333,783.000,1.000
1087.673,6177.754,34563.201,21610.236,-380.115,6002.429,-14021.915,-5491.318,0.003,0.857,-0.356,-22.308,37.720,-51.819,73.333,784.000,1.000
1104.810,6205.674,34664.992,21666.420,-379.075,5895.518,-14033.802,-5489.218,-0.008,0.856,-0.355,-20.935,39.185,-52.216,73.333,785.000,1.000
1118.994,6232.847,34766.026,21722.726,-378.367,5801.247,-14045.818,-5487.925,-0.027,0.856,-0.355,-19.836,40.649,-52.673,73.333,786.000,1.000
1130.118,6254.030,34865.534,21779.624,-378.782,5710.142,-14059.322,-5486.577,-0.045,0.854,-0.359,-18.494,41.779,-52.643,73.333,787.000,1.000
1139.845,6266.957,34963.370,21837.886,-380.495,5621.191,-14073.656,-5483.567,-0.060,0.853,-0.365,-17.456,42.450,-52.856,73.333,788.000,1.000
1150.003,6272.242,35059.919,21896.678,-383.147,5543.929,-14086.446,-5477.400,-0.071,0.854,-0.369,-15.900,43.243,-53.558,73.333,789.000,1.000
1161.412,6271.817,35155.610,21953.842,-386.348,5483.475,-14095.933,-5468.236,-0.090,0.871,-0.376,-14.740,43.793,-53.833,73.333,790.000,1.000
1174.100,6268.209,35250.759,22007.869,-389.847,5429.078,-14102.267,-5457.584,-0.103,0.876,-0.374,-14.008,44.037,-52.979,73.333,791.000,1.000
1187.943,6264.259,35345.618,22058.766,-393.441,5366.251,-14106.895,-5446.592,-0.115,0.890,-0.365,-13.611,44.312,-52.063,73.333,792.000,1.000
1202.183,6262.107,35440.211,22107.593,-397.058,5296.666,-14111.769,-5435.730,-0.128,0.897,-0.358,-13.672,43.793,-50.293,73.333,793.000,1.000
1215.158,6261.852,35534.075,22155.555,-400.954,5242.331,-14118.901,-5425.520,-0.135,0.906,-0.359,-13.916,42.908,-47.821,73.333,794.000,1.000
1225.267,6261.209,35626.371,22203.339,-405.688,5235.864,-14129.288,-5415.306,-0.140,0.911,-0.356,-13.885,41.962,-45.197,73.333,795.000,1.000
1231.751,6256.036,35716.208,22250.467,-412.003,5303.037,-14142.686,-5402.466,-0.142,0.918,-0.361,-13.641,41.199,-43.091,73.333,796.000,1.000
1234.879,6242.402,35802.966,22295.344,-420.602,5443.927,-14158.792,-5384.884,-0.149,0.922,-0.356,-13.580,40.558,-41.656,73.333,797.000,1.000
1235.861,6220.476,35886.695,22336.960,-431.654,5629.612,-14177.285,-5363.376,-0.160,0.926,-0.354,-13.428,39.886,-40.558,73.333,798.000,1.000
1236.922,6196.688,35968.275,22376.360,-444.446,5819.809,-14196.424,-5341.069,-0.173,0.929,-0.354,-13.123,39.185,-39.459,73.333,799.000,1.000
1240.913,6181.500,36049.125,22416.662,-457.555,5985.850,-14212.539,-5320.721,-0.187,0.929,-0.352,-12.970,38.574,-38.330,73.333,800.000,1.000
1249.800,6183.394,36130.589,22461.230,-469.515,6120.465,-14222.267,-5303.359,-0.199,0.920,-0.347,-12.939,38.177,-37.506,73.333,801.000,1.000
1263.272,6202.778,36213.267,22511.023,-479.617,6230.482,-14225.827,-5289.189,-0.214,0.912,-0.340,-12.756,37.323,-37.170,73.333,802.000,1.000
1278.618,6231.049,36296.910,22564.078,-488.111,6323.572,-14227.298,-5278.258,-0.227,0.899,-0.336,-12.390,36.316,-36.743,73.333,803.000,1.000
1292.509,6256.139,36381.120,22617.801,-495.529,6398.913,-14231.468,-5270.453,-0.230,0.887,-0.329,-11.078,34.882,-36.987,73.333,804.000,1.000
1303.285,6270.310,36466.150,22671.942,-501.848,6438.216,-14240.594,-5266.249,-0.239,0.884,-0.315,-8.728,32.959,-38.788,73.333,805.000,1.000
1311.424,6273.576,36553.048,22729.228,-506.258,6386.786,-14253.967,-5268.436,-0.245,0.902,-0.316,-6.378,29.999,-40.680,73.333,806.000,1.000
1318.470,6271.134,36643.236,22793.358,-507.499,6144.760,-14269.347,-5281.160,-0.263,0.937,-0.325,-5.219,28.259,-37.933,73.333,807.000,1.000
1325.547,6268.630,36737.697,22866.125,-504.570,5623.664,-14284.122,-5304.343,-0.294,0.963,-0.331,-5.524,27.496,-32.776,73.333,808.000,1.000
1332.473,6268.265,36835.778,22944.574,-497.892,4858.730,-14296.271,-5331.142,-0.313,0.962,-0.332,-7.935,24.719,-28.015,73.333,809.000,1.000
1338.303,6267.802,36934.817,23021.114,-489.772,4055.193,-14304.748,-5353.034,-0.330,0.958,-0.322,-9.644,21.149,-23.590,73.333,810.000,1.000
1342.848,6262.511,37031.376,23087.532,-483.363,3488.742,-14309.231,-5364.631,-0.336,0.957,-0.316,-10.254,17.822,-18.646,73.333,811.000,1.000
1347.526,6247.602,37122.898,23139.584,-481.165,3345.007,-14310.522,-5362.098,-0.329,0.952,-0.311,-11.353,14.374,-14.526,73.333,812.000,1.000
1354.256,6219.686,37208.694,23179.117,-483.995,3627.475,-14311.098,-5340.755,-0.326,0.940,-0.293,-10.651,10.468,-10.498,73.333,813.000,1.000
1363.703,6177.839,37289.916,23212.213,-490.849,4170.960,-14314.593,-5298.264,-0.320,0.942,-0.291,-8.301,6.134,-6.378,73.333,814.000,1.000
1374.360,6125.712,37368.481,23244.540,-499.886,4734.695,-14324.316,-5240.055,-0.311,0.962,-0.307,-7.568,2.533,-2.167,73.333,815.000,1.000
1383.088,6072.617,37445.683,23277.241,-509.847,5129.831,-14341.355,-5179.884,-0.305,0.961,-0.314,-8.270,-0.854,2.411,73.333,816.000,1.000
1387.311,6030.745,37521.645,23307.365,-520.655,5309.545,-14363.147,-5133.541,-0.289,0.956,-0.315,-8.423,-3.693,6.561,73.333,817.000,1.000
1387.180,6010.215,37595.825,23333.300,-532.890,5358.918,-14384.243,-5110.809,-0.274,0.951,-0.313,-8.362,-6.287,9.766,73.333,818.000,1.000
1386.088,6015.129,37667.857,23358.881,-546.906,5400.231,-14399.352,-5111.582,-0.264,0.948,-0.315,-8.240,-8.881,12.390,73.333,819.000,1.000
1388.767,6042.337,37738.085,23391.277,-562.288,5503.689,-14406.010,-5126.608,-0.253,0.946,-0.323,-7.996,-11.230,14.984,73.333,820.000,1.000
1398.133,6082.995,37807.487,23435.156,-577.998,5671.195,-14405.269,-5142.266,-0.242,0.946,-0.326,-7.812,-13.336,17.456,73.333,821.000,1.000
1413.880,6126.661,37877.098,23489.500,-592.993,5875.302,-14400.521,-5148.456,-0.230,0.943,-0.325,-7.721,-15.259,19.806,73.333,822.000,1.000
1433.328,6165.924,37947.441,23549.593,-606.777,6092.146,-14395.854,-5144.624,-0.220,0.941,-0.325,-7.507,-17.029,21.881,73.333,823.000,1.000
1453.344,6197.992,38018.328,23610.729,-619.562,6300.768,-14395.117,-5138.349,-0.211,0.937,-0.325,-7.385,-18.677,23.895,73.333,824.000,1.000
1471.982,6223.415,38089.223,23670.624,-631.902,6475.476,-14400.695,-5136.964,-0.203,0.933,-0.328,-7.324,-20.142,25.696,73.333,825.000,1.000
1488.734,6244.148,38159.810,23729.208,-644.134,6598.527,-14412.179,-5140.795,-0.195,0.933,-0.325,-7.202,-21.576,27.283,73.333,826.000,1.000
1503.981,6262.104,38230.180,23786.754,-656.179,6678.869,-14426.591,-5144.483,-0.187,0.933,-0.325,-6.866,-22.949,28.839,73.333,827.000,1.000
1518.228,6278.646,38300.548,23843.019,-667.797,6747.272,-14440.189,-5143.228,-0.180,0.934,-0.321,-6.805,-24.200,30.273,73.333,828.000,1.000
1531.698,6294.332,38370.845,23897.570,-678.996,6828.034,-14450.790,-5137.076,-0.171,0.940,-0.318,-6.744,-25.299,31.494,73.333,829.000,1.000
1544.420,6309.302,38440.764,23950.558,-690.021,6919.964,-14458.541,-5129.188,-0.163,0.938,-0.318,-6.805,-26.459,32.776,73.333,830.000,1.000
1556.133,6324.010,38510.023,24002.477,-701.069,7006.852,-14465.075,-5121.630,-0.155,0.936,-0.317,-6.744,-27.283,33.722,73.333,831.000,1.000
1566.452,6339.386,38578.401,24053.247,-712.251,7080.379,-14472.084,-5114.126,-0.143,0.931,-0.316,-6.592,-28.107,34.760,73.333,832.000,1.000
1575.902,6356.773,38645.921,24103.253,-723.492,7148.000,-14479.221,-5105.109,-0.132,0.928,-0.314,-6.317,-28.900,35.706,73.333,833.000,1.000
1586.502,6376.836,38713.089,24154.307,-734.403,7219.805,-14483.788,-5093.281,-0.123,0.927,-0.314,-6.134,-29.480,36.499,73.333,834.000,1.000
1600.273,6398.244,38780.657,24207.625,-744.477,7294.545,-14483.443,-5078.709,-0.115,0.929,-0.316,-5.859,-29.938,37.262,73.333,835.000,1.000
1617.432,6418.440,38849.050,24261.527,-753.467,7363.225,-14478.352,-5062.621,-0.108,0.926,-0.318,-5.585,-30.334,37.964,73.333,836.000,1.000
1636.585,6435.853,38917.982,24312.899,-761.634,7422.599,-14470.484,-5046.700,-0.101,0.925,-0.321,-5.402,-30.670,38.544,73.333,837.000,1.000
1655.879,6451.129,38986.723,24361.068,-769.564,7479.156,-14461.929,-5032.633,-0.096,0.924,-0.326,-4.883,-30.945,38.940,73.333,838.000,1.000
1673.969,6465.880,39054.705,24408.941,-777.740,7539.031,-14454.516,-5021.940,-0.093,0.920,-0.326,-4.333,-31.219,39.154,73.333,839.000,1.000
1690.128,6480.690,39121.809,24460.534,-786.314,7598.690,-14450.533,-5015.475,-0.087,0.918,-0.329,-3.784,-31.525,39.215,73.333,840.000,1.000
1703.742,6494.859,39188.158,24517.589,-795.229,7648.823,-14452.795,-5012.887,-0.081,0.917,-0.331,-3.418,-31.769,39.337,73.333,841.000,1.000
1714.423,6507.678,39253.857,24578.155,-804.398,7685.375,-14462.987,-5012.596,-0.074,0.916,-0.332,-2.930,-31.982,39.185,73.333,842.000,1.000
1722.260,6519.132,39319.001,24638.436,-813.692,7713.586,-14479.844,-5012.477,-0.068,0.912,-0.327,-2.380,-32.135,38.849,73.333,843.000,1.000
1728.027,6529.183,39383.781,24695.842,-822.908,7741.153,-14499.239,-5011.009,-0.063,0.912,-0.327,-1.770,-32.074,38.208,73.333,844.000,1.000
1733.335,6537.672,39448.480,24750.818,-831.790,7770.910,-14515.650,-5007.176,-0.059,0.918,-0.326,-1.068,-32.013,37.659,73.333,845.000,1.000
1739.845,6545.111,39513.326,24805.718,-840.118,7801.193,-14524.673,-4999.803,-0.057,0.925,-0.328,-0.610,-31.921,37.323,73.333,846.000,1.000
