EEG 1,EEG 2,EEG 3,EEG 4,EEG 5,EEG 6,EEG 7,EEG 8,Accelerometer X,Accelerometer Y,Accelerometer Z,Gyroscope X,Gyroscope Y,Gyroscope Z,Battery Level,Counter,Validation Indicator
-7380.052,5009.934,-1199.197,-5080.048,-8907.787,5079.873,-144.110,5085.514,-0.003,0.929,-0.284,0.000,0.000,0.000,73.333,1.000,1.000
-51792.721,34636.716,-12250.939,-37110.571,-37455.215,35073.384,-2714.195,35320.667,-0.006,0.936,-0.295,0.000,0.000,0.000,73.333,2.000,1.000
-173059.815,115515.490,-39801.416,-128555.906,-107331.226,117164.180,-13511.810,117875.026,-0.007,0.940,-0.301,0.000,0.000,0.000,73.333,3.000,1.000
-377166.744,248998.321,-78795.248,-287676.243,-204120.477,255725.372,-36412.624,256833.624,-0.008,0.944,-0.302,0.000,0.000,0.000,73.333,4.000,1.000
-619436.386,392538.823,-107815.523,-471808.201,-282837.074,417461.668,-64184.772,421796.744,-0.008,0.946,-0.304,-0.702,0.702,0.763,73.333,5.000,1.000
-833919.624,478086.475,-98912.161,-600573.531,-303321.880,541258.665,-74187.162,567867.960,-0.009,0.947,-0.308,-1.801,5.615,2.533,73.333,6.000,1.000
-965737.833,452085.577,-33136.772,-598606.344,-252564.810,557617.458,-32228.111,659318.906,-0.006,0.951,-0.311,1.587,4.333,-1.160,73.333,7.000,1.000
-977389.165,309333.278,86575.408,-440994.743,-146554.065,418547.997,86134.277,683394.397,-0.008,0.953,-0.313,2.563,4.242,-2.533,73.333,8.000,1.000
-840158.005,96754.281,234236.456,-172042.167,-24435.770,128114.464,268345.138,654729.991,-0.005,0.954,-0.314,2.563,4.395,-2.991,73.333,9.000,1.000
-548719.060,-119523.904,373887.448,118390.613,69238.533,-248000.556,465742.250,606529.463,-0.004,0.954,-0.315,2.533,4.761,-3.082,73.333,10.000,1.000
-151927.711,-299089.020,477409.821,344576.489,109925.360,-603174.695,622346.932,569096.789,-0.004,0.954,-0.314,2.411,5.127,-3.204,73.333,11.000,1.000
257168.883,-443591.962,534998.178,466083.582,104926.660,-835986.745,701891.318,549323.337,-0.004,0.956,-0.314,2.289,5.310,-3.235,73.333,12.000,1.000
587096.730,-575529.626,554337.301,496257.776,80732.933,-896409.915,697839.371,529480.916,-0.007,0.955,-0.317,2.045,5.646,-3.265,73.333,13.000,1.000
777893.899,-707543.538,551556.548,478525.516,59676.307,-801191.583,628687.933,487238.358,-0.005,0.956,-0.315,1.801,5.859,-3.143,73.333,14.000,1.000
810625.664,-825910.033,540599.654,452164.182,48239.803,-614776.565,524954.452,415734.781,-0.008,0.956,-0.314,1.526,6.226,-3.174,73.333,15.000,1.000
713799.123,-896347.179,528617.826,433784.785,43331.865,-415352.382,413754.823,325188.393,-0.010,0.955,-0.312,1.190,6.470,-3.143,73.333,16.000,1.000
555712.254,-890015.558,518529.683,423313.144,43060.658,-263770.462,309760.288,231469.859,-0.013,0.958,-0.313,1.007,6.531,-3.143,73.333,17.000,1.000
408610.275,-809172.653,512473.855,418990.373,48282.830,-184809.722,218795.075,147492.245,-0.015,0.959,-0.316,0.854,6.714,-3.204,73.333,18.000,1.000
307948.521,-686868.403,511419.207,422101.937,57005.444,-166583.973,146538.261,82281.315,-0.017,0.963,-0.316,0.580,6.958,-3.174,73.333,19.000,1.000
246460.849,-562200.374,513197.308,430873.225,62949.195,-177452.417,99327.821,41227.600,-0.021,0.965,-0.314,0.244,7.050,-3.143,73.333,20.000,1.000
204395.267,-458690.225,513562.916,437488.781,61634.039,-188897.824,76908.771,23449.638,-0.024,0.968,-0.315,-0.031,7.019,-3.204,73.333,21.000,1.000
176438.221,-383272.976,510093.266,435013.670,55582.065,-188701.319,69242.965,20572.006,-0.027,0.967,-0.313,-0.214,6.958,-3.235,73.333,22.000,1.000
167189.084,-335940.248,504268.005,425184.241,51258.195,-178413.212,63776.130,21325.343,-0.030,0.965,-0.313,-0.580,6.866,-3.204,73.333,23.000,1.000
171224.171,-313179.359,499205.987,416230.521,51657.847,-163322.431,55022.243,18648.253,-0.033,0.961,-0.310,-0.793,6.714,-3.204,73.333,24.000,1.000
170611.930,-304811.548,496049.728,413359.120,53899.325,-146679.842,45468.620,12264.152,-0.034,0.957,-0.311,-1.160,6.500,-3.204,73.333,25.000,1.000
153723.732,-295804.703,493356.383,413908.461,54027.439,-130814.509,38358.827,5061.489,-0.035,0.958,-0.309,-1.343,6.256,-3.265,73.333,26.000,1.000
128286.287,-276155.668,489636.460,412346.641,52032.475,-118945.823,32474.380,-1500.586,-0.036,0.958,-0.309,-1.495,5.981,-3.174,73.333,27.000,1.000
110578.910,-248066.404,485332.354,407560.927,50906.136,-113203.325,24684.446,-7992.500,-0.037,0.959,-0.309,-1.556,5.707,-3.052,73.333,28.000,1.000
105587.014,-221261.074,481866.613,403192.600,52040.057,-111801.692,15143.196,-14613.099,-0.039,0.962,-0.311,-1.740,5.402,-3.113,73.333,29.000,1.000
103563.953,-201889.600,479502.917,401877.699,53511.204,-110218.989,7419.914,-20104.033,-0.040,0.964,-0.313,-1.831,5.035,-3.113,73.333,30.000,1.000
94919.793,-187811.392,477018.494,401759.012,53016.226,-105599.870,3728.410,-23392.629,-0.041,0.967,-0.313,-1.892,4.730,-2.960,73.333,31.000,1.000
82045.038,-174018.690,473398.926,399410.027,50937.650,-99060.641,2073.047,-25232.402,-0.042,0.966,-0.310,-2.075,4.303,-2.869,73.333,32.000,1.000
73748.653,-159551.852,469105.624,394473.997,49549.747,-93389.824,-1039.517,-27415.031,-0.043,0.961,-0.307,-2.228,3.937,-2.686,73.333,33.000,1.000
72343.634,-147319.882,465336.982,389812.835,49945.062,-89515.327,-6311.470,-30719.747,-0.043,0.958,-0.309,-2.167,3.540,-2.563,73.333,34.000,1.000
71260.215,-138762.299,462477.600,387581.950,50914.051,-86084.822,-11363.075,-34324.427,-0.046,0.957,-0.310,-2.106,3.174,-2.411,73.333,35.000,1.000
64691.450,-131403.527,459781.573,386732.557,50836.291,-81925.734,-14237.180,-37158.839,-0.046,0.958,-0.310,-2.106,2.808,-2.228,73.333,36.000,1.000
54961.156,-122141.016,456478.469,384806.722,49693.348,-77642.401,-15754.794,-39179.705,-0.048,0.957,-0.306,-2.136,2.350,-2.197,73.333,37.000,1.000
48426.078,-111164.803,452701.612,381112.624,48726.889,-74467.576,-17991.464,-41076.152,-0.050,0.955,-0.306,-2.014,1.892,-2.045,73.333,38.000,1.000
46907.132,-101330.071,449145.332,377194.318,48672.626,-72408.301,-21454.648,-43199.633,-0.051,0.952,-0.305,-1.953,1.343,-1.953,73.333,39.000,1.000
46230.144,-94370.149,446116.541,374556.918,49022.570,-70288.741,-24727.487,-45256.519,-0.054,0.948,-0.306,-1.862,0.793,-1.801,73.333,40.000,1.000
42452.291,-89076.119,443245.312,372907.876,48933.056,-67353.034,-26589.146,-46909.775,-0.056,0.949,-0.305,-1.740,0.366,-1.709,73.333,41.000,1.000
36559.326,-83263.446,440059.179,370871.278,48270.492,-64099.609,-27519.283,-48236.692,-0.057,0.948,-0.304,-1.587,-0.275,-1.617,73.333,42.000,1.000
32135.321,-76428.633,436552.597,367794.024,47552.328,-61416.247,-28834.578,-49504.640,-0.057,0.944,-0.303,-1.282,-0.824,-1.465,73.333,43.000,1.000
30409.962,-69844.683,433092.486,364327.541,47203.540,-59432.481,-30972.253,-50798.670,-0.059,0.944,-0.304,-1.038,-1.373,-1.434,73.333,44.000,1.000
29355.483,-64612.804,429929.984,361432.524,47172.124,-57570.624,-33173.679,-52045.966,-0.062,0.940,-0.306,-0.732,-1.953,-1.251,73.333,45.000,1.000
26917.921,-60425.230,426959.221,359286.401,47144.732,-55432.078,-34639.549,-53221.075,-0.061,0.942,-0.306,-0.427,-2.472,-1.190,73.333,46.000,1.000
23379.280,-56231.108,423911.054,357263.466,46882.692,-53199.015,-35454.089,-54323.214,-0.061,0.944,-0.310,-0.183,-3.052,-1.038,73.333,47.000,1.000
20298.774,-51524.475,420658.472,354722.641,46365.416,-51202.866,-36274.268,-55254.687,-0.060,0.945,-0.310,0.061,-3.754,-0.977,73.333,48.000,1.000
18381.184,-46704.599,417308.657,351643.857,45791.956,-49467.429,-37475.419,-55938.564,-0.060,0.945,-0.307,0.244,-4.242,-0.854,73.333,49.000,1.000
17094.920,-42449.172,414062.124,348570.705,45451.899,-47807.816,-38848.361,-56528.483,-0.057,0.946,-0.308,0.458,-4.730,-0.702,73.333,50.000,1.000
15712.108,-39010.206,411012.554,346026.051,45435.106,-46139.929,-39982.767,-57282.411,-0.055,0.944,-0.308,0.610,-5.096,-0.488,73.333,51.000,1.000
13948.430,-36039.670,408057.127,343964.890,45447.721,-44498.101,-40713.385,-58180.293,-0.057,0.941,-0.308,0.854,-5.585,-0.397,73.333,52.000,1.000
11852.169,-32935.638,404996.027,341798.622,45089.943,-42876.528,-41206.966,-58876.959,-0.057,0.941,-0.307,1.099,-5.951,-0.275,73.333,53.000,1.000
9744.295,-29406.862,401749.082,339035.077,44384.232,-41254.898,-41765.227,-59168.221,-0.055,0.940,-0.306,1.251,-6.287,-0.214,73.333,54.000,1.000
8202.054,-25801.619,398467.782,335887.112,43838.026,-39729.141,-42560.983,-59336.563,-0.056,0.938,-0.310,1.465,-6.714,0.031,73.333,55.000,1.000
7492.937,-22788.044,395377.569,333083.330,43817.428,-38418.023,-43469.386,-59811.412,-0.054,0.936,-0.310,1.892,-7.080,0.031,73.333,56.000,1.000
6963.288,-20569.729,392496.094,330984.007,44007.137,-37226.973,-44156.611,-60557.116,-0.054,0.936,-0.308,2.136,-7.385,0.153,73.333,57.000,1.000
5594.857,-18532.905,389582.897,329023.160,43764.469,-35898.322,-44438.170,-61076.437,-0.052,0.935,-0.312,2.350,-7.629,0.244,73.333,58.000,1.000
3407.525,-15918.868,386430.914,326188.550,42987.359,-34376.749,-44550.957,-61091.727,-0.052,0.935,-0.312,2.594,-7.874,0.336,73.333,59.000,1.000
1712.665,-12812.746,383149.492,322017.876,42309.314,-32953.276,-44929.399,-60965.011,-0.053,0.935,-0.320,2.808,-8.057,0.458,73.333,60.000,1.000
1458.217,-10123.101,380045.102,316908.821,42271.735,-31888.973,-45657.267,-61225.906,-0.052,0.935,-0.317,3.082,-8.301,0.427,73.333,61.000,1.000
1768.489,-8420.433,377219.825,311343.065,42561.981,-31008.568,-46300.543,-61831.341,-0.052,0.937,-0.319,3.296,-8.453,0.427,73.333,62.000,1.000
931.524,-7113.780,374417.950,305125.965,42400.612,-29892.753,-46437.740,-62204.683,-0.051,0.935,-0.322,3.357,-8.514,0.397,73.333,63.000,1.000
-1248.406,-5159.490,371354.001,297820.162,41601.923,-28463.942,-46247.919,-62032.440,-0.051,0.935,-0.322,3.662,-8.514,0.458,73.333,64.000,1.000
-3017.022,-2457.798,368080.465,289809.555,40833.563,-27134.836,-46328.426,-61715.577,-0.052,0.937,-0.322,3.876,-8.636,0.549,73.333,65.000,1.000
-2997.335,-42.217,364840.234,282364.071,40632.112,-26254.732,-46909.209,-61828.846,-0.051,0.937,-0.324,4.028,-8.698,0.702,73.333,66.000,1.000
-2169.563,1287.195,361573.744,276370.369,40494.260,-25602.468,-47511.397,-62326.286,-0.051,0.935,-0.326,4.150,-8.728,1.007,73.333,67.000,1.000
-2638.155,2076.872,357798.591,271316.953,39356.932,-24664.785,-47566.975,-62601.132,-0.049,0.936,-0.329,4.272,-8.820,1.129,73.333,68.000,1.000
-4738.572,3524.287,353093.279,265944.519,36882.484,-23345.627,-47198.484,-62323.161,-0.046,0.936,-0.329,4.456,-8.789,1.312,73.333,69.000,1.000
-6496.852,5865.820,347600.923,259801.527,33849.670,-22113.553,-47079.894,-61892.507,-0.044,0.936,-0.328,4.517,-8.698,1.434,73.333,70.000,1.000
-6304.373,8043.190,341931.168,253704.354,31174.654,-21356.927,-47529.118,-61883.633,-0.042,0.939,-0.331,4.639,-8.484,1.678,73.333,71.000,1.000
-5161.805,9137.006,336576.246,248538.154,28898.464,-20834.890,-48062.517,-62255.567,-0.041,0.939,-0.333,4.669,-8.423,1.984,73.333,72.000,1.000
-5343.199,9625.674,331538.953,244041.320,26435.325,-20000.673,-48043.045,-62420.076,-0.040,0.940,-0.332,4.761,-8.301,2.289,73.333,73.000,1.000
-7274.241,10741.537,326572.163,239199.140,23621.900,-18758.123,-47551.972,-62059.327,-0.038,0.942,-0.334,4.730,-8.026,2.594,73.333,74.000,1.000
-8938.546,12796.297,321640.412,233662.636,21060.211,-17598.163,-47286.236,-61555.409,-0.038,0.942,-0.333,4.669,-7.751,3.021,73.333,75.000,1.000
-8650.496,14764.119,316974.002,228231.912,19297.131,-16921.553,-47612.010,-61452.657,-0.037,0.946,-0.332,4.639,-7.477,3.265,73.333,76.000,1.000
-7368.219,15686.977,312690.088,223757.756,18024.140,-16486.996,-48068.329,-61713.468,-0.036,0.948,-0.332,4.578,-7.263,3.632,73.333,77.000,1.000
-7361.132,15971.689,308556.636,219982.417,16439.257,-15748.308,-48000.602,-61789.915,-0.037,0.948,-0.333,4.425,-6.775,4.120,73.333,78.000,1.000
-9094.440,16816.982,304256.480,215895.293,14287.961,-14606.771,-47452.607,-61386.349,-0.035,0.950,-0.333,4.333,-6.531,4.486,73.333,79.000,1.000
-10627.119,18581.511,299795.922,211091.798,12165.449,-13536.871,-47097.761,-60850.898,-0.038,0.948,-0.333,4.242,-6.226,4.761,73.333,80.000,1.000
-10305.546,20326.858,295492.681,206280.721,10688.240,-12924.628,-47316.739,-60679.331,-0.038,0.946,-0.334,4.059,-5.951,5.249,73.333,81.000,1.000
-9005.023,21124.600,291554.406,202287.498,9679.473,-12542.580,-47690.502,-60840.608,-0.039,0.945,-0.332,3.998,-5.768,5.432,73.333,82.000,1.000
-8873.088,21309.364,287815.894,198944.251,8452.959,-11876.730,-47588.024,-60844.973,-0.038,0.942,-0.332,3.906,-5.463,5.737,73.333,83.000,1.000
-10382.004,21987.492,283978.148,195356.196,6760.687,-10833.971,-47024.336,-60426.819,-0.036,0.940,-0.330,3.876,-5.280,6.073,73.333,84.000,1.000
-11748.676,23523.885,280009.398,191126.512,5099.275,-9852.915,-46619.895,-59889.916,-0.037,0.938,-0.332,3.784,-5.127,6.348,73.333,85.000,1.000
-11428.186,25082.872,276165.954,186856.762,3997.650,-9288.434,-46744.853,-59668.120,-0.035,0.939,-0.335,3.723,-4.944,6.653,73.333,86.000,1.000
-10188.781,25799.707,272625.260,183289.552,3297.384,-8933.668,-47031.700,-59736.159,-0.035,0.939,-0.335,3.754,-4.700,6.958,73.333,87.000,1.000
-9978.312,25939.138,269244.054,180307.038,2393.792,-8323.516,-46899.954,-59671.875,-0.034,0.939,-0.337,3.754,-4.517,7.233,73.333,88.000,1.000
-11251.274,26487.573,265760.906,177128.970,1063.120,-7374.399,-46345.219,-59246.905,-0.033,0.940,-0.339,3.754,-4.303,7.385,73.333,89.000,1.000
-12432.336,27800.898,262148.900,173380.704,-264.666,-6478.758,-45919.731,-58720.323,-0.034,0.939,-0.340,3.693,-4.089,7.568,73.333,90.000,1.000
-12135.362,29164.857,258637.245,169560.786,-1120.148,-5953.068,-45967.348,-58461.117,-0.033,0.940,-0.336,3.784,-3.906,7.904,73.333,91.000,1.000
-11012.207,29807.471,255389.798,166323.072,-1622.450,-5616.232,-46174.779,-58449.015,-0.031,0.939,-0.336,3.876,-3.693,8.240,73.333,92.000,1.000
-10766.968,29930.463,252288.623,163599.382,-2283.973,-5059.595,-46024.346,-58329.521,-0.031,0.938,-0.338,3.845,-3.540,8.423,73.333,93.000,1.000
-11817.064,30383.356,249105.063,160735.618,-3306.695,-4206.492,-45494.727,-57909.973,-0.030,0.939,-0.337,3.876,-3.326,8.636,73.333,94.000,1.000
-12814.679,31496.422,245806.847,157392.830,-4340.230,-3393.131,-45060.224,-57403.204,-0.029,0.937,-0.336,3.906,-3.113,9.003,73.333,95.000,1.000
-12555.761,32677.318,242584.293,153968.429,-4989.539,-2892.446,-45030.829,-57114.234,-0.029,0.936,-0.338,3.754,-2.991,9.247,73.333,96.000,1.000
-11574.115,33258.265,239579.769,151015.725,-5343.457,-2553.745,-45152.173,-57029.810,-0.026,0.936,-0.339,3.723,-2.838,9.430,73.333,97.000,1.000
-11313.378,33384.887,236700.012,148501.437,-5822.411,-2032.849,-44981.271,-56863.587,-0.025,0.939,-0.339,3.754,-2.502,9.766,73.333,98.000,1.000
-12145.703,33766.101,233754.267,145892.042,-6600.031,-1264.171,-44487.081,-56458.345,-0.024,0.941,-0.339,3.693,-2.197,9.888,73.333,99.000,1.000
-12956.701,34698.431,230711.329,142890.402,-7397.158,-527.261,-44062.989,-55981.865,-0.022,0.943,-0.338,3.662,-2.014,10.071,73.333,100.000,1.000
-12734.731,35708.030,227726.288,139802.209,-7889.250,-49.446,-43976.511,-55676.534,-0.019,0.943,-0.340,3.662,-1.709,10.193,73.333,101.000,1.000
-11903.024,36235.954,224919.525,137082.424,-8138.128,291.564,-44026.106,-55533.934,-0.018,0.941,-0.338,3.662,-1.434,10.498,73.333,102.000,1.000
-11646.859,36379.772,222219.337,134726.094,-8478.012,777.157,-43843.577,-55330.672,-0.017,0.941,-0.338,3.479,-1.282,10.681,73.333,103.000,1.000
-12286.967,36710.837,219470.338,132314.407,-9054.935,1462.206,-43392.202,-54942.839,-0.015,0.940,-0.340,3.357,-1.007,10.925,73.333,104.000,1.000
-12930.110,37485.766,216642.519,129596.389,-9655.825,2122.385,-42987.728,-54497.858,-0.013,0.939,-0.342,3.357,-0.732,11.078,73.333,105.000,1.000
-12750.626,38339.280,213857.586,126797.428,-10023.296,2575.465,-42853.962,-54181.444,-0.013,0.938,-0.344,3.296,-0.397,11.078,73.333,106.000,1.000
-12069.763,38818.870,211214.473,124278.843,-10196.671,2918.859,-42837.105,-53988.865,-0.011,0.942,-0.339,3.265,-0.214,11.078,73.333,107.000,1.000
-11828.457,38983.864,208661.010,122054.571,-10431.531,3376.244,-42640.909,-53752.566,-0.013,0.938,-0.338,3.113,-0.092,11.230,73.333,108.000,1.000
-12295.906,39279.379,206075.111,119806.806,-10846.598,3991.783,-42227.451,-53379.018,-0.011,0.941,-0.340,3.174,0.214,11.261,73.333,109.000,1.000
-12783.734,39919.497,203428.955,117328.709,-11286.550,4589.397,-41843.112,-52961.728,-0.009,0.939,-0.339,3.082,0.458,11.200,73.333,110.000,1.000
-12642.105,40632.217,200813.805,114776.635,-11555.123,5024.572,-41671.027,-52638.015,-0.010,0.937,-0.340,2.960,0.763,11.108,73.333,111.000,1.000
-12103.631,41062.319,198307.775,112427.825,-11674.198,5369.494,-41599.628,-52406.406,-0.009,0.937,-0.340,2.960,0.916,11.078,73.333,112.000,1.000
-11886.515,41239.961,195875.088,110310.872,-11830.740,5795.737,-41397.405,-52146.761,-0.012,0.935,-0.338,2.960,1.068,10.864,73.333,113.000,1.000
-12207.215,41500.864,193423.921,108198.014,-12117.667,6340.573,-41024.771,-51790.565,-0.012,0.934,-0.338,2.960,1.221,10.773,73.333,114.000,1.000
-12555.339,42021.695,190930.026,105925.537,-12427.912,6874.680,-40664.162,-51401.460,-0.011,0.933,-0.336,3.113,1.282,10.651,73.333,115.000,1.000
-12438.545,42612.709,188458.872,103592.494,-12618.116,7289.708,-40460.454,-51075.117,-0.006,0.933,-0.336,2.960,1.373,10.437,73.333,116.000,1.000
-12017.310,43004.753,186069.954,101400.225,-12696.663,7636.158,-40339.371,-50812.559,-0.007,0.932,-0.337,2.930,1.526,10.193,73.333,117.000,1.000
-11818.992,43202.442,183740.683,99383.270,-12792.715,8038.085,-40129.087,-50533.419,-0.007,0.934,-0.338,3.021,1.678,9.918,73.333,118.000,1.000
-12013.993,43443.676,181404.959,97387.193,-12976.543,8523.719,-39791.863,-50190.258,-0.006,0.934,-0.337,3.021,1.740,9.796,73.333,119.000,1.000
-12244.032,43867.902,179042.111,95287.233,-13180.777,9002.673,-39454.564,-49822.269,-0.005,0.934,-0.337,3.021,1.678,9.521,73.333,120.000,1.000
-12151.436,44353.239,176695.967,93138.680,-13306.827,9398.887,-39225.166,-49491.259,-0.003,0.934,-0.337,3.082,1.678,9.247,73.333,121.000,1.000
-11835.125,44706.206,174409.516,91080.908,-13353.488,9745.990,-39058.509,-49201.640,-0.002,0.933,-0.335,3.021,1.740,8.972,73.333,122.000,1.000
-11659.846,44913.603,172169.907,89151.376,-13403.268,10126.818,-38836.284,-48908.272,-0.001,0.930,-0.335,3.052,1.862,8.759,73.333,123.000,1.000
-11756.053,45130.788,169931.641,87253.904,-13507.752,10558.384,-38528.985,-48584.095,0.000,0.929,-0.336,2.991,1.923,8.575,73.333,124.000,1.000
-11893.024,45462.258,167677.064,85295.561,-13631.524,10979.237,-38221.709,-48249.815,0.002,0.928,-0.336,2.991,2.136,8.240,73.333,125.000,1.000
-11826.861,45841.310,165432.922,83297.222,-13712.162,11339.756,-37990.627,-47937.057,0.003,0.927,-0.335,3.082,2.197,7.935,73.333,126.000,1.000
-11606.261,46142.326,163229.883,81348.899,-13740.240,11664.010,-37808.134,-47646.184,0.007,0.930,-0.334,3.235,2.289,7.660,73.333,127.000,1.000
-11459.361,46346.165,161064.627,79491.045,-13759.092,12008.377,-37591.816,-47352.938,0.007,0.932,-0.335,3.387,2.380,7.385,73.333,128.000,1.000
-11478.961,46545.756,158910.064,77676.233,-13802.854,12387.108,-37313.272,-47042.866,0.008,0.936,-0.334,3.357,2.563,7.233,73.333,129.000,1.000
-11535.887,46814.405,156751.813,75839.915,-13860.225,12764.240,-37022.661,-46724.028,0.009,0.937,-0.332,3.357,2.594,7.019,73.333,130.000,1.000
-11481.582,47121.923,154601.933,73976.606,-13898.909,13108.312,-36774.178,-46410.261,0.008,0.936,-0.337,3.387,2.655,6.805,73.333,131.000,1.000
-11330.210,47390.096,152478.761,72134.683,-13906.400,13429.577,-36560.947,-46104.785,0.007,0.936,-0.337,3.448,2.808,6.500,73.333,132.000,1.000
-11203.875,47592.364,150384.011,70352.770,-13898.084,13757.561,-36335.665,-45802.849,0.007,0.937,-0.336,3.448,2.869,6.134,73.333,133.000,1.000
-11164.074,47772.819,148303.975,68619.192,-13894.913,14100.902,-36074.398,-45500.366,0.006,0.935,-0.333,3.448,2.777,5.981,73.333,134.000,1.000
-11158.444,47982.611,146227.511,66892.416,-13902.797,14443.103,-35799.110,-45194.788,0.004,0.936,-0.339,3.326,2.960,5.676,73.333,135.000,1.000
-11111.907,48223.727,144156.861,65148.696,-13911.101,14768.715,-35542.899,-44884.612,0.004,0.938,-0.336,3.418,2.930,5.310,73.333,136.000,1.000
-11013.958,48458.039,142102.017,63403.890,-13904.592,15079.610,-35311.479,-44573.609,0.004,0.938,-0.339,3.448,2.899,4.944,73.333,137.000,1.000
-10907.452,48654.158,140068.920,61691.952,-13877.547,15385.825,-35084.142,-44271.025,0.004,0.942,-0.340,3.418,2.869,4.578,73.333,138.000,1.000
-10829.352,48816.925,138054.304,60026.813,-13840.297,15692.480,-34841.473,-43980.197,0.002,0.945,-0.337,3.357,2.838,4.303,73.333,139.000,1.000
-10782.712,48977.341,136049.903,58387.127,-13810.516,15999.290,-34584.092,-43690.157,0.004,0.943,-0.334,3.326,2.777,3.967,73.333,140.000,1.000
-10745.757,49159.327,134050.583,56740.014,-13793.674,16304.432,-34327.834,-43387.313,0.005,0.942,-0.332,3.204,2.716,3.723,73.333,141.000,1.000
-10688.898,49355.927,132059.330,55079.620,-13773.973,16604.393,-34086.182,-43074.510,0.006,0.940,-0.335,3.082,2.747,3.448,73.333,142.000,1.000
-10595.540,49536.303,130084.222,53435.819,-13731.565,16894.379,-33857.608,-42769.835,0.004,0.941,-0.337,2.991,2.472,3.174,73.333,143.000,1.000
-10484.003,49679.444,128129.212,51839.073,-13668.971,17174.717,-33627.348,-42482.627,0.005,0.940,-0.337,2.960,2.502,2.960,73.333,144.000,1.000
-10398.795,49800.966,126188.354,50281.199,-13611.354,17453.921,-33382.414,-42199.036,0.005,0.938,-0.336,2.808,2.563,2.655,73.333,145.000,1.000
-10360.013,49938.203,124251.612,48722.558,-13575.362,17738.476,-33126.926,-41900.184,0.003,0.937,-0.332,2.747,2.563,2.380,73.333,146.000,1.000
-10328.527,50105.501,122317.169,47141.243,-13545.541,18021.816,-32879.696,-41589.376,0.004,0.938,-0.335,2.777,2.411,2.167,73.333,147.000,1.000
-10247.132,50273.118,120394.744,45562.620,-13492.659,18290.877,-32652.748,-41289.656,0.006,0.939,-0.336,2.594,2.472,1.923,73.333,148.000,1.000
-10118.164,50402.076,118493.807,44028.158,-13412.871,18545.051,-32434.538,-41012.298,0.008,0.941,-0.337,2.625,2.411,1.709,73.333,149.000,1.000
-10010.289,50495.353,116610.764,42540.889,-13334.742,18800.141,-32201.988,-40739.572,0.006,0.940,-0.335,2.472,2.411,1.617,73.333,150.000,1.000
-9970.520,50596.921,114732.648,41059.502,-13281.821,19067.642,-31950.112,-40447.897,0.008,0.939,-0.336,2.350,2.319,1.526,73.333,151.000,1.000
-9955.314,50735.241,112853.823,39551.818,-13240.188,19337.283,-31700.521,-40140.511,0.007,0.940,-0.337,2.289,2.411,1.404,73.333,152.000,1.000
-9883.382,50883.316,110983.621,38037.555,-13176.527,19588.781,-31474.577,-39844.524,0.008,0.942,-0.338,2.228,2.411,1.312,73.333,153.000,1.000
-9747.343,50992.160,109133.855,36562.211,-13083.737,19819.427,-31264.470,-39574.720,0.008,0.942,-0.338,2.136,2.533,1.190,73.333,154.000,1.000
-9629.650,51056.997,107302.365,35135.559,-12991.744,20049.353,-31042.124,-39313.366,0.007,0.943,-0.338,2.106,2.411,1.190,73.333,155.000,1.000
-9592.585,51126.018,105475.126,33717.342,-12927.584,20294.636,-30796.743,-39034.554,0.006,0.941,-0.338,1.984,2.411,1.068,73.333,156.000,1.000
-9589.970,51237.278,103644.823,32270.703,-12878.644,20544.872,-30550.631,-38739.221,0.007,0.943,-0.336,1.831,2.319,0.854,73.333,157.000,1.000
-9526.227,51367.183,101820.901,30810.768,-12809.696,20776.737,-30330.278,-38453.033,0.006,0.944,-0.336,1.617,2.350,0.671,73.333,158.000,1.000
-9386.852,51461.497,100016.956,29379.755,-12710.888,20985.975,-30130.271,-38190.413,0.007,0.946,-0.335,1.556,2.350,0.610,73.333,159.000,1.000
-9260.641,51508.411,98232.178,27979.597,-12611.155,21193.791,-29919.333,-37934.649,0.010,0.948,-0.333,1.404,2.380,0.549,73.333,160.000,1.000
-9219.252,51554.488,96452.164,26555.363,-12538.774,21418.107,-29681.512,-37661.254,0.009,0.948,-0.333,1.190,2.350,0.397,73.333,161.000,1.000
-9218.449,51642.016,94668.321,25057.523,-12483.095,21649.651,-29437.001,-37371.356,0.010,0.948,-0.338,0.946,2.411,0.305,73.333,162.000,1.000
-9158.178,51751.886,92889.380,23503.665,-12409.643,21865.097,-29214.721,-37089.843,0.011,0.948,-0.336,0.610,2.441,0.244,73.333,163.000,1.000
-9019.733,51829.787,91129.324,21960.456,-12307.310,22059.094,-29013.687,-36831.358,0.013,0.948,-0.334,0.397,2.441,0.092,73.333,164.000,1.000
-8891.301,51859.939,89388.388,20471.307,-12202.850,22250.984,-28805.508,-36581.208,0.012,0.950,-0.337,0.092,2.380,0.000,73.333,165.000,1.000
-8847.037,51885.266,87652.979,19021.674,-12123.738,22456.761,-28574.290,-36317.030,0.014,0.952,-0.331,-0.092,2.533,-0.092,73.333,166.000,1.000
-8846.440,51948.158,85914.282,17577.871,-12061.089,22666.323,-28338.688,-36039.798,0.015,0.951,-0.334,-0.305,2.747,-0.214,73.333,167.000,1.000
-8791.256,52033.346,84179.910,16138.137,-11982.888,22857.488,-28126.037,-35771.813,0.018,0.949,-0.333,-0.641,2.747,-0.305,73.333,168.000,1.000
-8659.768,52090.414,82463.037,14727.822,-11878.013,23027.282,-27934.347,-35525.329,0.019,0.952,-0.331,-0.885,2.960,-0.305,73.333,169.000,1.000
-8534.092,52103.609,80764.311,13353.247,-11770.533,23197.091,-27734.503,-35285.620,0.018,0.953,-0.332,-1.251,3.052,-0.214,73.333,170.000,1.000
-8485.834,52112.688,79071.184,11984.580,-11686.134,23384.305,-27509.490,-35031.334,0.020,0.953,-0.326,-1.526,3.052,-0.336,73.333,171.000,1.000
-8479.590,52158.400,77375.109,10594.620,-11617.728,23579.883,-27276.699,-34762.818,0.019,0.952,-0.331,-1.831,3.204,-0.427,73.333,172.000,1.000
-8424.687,52227.757,75682.790,9202.723,-11536.501,23761.512,-27063.831,-34500.343,0.020,0.951,-0.331,-2.045,3.204,-0.488,73.333,173.000,1.000
-8299.787,52273.298,74006.664,7868.888,-11431.384,23923.918,-26871.853,-34255.726,0.019,0.950,-0.330,-2.258,3.387,-0.702,73.333,174.000,1.000
-8179.122,52278.112,72348.185,6645.638,-11322.708,24085.046,-26675.275,-34016.803,0.018,0.949,-0.329,-2.533,3.448,-0.732,73.333,175.000,1.000
-8128.830,52276.848,70696.500,5540.408,-11233.279,24260.380,-26458.095,-33765.256,0.016,0.948,-0.330,-2.747,3.448,-0.916,73.333,176.000,1.000
-8118.580,52307.230,69043.532,4523.717,-11157.851,24442.235,-26235.038,-33501.325,0.018,0.946,-0.326,-2.960,3.510,-1.007,73.333,177.000,1.000
-8066.763,52359.534,67394.388,3561.158,-11071.979,24611.217,-26030.336,-33242.390,0.017,0.946,-0.327,-3.143,3.540,-1.251,73.333,178.000,1.000
-7952.468,52391.182,65759.329,2622.784,-10966.186,24762.655,-25844.639,-32999.168,0.016,0.944,-0.326,-3.265,3.571,-1.587,73.333,179.000,1.000
-7840.599,52383.848,64139.169,1667.687,-10858.231,24911.777,-25655.018,-32762.571,0.016,0.943,-0.321,-3.479,3.571,-1.648,73.333,180.000,1.000
-7790.634,52365.016,62524.171,646.810,-10768.307,25071.661,-25446.476,-32517.824,0.016,0.941,-0.324,-3.601,3.479,-1.953,73.333,181.000,1.000
-7777.675,52368.598,60907.326,-461.266,-10692.391,25235.760,-25231.206,-32264.629,0.016,0.941,-0.321,-3.571,3.510,-1.953,73.333,182.000,1.000
-7730.611,52390.224,59293.528,-1625.240,-10609.182,25387.791,-25030.985,-32016.611,0.015,0.941,-0.324,-3.693,3.479,-2.167,73.333,183.000,1.000
-7629.047,52397.111,57692.724,-2786.220,-10509.049,25524.562,-24847.690,-31781.812,0.013,0.940,-0.324,-3.815,3.448,-2.380,73.333,184.000,1.000
-7525.983,52375.696,56107.025,-3909.980,-10405.224,25660.617,-24661.475,-31551.416,0.011,0.939,-0.322,-3.784,3.387,-2.594,73.333,185.000,1.000
-7471.563,52349.548,54528.927,-5008.008,-10314.126,25808.594,-24457.955,-31311.933,0.013,0.939,-0.321,-3.815,3.387,-2.808,73.333,186.000,1.000
-7446.763,52345.644,52952.001,-6107.975,-10233.429,25962.976,-24246.730,-31063.016,0.012,0.943,-0.321,-3.906,3.265,-3.082,73.333,187.000,1.000
-7394.350,52357.256,51379.012,-7215.714,-10146.956,26108.173,-24047.463,-30817.280,0.012,0.942,-0.318,-3.998,3.235,-3.235,73.333,188.000,1.000
-7298.629,52353.671,49817.110,-8314.451,-10047.533,26238.810,-23863.850,-30583.405,0.012,0.942,-0.320,-3.998,3.235,-3.357,73.333,189.000,1.000
-7204.094,52321.263,48267.625,-9394.252,-9946.020,26364.882,-23680.619,-30355.837,0.012,0.941,-0.322,-4.028,3.143,-3.448,73.333,190.000,1.000
-7152.248,52279.472,46724.475,-10467.540,-9855.721,26496.289,-23485.605,-30123.970,0.009,0.942,-0.319,-4.028,2.991,-3.601,73.333,191.000,1.000
-7126.637,52253.389,45182.673,-11550.798,-9774.763,26629.839,-23285.355,-29886.288,0.008,0.942,-0.318,-3.998,2.869,-3.693,73.333,192.000,1.000
-7078.364,52241.539,43644.882,-12640.658,-9689.802,26755.195,-23094.580,-29650.880,0.007,0.942,-0.321,-3.906,2.716,-3.754,73.333,193.000,1.000
-6992.189,52221.132,42117.482,-13717.550,-9594.288,26870.099,-22915.748,-29423.292,0.005,0.942,-0.323,-3.845,2.472,-3.693,73.333,194.000,1.000
-6903.122,52180.493,40602.083,-14770.846,-9496.166,26983.588,-22736.695,-29199.284,0.003,0.943,-0.321,-3.784,2.319,-3.632,73.333,195.000,1.000
-6846.127,52133.125,39093.934,-15811.196,-9406.064,27103.325,-22547.906,-28971.766,0.004,0.943,-0.325,-3.662,2.197,-3.693,73.333,196.000,1.000
-6811.061,52097.425,37588.735,-16854.875,-9323.231,27225.651,-22354.812,-28740.732,0.001,0.944,-0.322,-3.510,1.923,-3.723,73.333,197.000,1.000
-6761.130,52071.582,36088.115,-17903.002,-9237.751,27340.887,-22169.634,-28513.095,0.000,0.945,-0.321,-3.418,1.617,-3.632,73.333,198.000,1.000
-6684.146,52037.203,34596.781,-18942.387,-9144.424,27445.854,-21994.971,-28293.336,-0.003,0.944,-0.322,-3.235,1.465,-3.510,73.333,199.000,1.000
-6606.096,51984.501,33115.905,-19964.295,-9049.071,27546.890,-21821.393,-28078.091,-0.003,0.943,-0.322,-3.204,1.221,-3.601,73.333,200.000,1.000
-6553.213,51923.839,31641.713,-20975.187,-8960.011,27650.138,-21641.076,-27861.615,-0.004,0.944,-0.322,-3.082,1.038,-3.510,73.333,201.000,1.000
-6517.566,51870.797,30170.671,-21986.444,-8877.310,27753.830,-21457.676,-27643.163,-0.006,0.944,-0.322,-2.991,0.671,-3.479,73.333,202.000,1.000
-6470.522,51826.368,28703.925,-22998.787,-8793.790,27852.096,-21279.974,-27426.765,-0.006,0.944,-0.319,-2.899,0.397,-3.265,73.333,203.000,1.000
-6401.473,51778.207,27245.392,-24001.940,-8704.971,27943.988,-21109.240,-27214.628,-0.007,0.942,-0.317,-2.838,0.122,-3.082,73.333,204.000,1.000
-6329.113,51718.677,25796.635,-24988.572,-8614.145,28035.021,-20937.826,-27003.770,-0.009,0.938,-0.320,-2.655,-0.122,-3.082,73.333,205.000,1.000
-6273.896,51653.904,24355.386,-25963.365,-8526.905,28129.393,-20760.053,-26790.347,-0.009,0.937,-0.315,-2.533,-0.397,-3.021,73.333,206.000,1.000
-6231.870,51594.170,22919.093,-26936.037,-8443.599,28224.791,-20579.569,-26574.697,-0.006,0.936,-0.314,-2.472,-0.671,-2.869,73.333,207.000,1.000
-6183.240,51539.880,21488.129,-27909.196,-8359.724,28315.877,-20404.247,-26360.955,-0.005,0.938,-0.316,-2.167,-1.068,-2.747,73.333,208.000,1.000
-6120.060,51481.728,20064.685,-28876.742,-8272.516,28400.936,-20236.496,-26152.364,-0.007,0.940,-0.318,-1.984,-1.373,-2.747,73.333,209.000,1.000
-6054.861,51413.520,18649.554,-29833.047,-8184.297,28483.117,-20071.438,-25948.358,-0.006,0.943,-0.322,-1.831,-1.587,-2.533,73.333,210.000,1.000
-6001.655,51339.353,17241.222,-30779.747,-8098.877,28565.429,-19903.921,-25746.418,-0.005,0.943,-0.321,-1.617,-1.801,-2.380,73.333,211.000,1.000
-5957.736,51267.360,15838.048,-31722.066,-8016.642,28647.347,-19734.184,-25544.826,-0.005,0.944,-0.323,-1.556,-1.892,-2.289,73.333,212.000,1.000
-5909.397,51199.213,14440.279,-32661.298,-7934.675,28726.552,-19565.832,-25343.264,-0.006,0.941,-0.319,-1.373,-2.045,-2.228,73.333,213.000,1.000
-5850.779,51129.206,13049.458,-33593.430,-7850.843,28802.709,-19400.157,-25141.473,-0.001,0.938,-0.322,-1.221,-2.197,-2.136,73.333,214.000,1.000
-5790.147,51052.788,11666.300,-34514.715,-7766.193,28878.109,-19234.739,-24938.703,0.000,0.938,-0.325,-1.099,-2.411,-2.045,73.333,215.000,1.000
-5737.646,50972.104,10289.886,-35426.368,-7683.152,28954.474,-19067.450,-24734.986,0.001,0.937,-0.324,-0.885,-2.441,-1.892,73.333,216.000,1.000
-5692.836,50892.855,8919.069,-36332.657,-7602.391,29031.150,-18899.560,-24531.521,0.002,0.938,-0.322,-0.671,-2.472,-1.862,73.333,217.000,1.000
-5647.230,50817.066,7553.975,-37235.825,-7522.335,29106.238,-18734.230,-24329.819,0.001,0.939,-0.323,-0.458,-2.594,-1.617,73.333,218.000,1.000
-5595.869,50741.131,6195.759,-38134.079,-7441.290,29178.731,-18572.692,-24130.598,0.000,0.939,-0.320,-0.305,-2.563,-1.526,73.333,219.000,1.000
-5542.123,50660.920,4845.178,-39024.279,-7359.195,29249.090,-18413.071,-23933.534,-0.002,0.939,-0.322,-0.305,-2.716,-1.587,73.333,220.000,1.000
-5491.426,50576.152,3501.789,-39905.505,-7277.297,29317.681,-18252.951,-23737.990,-0.003,0.938,-0.321,-0.214,-2.808,-1.617,73.333,221.000,1.000
-5444.292,50489.686,2164.577,-40779.459,-7196.650,29384.033,-18091.990,-23543.287,-0.001,0.938,-0.327,-0.092,-2.991,-1.678,73.333,222.000,1.000
-5396.934,50403.524,833.007,-41648.129,-7117.262,29447.364,-17931.788,-23349.039,0.000,0.939,-0.327,0.061,-3.113,-1.617,73.333,223.000,1.000
-5346.594,50317.081,-492.672,-42511.503,-7038.398,29507.701,-17773.522,-23155.307,0.000,0.940,-0.324,0.183,-3.174,-1.709,73.333,224.000,1.000
-5294.395,50228.885,-1811.944,-43367.950,-6959.436,29566.034,-17616.707,-22962.441,-0.001,0.941,-0.327,0.122,-3.235,-1.678,73.333,225.000,1.000
-5243.399,50138.214,-3124.639,-44216.679,-6880.493,29623.050,-17460.385,-22770.922,0.001,0.941,-0.331,0.305,-3.265,-1.709,73.333,226.000,1.000
-5195.395,50045.753,-4430.988,-45058.960,-6802.263,29678.798,-17304.348,-22580.631,0.001,0.943,-0.332,0.305,-3.265,-1.740,73.333,227.000,1.000
-5149.707,49952.557,-5731.321,-45896.851,-6725.264,29732.907,-17149.248,-22391.005,0.002,0.940,-0.330,0.427,-3.265,-1.831,73.333,228.000,1.000
-5104.264,49858.697,-7025.727,-46730.820,-6649.181,29784.948,-16995.841,-22201.925,0.001,0.942,-0.331,0.366,-3.296,-1.770,73.333,229.000,1.000
-5057.554,49763.115,-8313.970,-47559.068,-6573.126,29834.779,-16844.306,-22014.247,0.003,0.943,-0.332,0.366,-3.235,-1.831,73.333,230.000,1.000
-5009.899,49664.526,-9595.756,-48379.517,-6496.724,29882.357,-16694.245,-21829.298,0.002,0.944,-0.332,0.275,-3.265,-1.740,73.333,231.000,1.000
-4963.143,49563.489,-10871.017,-49191.921,-6420.611,29928.142,-16544.828,-21647.161,0.002,0.944,-0.332,0.275,-3.326,-1.862,73.333,232.000,1.000
-4918.584,49462.448,-12139.910,-49997.837,-6345.588,29972.935,-16395.428,-21466.413,0.003,0.946,-0.333,0.092,-3.296,-1.953,73.333,233.000,1.000
-4875.126,49363.165,-13402.549,-50798.561,-6271.427,30017.041,-16246.270,-21285.766,0.002,0.947,-0.335,0.000,-3.174,-1.831,73.333,234.000,1.000
-4830.251,49264.641,-14658.834,-51593.618,-6197.015,30059.875,-16098.231,-21105.393,0.003,0.948,-0.333,-0.061,-3.052,-1.801,73.333,235.000,1.000
-4783.055,49163.879,-15908.713,-52381.564,-6121.906,30100.414,-15951.758,-20926.378,0.004,0.948,-0.332,-0.092,-3.082,-1.740,73.333,236.000,1.000
-4735.778,49059.425,-17152.504,-53161.978,-6047.195,30138.497,-15806.116,-20748.785,0.000,0.947,-0.331,-0.244,-3.052,-1.770,73.333,237.000,1.000
-4691.365,48952.773,-18390.769,-53936.418,-5974.371,30174.624,-15660.449,-20571.608,0.001,0.947,-0.329,-0.305,-2.930,-1.770,73.333,238.000,1.000
-4649.555,48846.321,-19623.700,-54706.643,-5903.404,30208.926,-15514.982,-20394.279,0.000,0.946,-0.330,-0.427,-2.930,-1.770,73.333,239.000,1.000
-4606.732,48740.814,-20850.753,-55472.110,-5832.610,30241.193,-15370.557,-20217.455,0.000,0.946,-0.335,-0.580,-2.777,-1.831,73.333,240.000,1.000
-4560.368,48634.568,-22071.162,-56230.452,-5760.701,30271.339,-15227.436,-20042.456,-0.002,0.945,-0.333,-0.641,-2.777,-1.801,73.333,241.000,1.000
-4512.626,48525.942,-23284.830,-56980.569,-5688.418,30299.923,-15084.945,-19869.694,-0.001,0.944,-0.330,-0.732,-2.747,-1.923,73.333,242.000,1.000
-4467.879,48415.415,-24492.543,-57724.457,-5617.597,30327.568,-14942.679,-19698.433,-0.001,0.942,-0.331,-0.763,-2.747,-1.953,73.333,243.000,1.000
-4427.016,48304.659,-25695.046,-58464.899,-5548.766,30354.325,-14801.319,-19527.756,-0.003,0.943,-0.327,-0.854,-2.655,-1.953,73.333,244.000,1.000
-4386.183,48194.152,-26892.040,-59201.844,-5480.401,30380.088,-14661.744,-19357.290,-0.002,0.942,-0.334,-0.824,-2.655,-2.014,73.333,245.000,1.000
-4341.862,48082.110,-28082.544,-59932.473,-5410.950,30405.011,-14523.826,-19187.247,-0.002,0.942,-0.333,-0.854,-2.594,-2.136,73.333,246.000,1.000
-4295.602,47966.986,-29266.169,-60654.824,-5340.893,30429.838,-14386.383,-19017.699,-0.002,0.939,-0.332,-0.885,-2.533,-2.014,73.333,247.000,1.000
-4251.718,47849.831,-30443.615,-61370.306,-5272.042,30455.153,-14248.543,-18848.661,-0.004,0.938,-0.334,-1.007,-2.533,-2.014,73.333,248.000,1.000
-4211.245,47733.266,-31615.781,-62081.789,-5205.112,30480.469,-14110.742,-18680.576,-0.005,0.936,-0.334,-0.885,-2.441,-1.892,73.333,249.000,1.000
-4170.627,47618.460,-32782.732,-62789.987,-5138.909,30504.388,-13974.148,-18514.178,-0.007,0.936,-0.334,-0.793,-2.380,-1.862,73.333,250.000,1.000
-4126.608,47503.771,-33943.724,-63492.732,-5072.025,30525.576,-13839.137,-18349.700,-0.006,0.936,-0.334,-0.824,-2.319,-1.923,73.333,251.000,1.000
-4080.590,47387.582,-35098.071,-64187.588,-5004.547,30544.267,-13704.498,-18185.857,-0.006,0.938,-0.333,-0.641,-2.350,-1.984,73.333,252.000,1.000
-4036.575,47270.810,-36245.862,-64874.721,-4937.668,30561.848,-13568.968,-18020.747,-0.007,0.938,-0.332,-0.610,-2.289,-1.923,73.333,253.000,1.000
-3995.818,47155.328,-37387.730,-65556.625,-4871.951,30578.983,-13433.091,-17853.923,-0.008,0.937,-0.334,-0.610,-2.258,-1.831,73.333,254.000,1.000
-3955.641,47040.652,-38524.043,-66235.305,-4806.660,30594.889,-13298.700,-17687.111,-0.007,0.938,-0.335,-0.580,-2.258,-1.770,73.333,255.000,1.000
-3913.546,46923.487,-39654.587,-66910.349,-4740.979,30608.417,-13166.609,-17522.557,-0.006,0.938,-0.336,-0.519,-2.167,-1.801,73.333,256.000,1.000
-3870.864,46801.710,-40779.051,-67579.914,-4675.300,30619.943,-13035.359,-17360.403,-0.006,0.938,-0.333,-0.305,-2.197,-1.770,73.333,257.000,1.000
-3830.839,46676.927,-41897.569,-68243.247,-4610.747,30631.004,-12903.043,-17198.940,-0.007,0.938,-0.337,-0.244,-2.258,-1.740,73.333,258.000,1.000
-3793.646,46552.787,-43010.466,-68900.986,-4547.530,30642.617,-12769.578,-17036.931,-0.006,0.939,-0.335,-0.305,-2.075,-1.801,73.333,259.000,1.000
-3755.529,46431.615,-44117.602,-69553.198,-4484.431,30654.704,-12636.547,-16874.823,-0.007,0.938,-0.334,-0.275,-1.892,-1.831,73.333,260.000,1.000
-3713.595,46312.493,-45218.432,-70198.690,-4420.317,30666.542,-12505.353,-16714.008,-0.006,0.938,-0.335,-0.153,-1.770,-1.862,73.333,261.000,1.000
-3669.766,46193.315,-46312.731,-70836.626,-4355.595,30678.024,-12375.834,-16554.914,-0.004,0.935,-0.332,-0.122,-1.770,-1.892,73.333,262.000,1.000
-3628.326,46073.319,-47401.008,-71468.133,-4291.680,30689.639,-12247.073,-16396.726,-0.003,0.936,-0.333,0.000,-1.740,-1.953,73.333,263.000,1.000
-3590.558,45952.969,-48484.047,-72095.372,-4229.258,30701.352,-12119.058,-16238.775,-0.003,0.935,-0.332,0.031,-1.587,-1.923,73.333,264.000,1.000
-3553.739,45832.283,-49562.136,-72719.285,-4167.676,30712.218,-11992.942,-16081.579,-0.003,0.935,-0.331,0.153,-1.465,-1.831,73.333,265.000,1.000
-3515.366,45710.097,-50634.944,-73338.941,-4106.113,30721.083,-11869.543,-15926.345,-0.005,0.937,-0.332,0.183,-1.343,-1.770,73.333,266.000,1.000
-3476.749,45586.058,-51702.012,-73952.956,-4044.722,30727.939,-11747.848,-15773.194,-0.004,0.937,-0.334,0.397,-1.160,-1.801,73.333,267.000,1.000
-3440.992,45462.110,-52763.211,-74561.205,-3984.235,30733.716,-11625.892,-15620.819,-0.003,0.938,-0.330,0.458,-1.099,-1.831,73.333,268.000,1.000
-3408.210,45341.389,-53818.643,-75164.534,-3924.732,30739.236,-11502.798,-15467.717,-0.004,0.939,-0.330,0.427,-0.885,-1.831,73.333,269.000,1.000
-3374.749,45225.614,-54868.257,-75763.116,-3865.344,30744.862,-11379.275,-15313.409,-0.006,0.937,-0.332,0.397,-0.763,-1.740,73.333,270.000,1.000
-3337.394,45113.341,-55911.839,-76355.882,-3805.338,30750.566,-11256.274,-15158.614,-0.005,0.940,-0.334,0.305,-0.732,-1.831,73.333,271.000,1.000
-3297.052,45001.856,-56949.353,-76941.686,-3745.066,30756.493,-11133.730,-15004.066,-0.006,0.938,-0.331,0.519,-0.519,-1.801,73.333,272.000,1.000
-3257.288,44889.714,-57981.125,-77520.917,-3685.509,30762.576,-11011.288,-14850.131,-0.005,0.938,-0.333,0.610,-0.366,-1.831,73.333,273.000,1.000
-3219.980,44776.916,-59007.504,-78095.359,-3627.031,30767.984,-10889.388,-14697.214,-0.003,0.938,-0.332,0.641,-0.305,-1.892,73.333,274.000,1.000
-3183.875,44663.129,-60028.499,-78666.545,-3569.019,30771.557,-10769.057,-14546.012,-0.004,0.939,-0.332,0.641,-0.031,-2.014,73.333,275.000,1.000
-3147.345,44546.315,-61043.890,-79234.722,-3510.828,30772.414,-10650.993,-14397.366,-0.003,0.937,-0.332,0.671,0.275,-1.953,73.333,276.000,1.000
-3111.138,44424.596,-62053.614,-79799.222,-3452.665,30770.604,-10534.864,-14251.287,-0.002,0.937,-0.331,0.702,0.397,-1.984,73.333,277.000,1.000
-3077.248,44298.372,-63057.956,-80359.593,-3395.324,30766.577,-10419.789,-14106.794,-0.001,0.939,-0.332,0.732,0.427,-1.923,73.333,278.000,1.000
-3045.869,44169.825,-64057.213,-80915.834,-3339.164,30760.409,-10305.151,-13962.656,-0.002,0.940,-0.327,0.763,0.641,-1.984,73.333,279.000,1.000
-3015.086,44040.458,-65051.254,-81467.941,-3283.665,30751.899,-10190.912,-13818.434,-0.002,0.941,-0.334,0.793,0.793,-2.075,73.333,280.000,1.000
-2983.624,43909.224,-66039.607,-82015.981,-3228.098,30740.684,-10077.492,-13675.251,-0.002,0.939,-0.336,0.763,0.916,-2.014,73.333,281.000,1.000
-2952.799,43774.273,-67021.907,-82560.386,-3172.324,30726.737,-9965.181,-13534.753,-0.004,0.939,-0.331,0.763,1.129,-2.045,73.333,282.000,1.000
-2924.880,43635.452,-67998.321,-83101.896,-3116.829,30710.457,-9853.876,-13397.688,-0.003,0.938,-0.332,0.763,1.343,-2.045,73.333,283.000,1.000
-2900.090,43494.590,-68969.481,-83640.762,-3062.157,30692.464,-9743.300,-13263.416,-0.003,0.936,-0.332,0.824,1.556,-2.014,73.333,284.000,1.000
-2876.283,43353.672,-69935.971,-84176.227,-3008.443,30673.430,-9633.316,-13130.532,-0.006,0.935,-0.334,0.977,1.709,-1.984,73.333,285.000,1.000
-2851.430,43212.707,-70897.937,-84707.074,-2955.529,30653.649,-9523.922,-12998.000,-0.005,0.934,-0.331,0.977,1.770,-2.014,73.333,286.000,1.000
-2825.592,43070.413,-71855.162,-85232.427,-2903.313,30633.322,-9414.826,-12865.321,-0.004,0.934,-0.333,1.038,1.862,-1.984,73.333,287.000,1.000
-2799.939,42926.018,-72807.403,-85752.058,-2851.832,30612.528,-9305.694,-12732.565,-0.007,0.936,-0.333,1.099,2.075,-1.984,73.333,288.000,1.000
-2774.650,42779.934,-73754.535,-86265.979,-2800.983,30590.951,-9196.706,-12600.261,-0.006,0.935,-0.325,1.068,2.228,-2.045,73.333,289.000,1.000
-2748.851,42632.805,-74696.513,-86774.163,-2750.448,30567.845,-9088.643,-12469.095,-0.006,0.937,-0.326,1.068,2.258,-2.136,73.333,290.000,1.000
-2722.427,42483.791,-75633.390,-87276.876,-2700.084,30542.058,-8982.354,-12339.809,-0.007,0.938,-0.326,1.068,2.319,-2.197,73.333,291.000,1.000
-2697.075,42331.185,-76565.278,-87774.932,-2650.153,30512.922,-8877.937,-12212.718,-0.008,0.938,-0.323,1.190,2.441,-2.289,73.333,292.000,1.000
-2674.763,42174.362,-77492.241,-88269.507,-2601.030,30480.657,-8774.780,-12087.617,-0.008,0.938,-0.323,1.160,2.563,-2.319,73.333,293.000,1.000
-2655.295,42014.947,-78414.100,-88761.121,-2552.673,30446.401,-8671.866,-11963.602,-0.008,0.939,-0.325,1.129,2.563,-2.380,73.333,294.000,1.000
-2636.202,41856.059,-79330.373,-89248.904,-2504.473,30412.082,-8567.989,-11839.016,-0.009,0.938,-0.324,1.099,2.563,-2.350,73.333,295.000,1.000
-2615.207,41699.790,-80240.592,-89731.493,-2455.801,30379.183,-8462.421,-11712.640,-0.009,0.940,-0.327,1.068,2.594,-2.472,73.333,296.000,1.000
-2592.339,41546.201,-81144.708,-90208.375,-2406.631,30347.979,-8355.356,-11584.561,-0.009,0.942,-0.326,0.946,2.747,-2.594,73.333,297.000,1.000
-2569.165,41393.969,-82043.116,-90680.168,-2357.496,30317.671,-8247.809,-11456.018,-0.007,0.942,-0.325,0.885,2.808,-2.625,73.333,298.000,1.000
-2546.574,41241.763,-82936.242,-91147.570,-2308.875,30287.401,-8140.958,-11328.256,-0.010,0.943,-0.326,0.916,2.838,-2.686,73.333,299.000,1.000
-2524.306,41088.958,-83824.263,-91610.610,-2260.817,30256.903,-8035.667,-11201.800,-0.009,0.943,-0.324,0.854,2.899,-2.747,73.333,300.000,1.000
-2502.225,40934.903,-84707.278,-92069.013,-2213.246,30225.935,-7932.390,-11076.853,-0.009,0.943,-0.322,0.641,2.899,-2.747,73.333,301.000,1.000
-2480.909,40779.256,-85585.457,-92522.522,-2166.262,30194.338,-7830.807,-10953.266,-0.009,0.942,-0.323,0.641,2.930,-2.716,73.333,302.000,1.000
-2460.742,40622.442,-86458.941,-92971.116,-2120.065,30161.922,-7730.218,-10830.748,-0.010,0.944,-0.327,0.580,2.869,-2.716,73.333,303.000,1.000
-2441.162,40465.332,-87327.696,-93415.141,-2074.714,30128.106,-7630.384,-10709.204,-0.012,0.945,-0.322,0.641,2.838,-2.808,73.333,304.000,1.000
-2421.000,40308.789,-88191.489,-93855.085,-2029.999,30092.339,-7531.510,-10588.466,-0.010,0.945,-0.325,0.580,2.838,-2.808,73.333,305.000,1.000
-2399.176,40153.097,-89050.002,-94291.092,-1985.566,30054.700,-7433.591,-10467.985,-0.011,0.947,-0.327,0.397,2.899,-2.777,73.333,306.000,1.000
-2375.278,39998.355,-89902.936,-94722.651,-1941.074,30016.333,-7335.985,-10346.761,-0.012,0.946,-0.324,0.275,2.869,-2.747,73.333,307.000,1.000
-2349.802,39844.521,-90750.175,-95149.204,-1896.382,29978.491,-7237.971,-10224.334,-0.010,0.946,-0.325,0.031,2.869,-2.686,73.333,308.000,1.000
-2323.953,39691.139,-91591.880,-95570.807,-1851.630,29941.483,-7139.386,-10101.387,-0.013,0.946,-0.327,-0.153,2.838,-2.686,73.333,309.000,1.000
-2299.123,39537.606,-92428.398,-95988.014,-1807.118,29904.794,-7040.702,-9979.112,-0.015,0.945,-0.326,-0.244,2.838,-2.625,73.333,310.000,1.000
-2276.204,39383.298,-93260.026,-96401.395,-1763.082,29867.524,-6942.731,-9858.521,-0.014,0.943,-0.324,-0.397,2.838,-2.625,73.333,311.000,1.000
-2255.326,39228.165,-94086.830,-96811.202,-1719.552,29829.246,-6845.943,-9739.886,-0.015,0.941,-0.324,-0.366,2.686,-2.686,73.333,312.000,1.000
-2236.060,39072.634,-94908.682,-97217.603,-1676.437,29789.978,-6750.337,-9623.051,-0.016,0.940,-0.323,-0.397,2.594,-2.625,73.333,313.000,1.000
-2217.753,38917.133,-95725.390,-97620.768,-1633.599,29749.766,-6655.656,-9507.873,-0.016,0.943,-0.323,-0.427,2.502,-2.655,73.333,314.000,1.000
-2199.842,38762.054,-96536.781,-98020.619,-1590.873,29708.693,-6561.567,-9394.146,-0.018,0.947,-0.325,-0.336,2.380,-2.533,73.333,315.000,1.000
-2181.810,38607.510,-97342.834,-98416.665,-1548.181,29666.847,-6467.827,-9281.458,-0.019,0.948,-0.323,-0.549,2.228,-2.502,73.333,316.000,1.000
-2163.088,38453.684,-98143.703,-98808.043,-1505.600,29624.695,-6374.179,-9168.796,-0.020,0.947,-0.324,-0.610,2.045,-2.380,73.333,317.000,1.000
-2143.328,38300.441,-98939.624,-99194.221,-1463.346,29582.698,-6280.496,-9055.076,-0.019,0.944,-0.324,-0.702,2.045,-2.258,73.333,318.000,1.000
-2122.909,38146.724,-99730.798,-99575.540,-1421.677,29540.752,-6187.024,-8939.922,-0.019,0.940,-0.324,-0.702,1.923,-2.350,73.333,319.000,1.000
-2102.748,37991.438,-100517.324,-99952.833,-1380.754,29498.485,-6094.403,-8823.872,-0.020,0.936,-0.321,-0.793,1.770,-2.350,73.333,320.000,1.000
-2083.208,37834.656,-101299.164,-100326.489,-1340.527,29455.643,-6003.355,-8708.186,-0.019,0.930,-0.319,-0.610,1.587,-2.289,73.333,321.000,1.000
-2063.599,37678.092,-102076.107,-100695.836,-1300.697,29412.631,-5913.907,-8593.782,-0.019,0.929,-0.320,-0.610,1.556,-2.319,73.333,322.000,1.000
-2042.800,37523.664,-102847.868,-101059.868,-1260.882,29370.127,-5825.199,-8480.776,-0.021,0.932,-0.321,-0.336,1.526,-2.197,73.333,323.000,1.000
-2020.342,37371.924,-103614.308,-101418.408,-1220.886,29328.260,-5736.096,-8368.848,-0.023,0.935,-0.325,-0.153,1.373,-2.228,73.333,324.000,1.000
-1996.955,37221.910,-104375.542,-101772.419,-1180.821,29286.285,-5646.214,-8257.705,-0.023,0.939,-0.322,-0.122,1.160,-2.014,73.333,325.000,1.000
-1973.987,37071.709,-105131.792,-102123.273,-1140.949,29242.829,-5556.299,-8147.317,-0.023,0.942,-0.323,-0.061,1.038,-2.014,73.333,326.000,1.000
-1952.535,36919.918,-105883.212,-102471.785,-1101.468,29197.105,-5467.360,-8037.588,-0.023,0.941,-0.325,-0.061,0.885,-1.923,73.333,327.000,1.000
-1933.168,36766.055,-106629.974,-102818.150,-1062.572,29149.187,-5379.981,-7928.648,-0.024,0.943,-0.321,-0.122,0.702,-1.892,73.333,328.000,1.000
-1916.008,36610.208,-107372.286,-103162.085,-1024.465,29099.561,-5294.015,-7820.893,-0.025,0.942,-0.321,0.000,0.458,-1.831,73.333,329.000,1.000
-1900.550,36453.346,-108110.137,-103502.678,-987.101,29049.115,-5208.573,-7714.238,-0.028,0.942,-0.319,0.031,0.244,-1.831,73.333,330.000,1.000
-1885.281,36297.313,-108843.135,-103838.492,-949.995,28998.985,-5122.591,-7607.872,-0.029,0.943,-0.322,0.153,0.061,-1.892,73.333,331.000,1.000
-1868.409,36144.120,-109570.719,-104168.344,-912.484,28950.242,-5035.554,-7500.815,-0.030,0.946,-0.324,0.153,-0.244,-1.770,73.333,332.000,1.000
-1849.467,35993.923,-110292.674,-104492.610,-874.335,28902.673,-4948.142,-7393.237,-0.034,0.950,-0.324,0.092,-0.488,-1.862,73.333,333.000,1.000
-1829.787,35844.373,-111009.336,-104813.242,-835.942,28854.511,-4861.745,-7286.450,-0.033,0.953,-0.322,0.092,-0.793,-1.831,73.333,334.000,1.000
-1811.034,35692.845,-111721.243,-105132.045,-797.900,28804.014,-4777.203,-7181.340,-0.033,0.954,-0.320,-0.092,-1.190,-1.770,73.333,335.000,1.000
-1793.476,35538.451,-112428.767,-105449.097,-760.555,28750.606,-4694.293,-7077.558,-0.033,0.957,-0.321,-0.214,-1.343,-1.678,73.333,336.000,1.000
-1776.106,35382.390,-113131.991,-105762.901,-723.885,28695.013,-4612.156,-6974.000,-0.033,0.955,-0.322,-0.366,-1.587,-1.617,73.333,337.000,1.000
-1758.094,35226.204,-113830.807,-106072.203,-687.689,28638.248,-4530.204,-6870.357,-0.031,0.952,-0.319,-0.366,-1.770,-1.556,73.333,338.000,1.000
-1739.529,35070.510,-114525.101,-106377.094,-651.836,28581.004,-4448.245,-6767.542,-0.030,0.950,-0.319,-0.519,-1.923,-1.495,73.333,339.000,1.000
-1720.988,34915.452,-115214.857,-106678.397,-616.324,28523.868,-4366.050,-6666.532,-0.031,0.948,-0.318,-0.549,-2.228,-1.495,73.333,340.000,1.000
-1702.998,34760.722,-115900.179,-106976.794,-581.183,28466.929,-4283.715,-6567.856,-0.031,0.946,-0.318,-0.610,-2.563,-1.343,73.333,341.000,1.000
-1686.005,34605.772,-116581.185,-107272.536,-546.370,28409.768,-4201.969,-6471.718,-0.031,0.943,-0.318,-0.793,-2.777,-1.282,73.333,342.000,1.000
-1670.198,34450.194,-117257.959,-107565.585,-511.815,28351.684,-4121.684,-6378.219,-0.032,0.941,-0.321,-0.763,-2.991,-1.221,73.333,343.000,1.000
-1655.322,34294.189,-117931.363,-107855.627,-477.536,28292.000,-4043.105,-6287.049,-0.033,0.942,-0.318,-0.793,-3.204,-1.129,73.333,344.000,1.000
-1640.799,34138.908,-118608.660,-108141.993,-443.656,28230.400,-3965.860,-6197.265,-0.031,0.944,-0.320,-0.702,-3.326,-1.038,73.333,345.000,1.000
-1625.631,33985.932,-119314.974,-108423.664,-410.284,28167.174,-3889.380,-6107.600,-0.028,0.942,-0.318,-0.641,-3.510,-0.916,73.333,346.000,1.000
-1608.670,33836.765,-120094.564,-108699.464,-377.311,28103.902,-3812.823,-6016.460,-0.026,0.941,-0.318,-0.702,-3.510,-0.793,73.333,347.000,1.000
-1589.627,33691.451,-120988.928,-108969.016,-344.440,28042.643,-3735.429,-5922.773,-0.024,0.941,-0.318,-0.763,-3.571,-0.641,73.333,348.000,1.000
-1569.754,33547.881,-122017.831,-109233.382,-311.423,27984.348,-3657.194,-5827.055,-0.021,0.939,-0.319,-0.610,-3.601,-0.519,73.333,349.000,1.000
-1550.933,33403.528,-123191.122,-109494.353,-278.178,27928.540,-3578.870,-5731.124,-0.017,0.941,-0.320,-0.519,-3.601,-0.427,73.333,350.000,1.000
-1533.869,33257.380,-124520.271,-109753.114,-244.748,27873.870,-3501.331,-5636.722,-0.018,0.943,-0.319,-0.488,-3.601,-0.305,73.333,351.000,1.000
-1517.658,33110.466,-125992.141,-110009.580,-211.236,27819.155,-3424.887,-5544.124,-0.017,0.942,-0.318,-0.397,-3.510,0.000,73.333,352.000,1.000
-1501.028,32964.114,-127540.231,-110263.135,-177.858,27763.511,-3349.514,-5452.462,-0.016,0.941,-0.320,-0.275,-3.387,-0.061,73.333,353.000,1.000
-1483.648,32818.245,-129068.680,-110513.560,-144.948,27706.297,-3275.174,-5360.650,-0.015,0.942,-0.321,-0.153,-3.235,0.061,73.333,354.000,1.000
-1466.351,32671.462,-130514.408,-110761.167,-112.866,27647.339,-3201.901,-5267.944,-0.012,0.941,-0.320,-0.061,-3.082,0.092,73.333,355.000,1.000
-1450.208,32522.078,-131879.633,-111006.297,-81.839,27586.766,-3129.856,-5174.459,-0.011,0.938,-0.321,0.031,-2.869,0.000,73.333,356.000,1.000
-1435.636,32369.985,-133203.033,-111248.661,-51.746,27525.314,-3058.884,-5080.779,-0.011,0.938,-0.322,0.092,-2.747,0.244,73.333,357.000,1.000
-1422.349,32216.831,-134511.793,-111487.509,-22.134,27464.023,-2988.409,-4987.514,-0.013,0.936,-0.320,0.122,-2.502,0.122,73.333,358.000,1.000
-1409.756,32064.516,-135806.852,-111722.225,7.499,27403.631,-2917.791,-4894.963,-0.015,0.936,-0.322,0.244,-2.441,0.000,73.333,359.000,1.000
-1397.122,31914.174,-137081.792,-111952.675,37.494,27344.527,-2846.516,-4802.780,-0.014,0.936,-0.322,0.519,-2.289,0.000,73.333,360.000,1.000
-1383.501,31765.829,-138339.809,-112179.139,67.919,27286.590,-2774.238,-4710.288,-0.016,0.934,-0.321,0.549,-2.136,0.031,73.333,361.000,1.000
-1368.155,31619.060,-139588.556,-112401.888,98.576,27229.427,-2700.801,-4616.886,-0.016,0.935,-0.322,0.854,-2.136,-0.183,73.333,362.000,1.000
-1351.162,31473.154,-140828.364,-112621.088,129.089,27172.363,-2626.685,-4522.722,-0.018,0.933,-0.321,0.977,-2.045,-0.244,73.333,363.000,1.000
-1333.465,31327.141,-142052.771,-112836.935,159.097,27114.623,-2553.003,-4428.809,-0.017,0.931,-0.317,0.977,-1.923,-0.275,73.333,364.000,1.000
-1316.274,31180.444,-143257.958,-113049.714,188.415,27055.876,-2480.752,-4336.232,-0.020,0.930,-0.320,1.190,-1.770,-0.458,73.333,365.000,1.000
-1300.230,31032.858,-144447.180,-113259.795,217.117,26996.111,-2410.233,-4245.473,-0.021,0.931,-0.319,1.282,-1.770,-0.580,73.333,366.000,1.000
-1285.227,30884.440,-145625.786,-113467.537,245.535,26935.505,-2341.155,-4156.077,-0.021,0.931,-0.319,1.404,-1.770,-0.641,73.333,367.000,1.000
-1270.762,30735.173,-146796.087,-113673.177,274.015,26874.065,-2273.344,-4067.308,-0.021,0.933,-0.320,1.434,-1.648,-0.824,73.333,368.000,1.000
-1256.266,30585.096,-147957.415,-113876.357,302.624,26811.871,-2206.667,-3978.535,-0.018,0.936,-0.320,1.587,-1.617,-0.916,73.333,369.000,1.000
-1241.401,30434.604,-149107.905,-114076.096,331.145,26749.491,-2140.580,-3889.238,-0.019,0.937,-0.323,1.678,-1.556,-0.946,73.333,370.000,1.000
-1226.182,30283.841,-150245.477,-114271.661,359.251,26687.210,-2074.555,-3799.656,-0.019,0.939,-0.324,1.678,-1.434,-0.946,73.333,371.000,1.000
-1210.899,30132.912,-151368.689,-114463.012,386.725,26624.760,-2008.412,-3710.763,-0.019,0.940,-0.322,1.801,-1.526,-0.977,73.333,372.000,1.000
-1195.835,29982.131,-152479.054,-114650.515,413.583,26561.620,-1942.200,-3623.710,-0.020,0.940,-0.323,1.831,-1.434,-0.977,73.333,373.000,1.000
-1181.084,29831.955,-153580.932,-114834.533,440.056,26497.482,-1875.984,-3539.139,-0.021,0.941,-0.323,1.862,-1.343,-0.977,73.333,374.000,1.000
-1166.667,29683.011,-154676.262,-115015.484,466.435,26432.545,-1809.792,-3456.899,-0.022,0.944,-0.323,1.923,-1.282,-0.977,73.333,375.000,1.000
-1152.558,29535.589,-155760.748,-115193.963,492.892,26367.160,-1743.658,-3376.349,-0.021,0.947,-0.327,1.892,-1.221,-1.007,73.333,376.000,1.000
-1138.701,29389.561,-156827.852,-115370.322,519.534,26301.890,-1677.498,-3296.286,-0.023,0.948,-0.327,1.770,-1.190,-1.099,73.333,377.000,1.000
-1124.946,29244.232,-157877.398,-115544.382,546.498,26237.169,-1611.334,-3215.388,-0.025,0.951,-0.326,1.770,-1.068,-0.977,73.333,378.000,1.000
-1111.032,29098.599,-158917.472,-115715.536,573.848,26172.925,-1545.389,-3132.929,-0.025,0.949,-0.327,1.556,-0.916,-0.977,73.333,379.000,1.000
-1096.929,28951.932,-159957.300,-115883.453,601.318,26108.547,-1480.039,-3049.276,-0.025,0.947,-0.325,1.495,-0.977,-0.946,73.333,380.000,1.000
-1083.276,28803.212,-160999.173,-116049.078,628.170,26042.577,-1416.112,-2966.306,-0.027,0.942,-0.325,1.404,-0.946,-0.916,73.333,381.000,1.000
-1071.481,28650.981,-162032.360,-116214.506,653.468,25973.274,-1354.754,-2886.634,-0.025,0.942,-0.324,1.282,-0.916,-0.885,73.333,382.000,1.000
-1062.903,28494.048,-163033.393,-116381.440,676.592,25899.549,-1296.767,-2812.222,-0.024,0.942,-0.329,1.282,-0.946,-0.916,73.333,383.000,1.000
-1057.697,28332.764,-163975.242,-116549.610,697.653,25821.852,-1241.820,-2743.083,-0.022,0.942,-0.334,1.251,-0.885,-0.793,73.333,384.000,1.000
-1054.630,28169.506,-164836.890,-116716.980,717.457,25742.239,-1188.481,-2677.105,-0.021,0.946,-0.332,1.251,-0.854,-0.824,73.333,385.000,1.000
-1051.771,28007.155,-165609.685,-116881.139,737.033,25662.997,-1135.087,-2611.309,-0.022,0.949,-0.330,1.129,-0.763,-0.702,73.333,386.000,1.000
-1047.430,27847.813,-166304.895,-117040.068,757.189,25585.736,-1080.261,-2542.928,-0.021,0.950,-0.329,1.068,-0.671,-0.641,73.333,387.000,1.000
-1040.649,27692.148,-166957.351,-117192.541,778.285,25510.910,-1023.346,-2470.472,-0.020,0.949,-0.330,0.916,-0.549,-0.458,73.333,388.000,1.000
-1031.319,27539.647,-167610.890,-117338.494,800.227,25437.889,-964.731,-2394.289,-0.019,0.946,-0.331,0.946,-0.519,-0.366,73.333,389.000,1.000
-1020.305,27389.412,-168290.701,-117479.045,822.598,25365.704,-905.654,-2316.072,-0.019,0.945,-0.334,0.793,-0.397,-0.244,73.333,390.000,1.000
-1009.198,27240.197,-168990.413,-117615.945,844.861,25293.483,-847.573,-2237.925,-0.017,0.945,-0.327,0.732,-0.275,-0.214,73.333,391.000,1.000
-999.487,27091.106,-169687.932,-117750.462,866.665,25221.035,-791.182,-2161.020,-0.017,0.943,-0.325,0.824,-0.061,-0.061,73.333,392.000,1.000
-991.561,26941.981,-170371.750,-117882.774,887.951,25148.662,-736.120,-2085.197,-0.021,0.940,-0.328,0.793,0.122,-0.061,73.333,393.000,1.000
-984.591,26793.023,-171047.827,-118012.323,908.840,25076.550,-681.481,-2009.627,-0.024,0.942,-0.329,0.763,0.122,0.031,73.333,394.000,1.000
-977.373,26644.485,-171723.259,-118138.731,929.511,25004.600,-626.513,-1933.834,-0.026,0.941,-0.330,0.854,0.122,-0.092,73.333,395.000,1.000
-969.000,26496.209,-172392.748,-118262.203,950.129,24932.292,-570.999,-1858.317,-0.029,0.939,-0.331,0.854,0.092,-0.122,73.333,396.000,1.000
-959.132,26347.926,-173045.699,-118382.947,970.828,24859.213,-515.062,-1783.797,-0.029,0.938,-0.329,0.885,-0.061,-0.153,73.333,397.000,1.000
-947.883,26199.526,-173682.544,-118500.740,991.657,24785.296,-459.053,-1710.609,-0.027,0.935,-0.330,0.916,-0.031,-0.336,73.333,398.000,1.000
-935.569,26051.320,-174316.203,-118615.033,1012.538,24710.814,-403.237,-1638.588,-0.028,0.934,-0.333,0.977,-0.092,-0.397,73.333,399.000,1.000
-922.721,25903.966,-174956.143,-118725.359,1033.316,24636.337,-347.514,-1567.234,-0.026,0.934,-0.333,1.129,-0.244,-0.336,73.333,400.000,1.000
-910.129,25757.329,-175597.378,-118831.665,1053.861,24562.202,-291.680,-1496.265,-0.024,0.935,-0.329,1.190,-0.214,-0.153,73.333,401.000,1.000
-898.668,25610.496,-176228.277,-118934.239,1074.184,24488.541,-235.622,-1425.571,-0.024,0.934,-0.327,1.221,-0.214,-0.214,73.333,402.000,1.000
-888.709,25462.701,-176846.073,-119033.630,1094.344,24415.253,-179.506,-1355.171,-0.025,0.935,-0.326,1.251,-0.183,-0.214,73.333,403.000,1.000
-879.674,25314.242,-177459.008,-119130.332,1114.357,24342.169,-123.620,-1285.098,-0.025,0.937,-0.329,1.465,-0.275,-0.153,73.333,404.000,1.000
-870.566,25166.437,-178073.263,-119224.540,1134.270,24269.332,-68.158,-1215.364,-0.025,0.937,-0.331,1.556,-0.183,-0.061,73.333,405.000,1.000
-860.868,25020.143,-178684.126,-119316.447,1154.116,24196.423,-13.386,-1146.441,-0.024,0.937,-0.329,1.556,-0.214,-0.031,73.333,406.000,1.000
-850.757,24875.337,-179282.573,-119406.332,1173.836,24122.860,40.516,-1078.832,-0.024,0.936,-0.328,1.556,-0.153,-0.031,73.333,407.000,1.000
-840.416,24731.551,-179867.655,-119494.236,1193.387,24048.372,93.731,-1012.249,-0.023,0.938,-0.329,1.648,-0.153,0.061,73.333,408.000,1.000
-829.625,24588.407,-180447.635,-119579.736,1212.881,23973.396,146.886,-945.345,-0.022,0.935,-0.331,1.648,-0.183,0.183,73.333,409.000,1.000
-818.388,24445.732,-181028.840,-119662.432,1232.402,23898.719,200.511,-876.712,-0.020,0.936,-0.331,1.678,-0.122,0.244,73.333,410.000,1.000
-807.441,24302.786,-181608.228,-119742.562,1251.766,23824.407,254.297,-806.443,-0.021,0.938,-0.332,1.648,-0.122,0.305,73.333,411.000,1.000
-797.888,24158.548,-182178.657,-119820.678,1270.712,23749.919,307.471,-735.918,-0.021,0.938,-0.327,1.678,-0.122,0.427,73.333,412.000,1.000
-790.350,24012.427,-182739.174,-119897.064,1289.204,23674.602,359.539,-666.702,-0.023,0.938,-0.330,1.740,-0.122,0.458,73.333,413.000,1.000
-784.425,23864.803,-183296.037,-119971.516,1307.462,23598.072,410.625,-599.578,-0.025,0.939,-0.329,1.740,-0.031,0.549,73.333,414.000,1.000
-778.964,23717.119,-183853.360,-120043.545,1325.766,23520.563,461.239,-534.225,-0.024,0.940,-0.332,1.831,-0.244,0.488,73.333,415.000,1.000
-772.735,23570.781,-184407.147,-120112.761,1344.261,23442.615,511.767,-469.911,-0.024,0.940,-0.333,1.801,-0.336,0.458,73.333,416.000,1.000
-765.018,23426.529,-184950.214,-120178.988,1362.917,23364.906,562.361,-406.024,-0.022,0.940,-0.332,1.617,-0.336,0.549,73.333,417.000,1.000
-755.758,23284.112,-185481.323,-120242.293,1381.549,23287.798,612.890,-342.469,-0.023,0.941,-0.331,1.648,-0.458,0.580,73.333,418.000,1.000
-745.350,23142.638,-186006.163,-120302.701,1399.948,23211.344,663.235,-279.300,-0.023,0.940,-0.330,1.678,-0.519,0.549,73.333,419.000,1.000
-734.396,23001.468,-186529.342,-120359.948,1418.069,23135.807,713.661,-216.004,-0.024,0.940,-0.330,1.465,-0.519,0.458,73.333,420.000,1.000
-723.461,22860.074,-187049.220,-120413.923,1436.017,23061.223,764.470,-151.862,-0.024,0.939,-0.333,1.526,-0.549,0.427,73.333,421.000,1.000
-713.001,22718.063,-187561.299,-120465.037,1453.875,22987.152,815.573,-86.547,-0.026,0.940,-0.333,1.495,-0.702,0.458,73.333,422.000,1.000
-703.184,22575.284,-188064.806,-120514.017,1471.574,22912.752,866.345,-20.575,-0.025,0.940,-0.329,1.373,-0.763,0.397,73.333,423.000,1.000
-693.788,22432.058,-188563.304,-120561.202,1488.936,22837.343,916.130,45.172,-0.023,0.939,-0.334,1.404,-0.793,0.458,73.333,424.000,1.000
-684.591,22289.259,-189059.142,-120606.300,1505.809,22760.983,964.794,110.230,-0.023,0.939,-0.333,1.434,-0.763,0.366,73.333,425.000,1.000
-675.715,22147.344,-189550.428,-120648.834,1522.168,22683.966,1012.539,174.415,-0.023,0.939,-0.333,1.404,-0.946,0.275,73.333,426.000,1.000
-667.486,22006.085,-190033.804,-120688.419,1538.197,22606.592,1059.680,237.750,-0.022,0.939,-0.333,1.343,-1.038,0.244,73.333,427.000,1.000
-659.968,21864.726,-190509.196,-120724.881,1554.182,22528.959,1106.378,300.292,-0.022,0.939,-0.335,1.251,-1.068,0.183,73.333,428.000,1.000
-652.778,21722.511,-190980.005,-120758.190,1570.343,22450.984,1152.626,362.150,-0.024,0.939,-0.337,1.312,-1.068,0.153,73.333,429.000,1.000
-645.386,21579.501,-191448.442,-120788.460,1586.784,22372.804,1198.622,423.688,-0.022,0.940,-0.335,1.251,-1.099,0.153,73.333,430.000,1.000
-637.437,21436.257,-191912.881,-120816.088,1603.462,22294.591,1244.873,485.237,-0.022,0.940,-0.334,1.190,-1.160,0.061,73.333,431.000,1.000
-628.925,21293.538,-192369.913,-120841.554,1620.201,22216.541,1291.863,547.019,-0.021,0.943,-0.337,1.129,-1.251,0.214,73.333,432.000,1.000
-620.001,21151.958,-192818.319,-120865.145,1636.745,22138.634,1339.513,608.928,-0.021,0.944,-0.335,1.099,-1.190,0.183,73.333,433.000,1.000
-610.786,21011.688,-193259.994,-120886.856,1652.854,22060.610,1387.186,670.514,-0.021,0.943,-0.337,0.977,-1.160,0.153,73.333,434.000,1.000
-601.582,20872.493,-193697.160,-120906.660,1668.401,21982.332,1434.044,731.195,-0.020,0.945,-0.336,0.854,-1.190,0.000,73.333,435.000,1.000
-592.834,20733.718,-194130.231,-120924.768,1683.433,21903.720,1479.383,790.383,-0.021,0.944,-0.334,0.793,-1.221,0.000,73.333,436.000,1.000
-584.760,20595.118,-194557.922,-120941.242,1698.192,21825.114,1523.278,848.212,-0.022,0.942,-0.335,0.671,-1.221,-0.031,73.333,437.000,1.000
-577.117,20456.832,-194979.219,-120955.706,1712.952,21747.130,1566.651,905.555,-0.022,0.943,-0.333,0.549,-1.251,-0.244,73.333,438.000,1.000
-569.432,20318.814,-195394.372,-120967.518,1727.824,21670.091,1610.723,963.456,-0.021,0.941,-0.333,0.458,-1.434,-0.214,73.333,439.000,1.000
-561.411,20181.083,-195803.646,-120976.222,1742.763,21593.823,1656.338,1022.704,-0.025,0.939,-0.332,0.458,-1.526,-0.214,73.333,440.000,1.000
-552.982,20043.755,-196206.554,-120981.891,1757.662,21517.588,1703.448,1083.409,-0.025,0.938,-0.333,0.336,-1.556,-0.397,73.333,441.000,1.000
-544.330,19907.134,-196602.306,-120984.924,1772.417,21440.710,1751.309,1145.133,-0.024,0.939,-0.332,0.366,-1.617,-0.366,73.333,442.000,1.000
-536.005,19771.256,-196991.119,-120985.861,1786.909,21362.701,1798.658,1206.798,-0.023,0.939,-0.333,0.397,-1.678,-0.366,73.333,443.000,1.000
-528.774,19635.570,-197374.442,-120985.150,1801.031,21283.201,1844.008,1266.905,-0.023,0.937,-0.330,0.397,-1.831,-0.458,73.333,444.000,1.000
-523.161,19499.405,-197753.506,-120982.913,1814.803,21202.358,1886.445,1324.361,-0.025,0.938,-0.335,0.488,-1.862,-0.458,73.333,445.000,1.000
-518.834,19362.230,-198128.483,-120978.945,1828.359,21120.724,1926.342,1378.989,-0.025,0.938,-0.332,0.458,-1.892,-0.488,73.333,446.000,1.000
-514.644,19224.331,-198498.424,-120972.812,1841.867,21039.226,1965.337,1431.859,-0.026,0.938,-0.333,0.488,-1.892,-0.580,73.333,447.000,1.000
-509.399,19086.626,-198862.228,-120964.191,1855.441,20958.636,2005.079,1484.619,-0.026,0.935,-0.330,0.519,-2.045,-0.519,73.333,448.000,1.000
-502.660,18949.737,-199219.512,-120953.037,1869.156,20879.085,2046.177,1538.478,-0.026,0.935,-0.331,0.519,-2.197,-0.641,73.333,449.000,1.000
-494.871,18813.590,-199570.480,-120939.533,1883.080,20800.203,2088.285,1593.709,-0.027,0.934,-0.330,0.610,-2.228,-0.641,73.333,450.000,1.000
-486.591,18677.573,-199915.647,-120923.840,1897.208,20721.252,2130.739,1649.617,-0.028,0.937,-0.330,0.580,-2.258,-0.580,73.333,451.000,1.000
-477.888,18541.662,-200255.066,-120905.696,1911.422,20641.941,2173.273,1705.444,-0.028,0.936,-0.332,0.732,-2.197,-0.549,73.333,452.000,1.000
-468.562,18406.432,-200588.362,-120884.674,1925.456,20562.518,2215.887,1760.796,-0.028,0.938,-0.333,0.763,-2.289,-0.488,73.333,453.000,1.000
-458.670,18272.153,-200915.491,-120860.636,1938.987,20483.140,2258.387,1815.598,-0.027,0.939,-0.332,0.763,-2.350,-0.427,73.333,454.000,1.000
-448.760,18138.497,-201236.938,-120833.808,1951.842,20403.649,2300.319,1870.018,-0.027,0.940,-0.332,0.732,-2.380,-0.275,73.333,455.000,1.000
-439.541,18004.482,-201553.719,-120804.653,1964.085,20323.509,2341.244,1924.079,-0.025,0.940,-0.331,0.732,-2.319,-0.214,73.333,456.000,1.000
-431.475,17869.411,-201866.472,-120773.606,1975.955,20242.475,2381.204,1977.787,-0.024,0.938,-0.332,0.763,-2.350,-0.122,73.333,457.000,1.000
-424.612,17733.360,-202174.966,-120741.102,1987.697,20160.763,2420.464,2030.975,-0.025,0.940,-0.332,0.641,-2.350,-0.092,73.333,458.000,1.000
-418.737,17596.929,-202478.521,-120707.545,1999.401,20078.718,2459.051,2083.056,-0.024,0.938,-0.333,0.610,-2.350,0.061,73.333,459.000,1.000
-413.550,17460.972,-202776.552,-120673.059,2011.036,19996.764,2496.864,2133.419,-0.023,0.938,-0.331,0.641,-2.441,0.092,73.333,460.000,1.000
-408.559,17325.900,-203069.179,-120637.346,2022.599,19915.170,2533.981,2181.894,-0.022,0.941,-0.332,0.702,-2.380,0.183,73.333,461.000,1.000
-403.139,17191.812,-203356.688,-120599.681,2034.186,19834.260,2570.864,2229.179,-0.023,0.939,-0.332,0.671,-2.289,0.183,73.333,462.000,1.000
-396.810,17058.775,-203638.783,-120559.338,2045.897,19754.284,2608.149,2276.465,-0.023,0.939,-0.330,0.702,-2.319,0.244,73.333,463.000,1.000
-389.553,16926.832,-203914.644,-120516.158,2057.738,19675.104,2646.265,2324.707,-0.023,0.941,-0.328,0.641,-2.289,0.336,73.333,464.000,1.000
-382.140,16795.743,-204183.841,-120471.007,2069.556,19596.003,2684.784,2373.948,-0.022,0.941,-0.328,0.793,-2.289,0.366,73.333,465.000,1.000
-375.783,16664.423,-204447.358,-120425.379,2081.037,19515.632,2722.288,2423.122,-0.022,0.940,-0.331,0.641,-2.289,0.366,73.333,466.000,1.000
-371.090,16531.960,-204706.379,-120379.891,2091.978,19433.330,2757.795,2471.418,-0.020,0.941,-0.329,0.610,-2.167,0.366,73.333,467.000,1.000
-367.488,16398.481,-204960.820,-120333.677,2102.518,19349.903,2791.853,2519.149,-0.021,0.942,-0.331,0.671,-2.075,0.336,73.333,468.000,1.000
-363.827,16264.819,-205209.611,-120285.241,2113.055,19267.012,2826.211,2567.295,-0.020,0.941,-0.332,0.641,-2.045,0.397,73.333,469.000,1.000
-359.401,16131.965,-205451.991,-120233.438,2123.920,19186.098,2862.680,2616.696,-0.019,0.940,-0.331,0.580,-2.014,0.458,73.333,470.000,1.000
-354.361,16000.223,-205688.726,-120177.915,2135.099,19107.225,2901.820,2667.213,-0.021,0.941,-0.331,0.519,-1.923,0.519,73.333,471.000,1.000
-349.526,15869.298,-205921.350,-120119.064,2146.257,19029.222,2942.422,2717.733,-0.018,0.939,-0.332,0.580,-1.892,0.458,73.333,472.000,1.000
-345.712,15738.555,-206150.757,-120057.916,2156.984,18950.410,2982.066,2766.715,-0.016,0.940,-0.332,0.610,-1.678,0.610,73.333,473.000,1.000
-343.017,15607.366,-206376.792,-119995.625,2167.058,18869.608,3018.714,2813.264,-0.016,0.941,-0.332,0.519,-1.617,0.702,73.333,474.000,1.000
-340.597,15475.794,-206598.753,-119932.673,2176.543,18786.971,3052.067,2857.932,-0.018,0.940,-0.330,0.488,-1.465,0.641,73.333,475.000,1.000
-337.007,15344.489,-206816.234,-119868.540,2185.743,18703.542,3083.376,2902.127,-0.017,0.941,-0.332,0.458,-1.343,0.641,73.333,476.000,1.000
-331.271,15214.358,-207028.729,-119802.152,2195.063,18620.578,3114.468,2947.168,-0.018,0.938,-0.329,0.519,-1.312,0.671,73.333,477.000,1.000
-323.767,15085.722,-207235.374,-119732.839,2204.755,18538.700,3146.670,2993.336,-0.018,0.939,-0.329,0.488,-1.160,0.580,73.333,478.000,1.000
-315.787,14958.085,-207435.298,-119660.546,2214.774,18457.705,3180.444,3039.967,-0.020,0.940,-0.328,0.580,-1.038,0.549,73.333,479.000,1.000
-308.285,14830.981,-207627.899,-119585.374,2224.918,18377.344,3215.693,3086.527,-0.018,0.942,-0.330,0.519,-0.977,0.549,73.333,480.000,1.000
-301.080,14704.287,-207813.396,-119507.424,2235.012,18297.561,3252.012,3133.044,-0.015,0.941,-0.329,0.488,-0.916,0.488,73.333,481.000,1.000
-293.437,14578.411,-207992.479,-119426.914,2245.021,18218.487,3288.883,3179.983,-0.017,0.939,-0.328,0.580,-0.946,0.549,73.333,482.000,1.000
-285.106,14453.564,-208165.875,-119344.383,2255.013,18139.960,3325.708,3227.519,-0.017,0.938,-0.330,0.641,-0.916,0.580,73.333,483.000,1.000
-276.529,14328.994,-208334.379,-119260.486,2264.979,18061.326,3361.969,3275.268,-0.019,0.938,-0.328,0.641,-0.763,0.580,73.333,484.000,1.000
-268.342,14203.588,-208498.880,-119175.611,2274.723,17981.829,3397.225,3322.576,-0.019,0.937,-0.326,0.610,-0.702,0.549,73.333,485.000,1.000
-260.767,14076.750,-208660.310,-119089.792,2283.959,17900.769,3430.977,3368.631,-0.020,0.936,-0.328,0.549,-0.763,0.427,73.333,486.000,1.000
-253.624,13949.149,-208818.560,-119002.756,2292.545,17818.119,3463.131,3413.086,-0.021,0.934,-0.327,0.610,-0.793,0.275,73.333,487.000,1.000
-246.780,13821.958,-208972.183,-118914.309,2300.573,17734.540,3494.233,3456.205,-0.021,0.931,-0.328,0.702,-0.885,0.153,73.333,488.000,1.000
-240.360,13695.751,-209119.513,-118824.497,2308.342,17650.976,3525.245,3498.626,-0.021,0.930,-0.327,0.793,-0.885,0.061,73.333,489.000,1.000
-234.610,13570.520,-209259.881,-118733.316,2316.250,17568.432,3557.109,3541.225,-0.022,0.932,-0.328,1.038,-0.824,-0.031,73.333,490.000,1.000
-229.662,13445.745,-209394.279,-118640.555,2324.555,17487.391,3590.193,3584.686,-0.021,0.931,-0.330,1.160,-0.854,-0.214,73.333,491.000,1.000
-225.590,13320.939,-209524.216,-118545.877,2333.237,17407.821,3624.296,3629.390,-0.020,0.933,-0.330,1.221,-0.824,-0.153,73.333,492.000,1.000
-222.404,13195.885,-209650.406,-118449.149,2341.996,17329.210,3658.886,3675.117,-0.018,0.931,-0.329,1.343,-0.793,-0.153,73.333,493.000,1.000
-219.771,13070.681,-209772.481,-118350.424,2350.486,17250.832,3693.387,3721.170,-0.017,0.932,-0.333,1.434,-0.702,-0.092,73.333,494.000,1.000
-217.059,12945.776,-209889.560,-118249.801,2358.610,17172.285,3727.326,3766.861,-0.018,0.931,-0.334,1.495,-0.671,0.000,73.333,495.000,1.000
-213.798,12821.142,-210001.581,-118147.609,2366.501,17093.240,3760.158,3811.337,-0.019,0.931,-0.332,1.648,-0.549,0.153,73.333,496.000,1.000
-209.997,12696.406,-210109.217,-118044.282,2374.306,17013.463,3791.516,3853.837,-0.022,0.932,-0.333,1.770,-0.580,0.153,73.333,497.000,1.000
-205.741,12571.520,-210212.881,-117939.982,2382.039,16932.952,3821.604,3894.167,-0.023,0.935,-0.336,1.953,-0.763,0.214,73.333,498.000,1.000
-200.807,12447.012,-210312.105,-117834.271,2389.609,16852.118,3851.326,3932.988,-0.022,0.935,-0.335,1.984,-0.702,0.214,73.333,499.000,1.000
-194.950,12323.648,-210405.753,-117726.339,2396.917,16771.771,3881.726,3971.647,-0.023,0.939,-0.337,2.045,-0.671,0.366,73.333,500.000,1.000
-188.347,12201.367,-210493.410,-117615.759,2403.894,16692.164,3912.924,4011.152,-0.024,0.941,-0.338,2.075,-0.763,0.427,73.333,501.000,1.000
-181.826,12079.380,-210575.774,-117502.857,2410.547,16612.708,3943.904,4051.623,-0.025,0.941,-0.338,2.136,-0.732,0.397,73.333,502.000,1.000
-176.449,11956.758,-210654.028,-117388.446,2416.973,16532.400,3973.258,4092.275,-0.024,0.939,-0.337,2.045,-0.702,0.427,73.333,503.000,1.000
-172.710,11833.047,-210728.983,-117273.057,2423.361,16450.695,4000.370,4132.135,-0.024,0.939,-0.337,2.045,-0.763,0.488,73.333,504.000,1.000
-170.175,11708.835,-210800.627,-117156.506,2429.908,16368.073,4025.879,4170.830,-0.024,0.938,-0.335,2.075,-0.885,0.305,73.333,505.000,1.000
-167.635,11585.134,-210868.719,-117038.243,2436.646,16285.419,4051.024,4208.418,-0.026,0.941,-0.336,2.106,-0.977,0.336,73.333,506.000,1.000
-163.751,11462.796,-210932.875,-116917.784,2443.415,16203.619,4076.994,4245.312,-0.028,0.943,-0.337,1.984,-1.038,0.305,73.333,507.000,1.000
-157.768,11341.897,-210992.588,-116795.037,2450.017,16123.141,4104.406,4282.036,-0.025,0.942,-0.335,1.923,-1.190,0.275,73.333,508.000,1.000
-149.766,11221.947,-211047.407,-116670.197,2456.433,16043.790,4133.197,4319.119,-0.027,0.945,-0.334,1.770,-1.251,0.214,73.333,509.000,1.000
-140.499,11102.785,-211096.957,-116543.456,2462.859,15964.927,4162.863,4357.056,-0.026,0.946,-0.338,1.678,-1.434,0.275,73.333,510.000,1.000
-131.088,10984.255,-211141.511,-116414.988,2469.523,15885.544,4192.562,4395.729,-0.025,0.946,-0.338,1.678,-1.495,0.244,73.333,511.000,1.000
-122.794,10865.986,-211181.813,-116284.970,2476.533,15805.017,4221.463,4434.435,-0.023,0.946,-0.337,1.556,-1.556,0.214,73.333,512.000,1.000
-116.468,10747.580,-211218.554,-116153.741,2483.740,15723.329,4249.091,4472.248,-0.021,0.946,-0.334,1.404,-1.465,0.183,73.333,513.000,1.000
-111.977,10629.033,-211251.910,-116021.701,2490.708,15640.713,4275.555,4508.493,-0.020,0.945,-0.339,1.312,-1.526,0.122,73.333,514.000,1.000
-108.370,10511.015,-211281.164,-115889.047,2496.996,15557.514,4301.488,4542.991,-0.021,0.943,-0.340,1.190,-1.556,0.122,73.333,515.000,1.000
-104.612,10393.913,-211305.345,-115755.893,2502.468,15473.863,4327.550,4575.691,-0.020,0.942,-0.335,1.129,-1.617,0.183,73.333,516.000,1.000
-100.250,10277.451,-211323.690,-115622.251,2507.342,15389.872,4354.198,4606.720,-0.020,0.942,-0.337,1.038,-1.465,0.244,73.333,517.000,1.000
-95.346,10161.043,-211335.857,-115487.723,2511.979,15305.698,4381.487,4636.417,-0.018,0.941,-0.337,0.793,-1.343,0.244,73.333,518.000,1.000
-90.045,10044.573,-211341.821,-115351.327,2516.734,15221.592,4409.198,4665.424,-0.019,0.940,-0.334,0.824,-1.373,0.244,73.333,519.000,1.000
-84.535,9928.801,-211341.669,-115212.053,2521.907,15138.008,4437.159,4694.691,-0.019,0.938,-0.336,0.702,-1.434,0.336,73.333,520.000,1.000
-79.173,9814.243,-211336.161,-115069.776,2527.633,15055.023,4465.150,4724.861,-0.020,0.938,-0.337,0.549,-1.343,0.275,73.333,521.000,1.000
-74.519,9700.641,-211326.465,-114925.495,2533.807,14972.260,4492.721,4756.011,-0.020,0.939,-0.337,0.458,-1.282,0.214,73.333,522.000,1.000
-71.051,9587.150,-211313.497,-114780.796,2540.142,14889.040,4519.119,4787.490,-0.021,0.939,-0.336,0.397,-1.190,0.153,73.333,523.000,1.000
-68.740,9473.032,-211297.427,-114636.686,2546.335,14804.865,4543.812,4818.408,-0.022,0.938,-0.332,0.305,-1.221,0.153,73.333,524.000,1.000
-67.097,9358.372,-211277.507,-114492.857,2552.147,14720.017,4567.071,4848.570,-0.022,0.936,-0.333,0.214,-1.160,0.336,73.333,525.000,1.000
-65.492,9243.500,-211253.004,-114348.142,2557.366,14635.153,4589.735,4878.595,-0.021,0.936,-0.336,0.153,-1.190,0.214,73.333,526.000,1.000
-63.364,9128.750,-211223.660,-114201.249,2561.900,14550.946,4612.720,4909.691,-0.023,0.934,-0.336,0.092,-1.160,0.122,73.333,527.000,1.000
-60.296,9014.271,-211189.753,-114051.301,2565.920,14467.642,4636.412,4942.767,-0.022,0.932,-0.337,0.122,-1.099,-0.031,73.333,528.000,1.000
-56.249,8899.837,-211151.968,-113898.118,2569.838,14384.895,4660.427,4977.628,-0.023,0.935,-0.334,0.061,-1.160,-0.031,73.333,529.000,1.000
-51.839,8785.191,-211110.950,-113742.365,2574.052,14302.130,4683.904,5013.080,-0.022,0.936,-0.331,0.122,-1.251,-0.031,73.333,530.000,1.000
-47.930,8670.058,-211067.262,-113585.316,2578.644,14218.701,4706.069,5047.518,-0.022,0.936,-0.331,0.092,-1.251,-0.092,73.333,531.000,1.000
-44.915,8554.484,-211020.903,-113427.920,2583.374,14134.472,4726.970,5080.059,-0.021,0.937,-0.328,0.061,-1.221,-0.092,73.333,532.000,1.000
-42.434,8438.654,-210971.289,-113270.233,2587.880,14049.789,4747.366,5110.862,-0.021,0.938,-0.330,0.000,-1.190,-0.122,73.333,533.000,1.000
-39.782,8322.635,-210917.628,-113111.574,2591.956,13965.149,4768.044,5140.823,-0.023,0.937,-0.332,-0.031,-1.160,-0.122,73.333,534.000,1.000
-36.421,8206.866,-210858.914,-112951.100,2595.663,13881.246,4789.399,5171.104,-0.023,0.938,-0.329,-0.061,-1.160,-0.092,73.333,535.000,1.000
-32.072,8092.040,-210794.436,-112788.392,2599.158,13798.588,4811.380,5202.279,-0.022,0.938,-0.328,-0.031,-1.160,-0.061,73.333,536.000,1.000
-26.813,7978.909,-210723.984,-112623.445,2602.572,13717.429,4833.845,5234.302,-0.024,0.938,-0.329,0.000,-1.282,0.000,73.333,537.000,1.000
-21.068,7867.773,-210648.059,-112456.532,2606.012,13637.593,4856.580,5266.763,-0.023,0.935,-0.332,-0.031,-1.251,0.000,73.333,538.000,1.000
-15.373,7758.209,-210567.808,-112288.097,2609.601,13558.495,4879.216,5299.181,-0.026,0.937,-0.335,0.031,-1.282,-0.031,73.333,539.000,1.000
-10.197,7649.409,-210484.350,-112118.636,2613.447,13479.671,4901.445,5331.291,-0.026,0.936,-0.333,0.061,-1.282,-0.061,73.333,540.000,1.000
-5.720,7540.244,-210398.597,-111948.563,2617.530,13400.806,4923.155,5362.884,-0.025,0.936,-0.329,0.153,-1.190,0.061,73.333,541.000,1.000
-1.760,7430.063,-210310.905,-111777.949,2621.685,13321.916,4944.518,5393.959,-0.026,0.937,-0.332,0.122,-1.282,0.214,73.333,542.000,1.000
2.109,7319.083,-210221.129,-111606.609,2625.681,13243.171,4965.774,5424.633,-0.027,0.939,-0.332,0.244,-1.343,0.336,73.333,543.000,1.000
6.289,7208.056,-210128.918,-111434.281,2629.301,13164.667,4987.082,5454.994,-0.028,0.940,-0.332,0.275,-1.434,0.305,73.333,544.000,1.000
10.767,7097.844,-210033.738,-111260.734,2632.420,13086.488,5008.524,5485.173,-0.029,0.941,-0.333,0.366,-1.495,0.366,73.333,545.000,1.000
15.157,6988.675,-209935.197,-111085.885,2635.077,13008.424,5030.119,5515.259,-0.028,0.942,-0.335,0.488,-1.587,0.427,73.333,546.000,1.000
19.061,6880.438,-209832.807,-110909.740,2637.548,12930.259,5052.051,5545.574,-0.028,0.948,-0.336,0.427,-1.648,0.519,73.333,547.000,1.000
22.284,6772.842,-209726.156,-110732.512,2640.140,12851.793,5074.381,5576.392,-0.027,0.951,-0.338,0.397,-1.648,0.702,73.333,548.000,1.000
24.744,6665.266,-209615.383,-110554.657,2642.925,12772.801,5096.731,5607.564,-0.030,0.952,-0.334,0.397,-1.587,0.824,73.333,549.000,1.000
26.358,6557.154,-209500.852,-110376.561,2645.735,12693.361,5118.554,5638.584,-0.029,0.955,-0.333,0.366,-1.709,0.854,73.333,550.000,1.000
27.251,6448.177,-209382.901,-110198.154,2648.353,12613.679,5139.451,5668.596,-0.032,0.955,-0.329,0.336,-1.862,0.977,73.333,551.000,1.000
27.840,6338.669,-209261.461,-110018.684,2650.693,12534.200,5159.495,5697.008,-0.032,0.952,-0.328,0.183,-1.953,1.038,73.333,552.000,1.000
28.680,6229.338,-209136.419,-109837.210,2652.735,12455.384,5179.117,5723.877,-0.032,0.946,-0.327,0.122,-2.167,1.129,73.333,553.000,1.000
30.211,6120.447,-209008.272,-109653.305,2654.373,12377.207,5198.647,5749.750,-0.033,0.943,-0.325,-0.061,-2.350,1.282,73.333,554.000,1.000
32.534,6011.735,-208877.828,-109467.157,2655.525,12299.203,5217.956,5775.277,-0.031,0.942,-0.323,0.061,-2.441,1.373,73.333,555.000,1.000
35.672,5902.796,-208745.576,-109279.047,2656.382,12220.742,5236.617,5800.756,-0.032,0.941,-0.321,0.183,-2.625,1.434,73.333,556.000,1.000
39.900,5794.181,-208610.829,-109088.868,2657.449,12141.829,5254.630,5826.348,-0.034,0.945,-0.322,0.336,-2.777,1.648,73.333,557.000,1.000
45.533,5687.108,-208472.093,-108896.521,2659.230,12062.947,5272.435,5852.012,-0.034,0.948,-0.324,0.427,-2.930,1.770,73.333,558.000,1.000
52.352,5582.101,-208328.206,-108702.426,2661.834,11984.354,5290.512,5877.447,-0.033,0.949,-0.324,0.427,-3.143,1.831,73.333,559.000,1.000
59.429,5478.627,-208178.752,-108507.462,2664.867,11905.982,5309.134,5902.455,-0.034,0.949,-0.322,0.397,-3.448,2.045,73.333,560.000,1.000
65.835,5375.519,-208024.220,-108312.457,2667.669,11827.437,5328.243,5927.065,-0.033,0.946,-0.323,0.458,-3.693,2.319,73.333,561.000,1.000
71.222,5272.134,-207865.366,-108117.524,2669.765,11748.598,5347.642,5951.808,-0.031,0.944,-0.320,0.519,-3.815,2.502,73.333,562.000,1.000
75.644,5168.587,-207702.796,-107922.154,2671.096,11669.690,5366.938,5977.336,-0.029,0.943,-0.319,0.610,-4.089,2.716,73.333,563.000,1.000
79.025,5065.117,-207537.031,-107725.872,2671.958,11590.888,5385.359,6003.723,-0.027,0.940,-0.321,0.854,-4.211,2.991,73.333,564.000,1.000
80.976,4961.733,-207368.498,-107528.653,2672.760,11512.183,5401.863,6030.263,-0.026,0.940,-0.323,1.038,-4.395,3.235,73.333,565.000,1.000
81.404,4858.031,-207197.869,-107330.698,2673.768,11433.310,5415.714,6055.755,-0.027,0.936,-0.320,1.312,-4.517,3.448,73.333,566.000,1.000
80.904,4753.894,-207025.749,-107131.878,2675.028,11354.326,5427.352,6079.575,-0.027,0.936,-0.321,1.526,-4.669,3.387,73.333,567.000,1.000
80.405,4649.594,-206852.383,-106931.830,2676.421,11275.511,5438.240,6101.944,-0.030,0.934,-0.321,1.862,-4.883,3.387,73.333,568.000,1.000
80.748,4545.620,-206677.302,-106730.165,2677.815,11197.042,5450.102,6123.687,-0.030,0.930,-0.317,2.045,-4.974,3.510,73.333,569.000,1.000
82.554,4443.054,-206498.830,-106526.407,2679.140,11119.290,5464.386,6146.172,-0.029,0.927,-0.318,2.380,-5.310,3.662,73.333,570.000,1.000
86.000,4342.792,-206315.128,-106320.318,2680.308,11042.574,5481.592,6170.658,-0.026,0.927,-0.320,2.655,-5.432,3.662,73.333,571.000,1.000
90.323,4244.540,-206125.603,-106112.293,2681.264,10966.980,5500.998,6197.617,-0.025,0.924,-0.322,2.869,-5.676,3.662,73.333,572.000,1.000
94.065,4146.393,-205931.650,-105903.275,2682.114,10892.177,5520.993,6226.156,-0.024,0.925,-0.321,3.204,-5.890,3.601,73.333,573.000,1.000
96.285,4046.198,-205735.624,-105693.899,2683.088,10817.758,5540.099,6254.508,-0.021,0.924,-0.323,3.632,-5.981,3.510,73.333,574.000,1.000
97.347,3943.908,-205538.438,-105483.976,2684.355,10743.976,5557.797,6281.364,-0.021,0.927,-0.323,3.815,-6.134,3.510,73.333,575.000,1.000
98.344,3841.299,-205339.236,-105273.273,2685.848,10671.070,5574.222,6306.130,-0.018,0.928,-0.323,4.181,-6.195,3.632,73.333,576.000,1.000
99.750,3739.816,-205136.998,-105062.333,2687.244,10598.345,5589.525,6328.617,-0.015,0.929,-0.326,4.425,-6.317,3.601,73.333,577.000,1.000
101.228,3639.145,-204931.887,-104852.031,2688.129,10524.221,5603.665,6348.923,-0.016,0.929,-0.323,4.730,-6.348,3.510,73.333,578.000,1.000
102.634,3538.354,-204724.492,-104642.239,2688.351,10447.746,5616.913,6367.931,-0.014,0.929,-0.326,4.791,-6.256,3.510,73.333,579.000,1.000
104.419,3437.796,-204514.238,-104431.543,2688.211,10369.956,5630.190,6387.392,-0.013,0.927,-0.330,5.066,-6.226,3.479,73.333,580.000,1.000
106.938,3338.448,-204300.064,-104218.622,2688.155,10292.759,5644.354,6408.473,-0.012,0.928,-0.329,5.341,-6.165,3.571,73.333,581.000,1.000
109.684,3240.461,-204081.938,-104003.366,2688.355,10217.185,5659.529,6430.723,-0.009,0.928,-0.334,5.310,-6.287,3.418,73.333,582.000,1.000
111.692,3142.719,-203861.203,-103786.649,2688.666,10142.691,5675.090,6452.466,-0.008,0.929,-0.334,5.493,-6.073,3.479,73.333,583.000,1.000
112.678,3044.035,-203639.161,-103569.182,2688.887,10068.184,5690.378,6472.520,-0.007,0.930,-0.335,5.524,-5.920,3.387,73.333,584.000,1.000
113.349,2944.624,-203415.453,-103350.858,2688.996,9993.454,5705.246,6491.457,-0.007,0.931,-0.338,5.554,-5.676,3.357,73.333,585.000,1.000
114.748,2845.497,-203188.768,-103131.138,2689.116,9918.873,5719.765,6510.838,-0.006,0.931,-0.338,5.646,-5.615,3.387,73.333,586.000,1.000
117.549,2747.564,-202958.205,-102909.613,2689.333,9844.822,5734.095,6532.062,-0.006,0.933,-0.340,5.615,-5.493,3.235,73.333,587.000,1.000
121.910,2651.175,-202723.817,-102686.235,2689.569,9771.434,5748.525,6555.512,-0.005,0.935,-0.340,5.585,-5.280,3.204,73.333,588.000,1.000
127.517,2556.092,-202486.130,-102461.193,2689.688,9698.676,5763.472,6580.469,-0.006,0.935,-0.339,5.524,-5.127,3.052,73.333,589.000,1.000
133.467,2461.774,-202245.518,-102235.009,2689.641,9626.491,5779.209,6605.595,-0.002,0.936,-0.341,5.402,-4.974,3.052,73.333,590.000,1.000
138.564,2367.195,-202002.570,-102008.739,2689.417,9554.420,5795.438,6629.244,-0.001,0.937,-0.344,5.310,-4.669,2.869,73.333,591.000,1.000
142.111,2271.622,-201757.538,-101783.219,2689.045,9482.119,5811.599,6650.386,-0.002,0.936,-0.345,5.127,-4.364,2.747,73.333,592.000,1.000
144.537,2175.371,-201509.614,-101558.175,2688.614,9409.799,5827.364,6669.216,-0.003,0.935,-0.345,4.974,-4.181,2.655,73.333,593.000,1.000
146.944,2079.513,-201257.515,-101332.411,2688.174,9337.819,5842.729,6686.912,-0.003,0.935,-0.346,4.730,-3.967,2.502,73.333,594.000,1.000
149.902,1984.951,-201000.838,-101104.997,2687.631,9266.076,5857.625,6704.810,-0.002,0.937,-0.349,4.608,-3.754,2.289,73.333,595.000,1.000
153.018,1891.364,-200741.039,-100876.139,2686.816,9193.634,5871.549,6723.447,-0.003,0.937,-0.347,4.517,-3.632,2.167,73.333,596.000,1.000
155.571,1798.038,-200480.042,-100646.597,2685.722,9119.801,5884.017,6742.796,-0.004,0.935,-0.350,4.425,-3.326,2.106,73.333,597.000,1.000
157.436,1704.894,-200218.454,-100416.726,2684.604,9044.958,5895.027,6762.617,-0.001,0.936,-0.345,4.181,-3.113,1.923,73.333,598.000,1.000
159.218,1612.149,-199955.577,-100186.231,2683.820,8970.133,5905.051,6782.439,-0.003,0.935,-0.347,4.059,-2.991,1.953,73.333,599.000,1.000
161.584,1519.630,-199690.687,-99954.656,2683.543,8896.163,5914.749,6801.608,-0.004,0.936,-0.352,3.876,-2.838,1.740,73.333,600.000,1.000
164.824,1426.553,-199424.205,-99721.859,2683.555,8822.960,5924.601,6819.439,-0.001,0.934,-0.354,3.723,-2.655,1.434,73.333,601.000,1.000
168.841,1332.700,-199156.669,-99487.721,2683.422,8750.121,5934.916,6835.991,-0.002,0.934,-0.351,3.540,-2.319,1.373,73.333,602.000,1.000
173.273,1238.790,-198887.510,-99252.034,2682.793,8677.421,5945.611,6852.059,-0.002,0.932,-0.350,3.510,-2.167,1.221,73.333,603.000,1.000
177.454,1145.468,-198615.559,-99015.035,2681.544,8604.492,5955.978,6868.294,-0.002,0.931,-0.353,3.418,-1.953,1.068,73.333,604.000,1.000
180.371,1052.609,-198340.306,-98777.825,2679.761,8530.638,5965.079,6884.601,-0.002,0.932,-0.356,3.143,-1.709,1.007,73.333,605.000,1.000
181.319,959.396,-198062.442,-98541.658,2677.671,8455.149,5972.551,6900.355,-0.002,0.932,-0.355,2.930,-1.526,0.793,73.333,606.000,1.000
180.739,865.771,-197782.177,-98306.392,2675.665,8378.529,5979.244,6915.611,-0.001,0.932,-0.359,2.777,-1.312,0.641,73.333,607.000,1.000
180.106,772.747,-197498.152,-98070.417,2674.121,8302.381,5986.598,6931.256,0.000,0.932,-0.357,2.625,-1.038,0.397,73.333,608.000,1.000
180.868,681.182,-197208.670,-97832.128,2673.069,8227.944,5995.563,6948.097,-0.001,0.934,-0.355,2.350,-0.916,0.275,73.333,609.000,1.000
183.603,591.106,-196913.370,-97591.092,2672.170,8155.316,6006.257,6966.309,-0.003,0.933,-0.359,2.319,-0.580,0.214,73.333,610.000,1.000
188.076,501.785,-196613.876,-97347.975,2671.032,8083.562,6018.222,6985.418,-0.004,0.934,-0.363,2.197,-0.397,0.092,73.333,611.000,1.000
193.583,412.872,-196312.027,-97103.529,2669.523,8011.884,6030.980,7005.036,-0.004,0.935,-0.361,2.014,-0.244,0.031,73.333,612.000,1.000
199.236,324.865,-196008.131,-96858.067,2667.762,7940.106,6044.118,7024.944,-0.005,0.937,-0.360,1.801,-0.092,-0.305,73.333,613.000,1.000
204.121,238.310,-195701.259,-96611.761,2665.949,7868.264,6057.189,7044.722,-0.007,0.938,-0.359,1.556,-0.061,-0.458,73.333,614.000,1.000
207.425,152.936,-195390.617,-96364.984,2664.236,7796.253,6069.800,7063.828,-0.010,0.938,-0.361,1.282,0.061,-0.519,73.333,615.000,1.000
208.935,67.351,-195076.558,-96118.104,2662.675,7723.642,6081.709,7081.818,-0.009,0.940,-0.361,1.038,0.214,-0.641,73.333,616.000,1.000
209.380,-19.451,-194759.493,-95870.865,2661.276,7650.350,6093.027,7098.952,-0.010,0.941,-0.361,0.732,0.366,-0.854,73.333,617.000,1.000
210.040,-107.059,-194438.911,-95622.607,2660.056,7576.825,6104.018,7115.987,-0.011,0.940,-0.361,0.458,0.519,-0.977,73.333,618.000,1.000
212.017,-194.248,-194113.994,-95372.894,2659.011,7503.673,6114.924,7133.527,-0.011,0.938,-0.358,0.122,0.519,-1.190,73.333,619.000,1.000
215.664,-280.101,-193784.601,-95121.810,2658.064,7431.343,6125.942,7151.627,-0.011,0.939,-0.360,-0.183,0.580,-1.282,73.333,620.000,1.000
220.431,-365.013,-193451.829,-94869.990,2657.069,7359.508,6136.852,7169.420,-0.012,0.940,-0.356,-0.458,0.671,-1.465,73.333,621.000,1.000
225.130,-449.786,-193116.761,-94618.145,2655.899,7287.472,6147.088,7185.901,-0.014,0.940,-0.360,-0.732,0.549,-1.465,73.333,622.000,1.000
228.734,-534.613,-192779.387,-94366.624,2654.473,7214.785,6156.254,7200.813,-0.015,0.939,-0.357,-0.977,0.580,-1.526,73.333,623.000,1.000
231.057,-619.248,-192439.114,-94115.359,2652.762,7141.384,6164.525,7214.593,-0.014,0.938,-0.359,-1.282,0.610,-1.678,73.333,624.000,1.000
232.673,-703.481,-192095.582,-93864.061,2650.815,7067.539,6172.450,7227.682,-0.016,0.937,-0.354,-1.556,0.519,-1.740,73.333,625.000,1.000
234.515,-787.565,-191749.157,-93612.307,2648.715,6993.413,6180.451,7239.983,-0.018,0.937,-0.353,-1.709,0.488,-1.892,73.333,626.000,1.000
237.453,-871.513,-191400.171,-93359.340,2646.544,6919.276,6188.886,7251.568,-0.017,0.936,-0.354,-1.984,0.397,-1.892,73.333,627.000,1.000
241.849,-954.918,-191048.571,-93104.545,2644.358,6845.420,6197.864,7262.956,-0.019,0.936,-0.355,-2.228,0.397,-1.984,73.333,628.000,1.000
247.252,-1037.514,-190694.352,-92848.116,2642.190,6771.879,6206.936,7274.627,-0.022,0.935,-0.356,-2.289,0.336,-2.014,73.333,629.000,1.000
252.576,-1119.290,-190337.527,-92590.905,2640.081,6698.705,6215.459,7286.773,-0.023,0.935,-0.357,-2.411,0.305,-1.984,73.333,630.000,1.000
256.916,-1200.700,-189978.190,-92333.620,2638.031,6625.927,6223.180,7299.230,-0.025,0.935,-0.355,-2.655,0.214,-2.045,73.333,631.000,1.000
260.068,-1282.156,-189616.177,-92076.190,2635.949,6553.733,6230.492,7311.923,-0.027,0.934,-0.353,-2.716,0.092,-2.136,73.333,632.000,1.000
262.341,-1363.835,-189251.305,-91818.292,2633.673,6482.155,6237.849,7324.779,-0.027,0.933,-0.352,-2.808,0.031,-2.106,73.333,633.000,1.000
264.054,-1445.884,-188883.961,-91560.049,2631.093,6410.639,6245.241,7337.422,-0.026,0.931,-0.351,-2.808,-0.061,-2.075,73.333,634.000,1.000
265.294,-1528.301,-188514.781,-91301.764,2628.242,6338.423,6252.401,7349.455,-0.026,0.932,-0.352,-2.899,-0.122,-2.014,73.333,635.000,1.000
266.210,-1611.072,-188144.185,-91043.333,2625.234,6264.990,6259.106,7360.766,-0.027,0.930,-0.351,-2.899,-0.458,-1.984,73.333,636.000,1.000
267.125,-1693.708,-187771.828,-90784.200,2622.194,6190.660,6265.325,7371.772,-0.027,0.930,-0.351,-2.930,-0.488,-2.045,73.333,637.000,1.000
268.197,-1775.520,-187397.276,-90524.110,2619.170,6116.166,6270.959,7382.716,-0.029,0.931,-0.353,-2.869,-0.610,-1.984,73.333,638.000,1.000
269.167,-1856.570,-187021.020,-90263.420,2616.103,6041.851,6275.830,7393.160,-0.030,0.929,-0.354,-2.777,-0.793,-2.075,73.333,639.000,1.000
269.630,-1937.543,-186643.887,-90002.546,2612.975,5967.762,6280.082,7402.597,-0.031,0.931,-0.351,-2.838,-0.824,-1.923,73.333,640.000,1.000
269.563,-2019.111,-186266.124,-89741.510,2609.919,5893.788,6284.228,7411.005,-0.032,0.932,-0.350,-2.899,-0.977,-1.801,73.333,641.000,1.000
269.178,-2101.245,-185886.990,-89480.088,2607.126,5820.010,6288.821,7419.030,-0.031,0.930,-0.350,-2.899,-1.129,-1.740,73.333,642.000,1.000
268.360,-2183.842,-185505.848,-89218.414,2604.554,5746.464,6293.821,7427.227,-0.032,0.930,-0.349,-2.899,-1.190,-1.740,73.333,643.000,1.000
266.738,-2267.241,-185123.185,-88956.863,2601.861,5672.926,6298.631,7435.602,-0.031,0.928,-0.350,-2.869,-1.404,-1.770,73.333,644.000,1.000
264.297,-2351.310,-184739.728,-88695.370,2598.717,5599.288,6302.704,7444.000,-0.031,0.930,-0.349,-2.777,-1.556,-1.617,73.333,645.000,1.000
261.712,-2435.262,-184355.562,-88433.413,2595.073,5525.450,6305.820,7452.251,-0.031,0.932,-0.350,-2.777,-1.678,-1.556,73.333,646.000,1.000
259.820,-2518.101,-183969.967,-88170.489,2591.123,5451.624,6308.333,7460.482,-0.032,0.932,-0.347,-2.716,-1.801,-1.556,73.333,647.000,1.000
259.004,-2599.410,-183582.354,-87906.569,2587.086,5378.365,6311.067,7469.006,-0.032,0.931,-0.348,-2.625,-1.953,-1.526,73.333,648.000,1.000
259.277,-2679.440,-183192.887,-87641.875,2583.097,5306.192,6314.801,7478.018,-0.032,0.930,-0.347,-2.594,-2.106,-1.495,73.333,649.000,1.000
260.620,-2758.381,-182801.674,-87376.334,2579.257,5235.541,6319.819,7487.600,-0.031,0.930,-0.349,-2.472,-2.228,-1.373,73.333,650.000,1.000
263.040,-2836.481,-182408.429,-87109.598,2575.620,5166.508,6325.762,7497.579,-0.031,0.929,-0.348,-2.533,-2.350,-1.282,73.333,651.000,1.000
266.317,-2913.908,-182012.607,-86841.361,2572.201,5098.943,6332.138,7507.846,-0.031,0.929,-0.349,-2.441,-2.472,-1.221,73.333,652.000,1.000
270.067,-2990.674,-181614.118,-86571.625,2568.961,5032.336,6338.744,7518.421,-0.030,0.930,-0.348,-2.411,-2.533,-1.129,73.333,653.000,1.000
274.012,-3066.795,-181213.731,-86300.562,2565.784,4965.987,6345.672,7529.291,-0.030,0.930,-0.349,-2.350,-2.533,-1.221,73.333,654.000,1.000
277.946,-3142.321,-180812.236,-86028.268,2562.494,4899.570,6352.961,7540.344,-0.030,0.931,-0.344,-2.350,-2.686,-1.190,73.333,655.000,1.000
281.725,-3217.766,-180409.887,-85754.857,2558.892,4832.867,6360.149,7551.173,-0.030,0.930,-0.345,-2.350,-2.777,-1.129,73.333,656.000,1.000
285.137,-3293.744,-180006.292,-85480.662,2554.885,4765.639,6366.423,7561.352,-0.030,0.929,-0.343,-2.167,-2.899,-1.160,73.333,657.000,1.000
287.670,-3370.734,-179601.252,-85206.595,2550.581,4697.558,6370.986,7570.408,-0.029,0.933,-0.346,-2.228,-2.838,-0.885,73.333,658.000,1.000
288.713,-3449.105,-179195.352,-84933.827,2546.187,4628.392,6373.589,7577.965,-0.029,0.933,-0.348,-2.167,-2.808,-0.916,73.333,659.000,1.000
288.240,-3528.429,-178788.925,-84662.703,2541.850,4558.464,6374.811,7584.258,-0.029,0.934,-0.348,-2.228,-2.838,-0.824,73.333,660.000,1.000
287.300,-3607.315,-178381.198,-84392.267,2537.639,4488.463,6375.704,7590.038,-0.029,0.934,-0.348,-2.228,-2.808,-0.732,73.333,661.000,1.000
287.323,-3683.939,-177970.470,-84121.039,2533.600,4419.315,6377.344,7596.304,-0.028,0.934,-0.344,-2.197,-2.838,-0.732,73.333,662.000,1.000
288.936,-3757.664,-177555.756,-83848.315,2529.760,4351.525,6380.287,7603.638,-0.027,0.932,-0.346,-2.106,-2.838,-0.671,73.333,663.000,1.000
291.803,-3829.648,-177137.749,-83574.204,2526.215,4284.829,6384.565,7611.990,-0.029,0.933,-0.346,-2.136,-2.991,-0.580,73.333,664.000,1.000
295.263,-3901.353,-176717.700,-83298.900,2523.062,4218.747,6389.992,7621.113,-0.031,0.935,-0.347,-2.136,-2.960,-0.610,73.333,665.000,1.000
298.736,-3973.703,-176296.590,-83022.736,2520.082,4152.607,6395.938,7630.450,-0.030,0.930,-0.346,-2.228,-2.869,-0.488,73.333,666.000,1.000
301.590,-4046.911,-175874.916,-82746.383,2516.770,4085.781,6401.402,7639.161,-0.028,0.931,-0.351,-2.228,-2.838,-0.641,73.333,667.000,1.000
303.152,-4120.926,-175453.070,-82470.584,2512.717,4017.850,6405.504,7646.415,-0.028,0.934,-0.348,-2.197,-2.869,-0.732,73.333,668.000,1.000
303.041,-4195.665,-175031.366,-82195.509,2507.924,3948.778,6408.039,7652.086,-0.028,0.936,-0.349,-2.167,-2.838,-0.702,73.333,669.000,1.000
301.380,-4270.595,-174609.274,-81920.538,2502.773,3879.226,6409.567,7657.127,-0.027,0.937,-0.346,-2.167,-2.777,-0.549,73.333,670.000,1.000
298.933,-4345.057,-174185.608,-81644.773,2497.730,3810.067,6410.917,7662.677,-0.026,0.936,-0.347,-2.258,-2.686,-0.488,73.333,671.000,1.000
296.848,-4418.571,-173759.276,-81367.479,2493.060,3742.022,6412.863,7669.403,-0.026,0.932,-0.346,-2.319,-2.594,-0.427,73.333,672.000,1.000
295.941,-4491.368,-173330.355,-81088.463,2488.715,3675.115,6415.674,7677.094,-0.024,0.928,-0.344,-2.289,-2.472,-0.458,73.333,673.000,1.000
296.306,-4564.200,-172900.101,-80808.012,2484.459,3608.775,6419.135,7684.998,-0.024,0.927,-0.345,-2.258,-2.472,-0.397,73.333,674.000,1.000
297.782,-4636.881,-172469.149,-80526.333,2480.190,3542.951,6423.168,7692.921,-0.023,0.926,-0.347,-2.167,-2.350,-0.275,73.333,675.000,1.000
300.402,-4708.332,-172036.804,-80243.512,2476.065,3478.060,6427.796,7701.167,-0.023,0.927,-0.348,-2.136,-2.258,-0.244,73.333,676.000,1.000
303.727,-4777.935,-171602.024,-79960.067,2472.304,3414.130,6432.575,7709.585,-0.024,0.928,-0.345,-1.984,-2.075,-0.214,73.333,677.000,1.000
306.504,-4846.671,-171164.951,-79677.201,2468.885,3350.166,6436.510,7716.999,-0.026,0.930,-0.348,-1.831,-1.862,-0.214,73.333,678.000,1.000
307.667,-4916.293,-170726.765,-79395.868,2465.494,3284.891,6438.949,7722.365,-0.027,0.930,-0.347,-1.862,-1.770,-0.092,73.333,679.000,1.000
307.183,-4987.437,-170287.923,-79115.777,2461.775,3218.047,6440.274,7726.127,-0.026,0.935,-0.343,-1.831,-1.709,-0.092,73.333,680.000,1.000
305.876,-5059.577,-169847.684,-78835.617,2457.569,3150.311,6441.470,7729.711,-0.024,0.935,-0.344,-1.770,-1.556,0.061,73.333,681.000,1.000
304.678,-5131.755,-169404.762,-78554.086,2452.990,3082.779,6443.465,7734.445,-0.023,0.938,-0.346,-1.801,-1.434,0.092,73.333,682.000,1.000
304.153,-5203.425,-168958.657,-78270.924,2448.249,3016.106,6446.381,7740.490,-0.023,0.938,-0.344,-1.862,-1.221,0.153,73.333,683.000,1.000
304.504,-5274.550,-168510.220,-77986.849,2443.414,2950.116,6449.432,7746.807,-0.022,0.939,-0.343,-1.923,-1.068,0.122,73.333,684.000,1.000
305.650,-5344.796,-168060.493,-77702.648,2438.411,2884.472,6451.689,7752.341,-0.021,0.941,-0.344,-1.923,-1.068,0.183,73.333,685.000,1.000
307.282,-5413.729,-167609.818,-77418.706,2433.202,2819.006,6452.765,7756.683,-0.024,0.942,-0.343,-2.106,-0.916,0.214,73.333,686.000,1.000
308.686,-5481.339,-167157.895,-77135.175,2427.881,2753.718,6452.923,7759.926,-0.023,0.945,-0.339,-2.258,-0.793,0.153,73.333,687.000,1.000
308.918,-5548.354,-166704.579,-76852.290,2422.562,2688.396,6452.581,7762.026,-0.025,0.945,-0.342,-2.502,-0.854,-0.031,73.333,688.000,1.000
307.752,-5615.469,-166249.845,-76569.894,2417.377,2622.896,6452.332,7763.087,-0.023,0.945,-0.340,-2.625,-0.854,-0.183,73.333,689.000,1.000
306.053,-5682.509,-165793.134,-76287.062,2412.486,2557.623,6452.970,7763.836,-0.021,0.944,-0.338,-2.808,-0.793,-0.244,73.333,690.000,1.000
305.164,-5749.257,-165333.990,-76002.775,2407.921,2492.803,6454.769,7764.942,-0.022,0.942,-0.341,-2.991,-0.610,-0.366,73.333,691.000,1.000
306.153,-5815.558,-164872.242,-75716.490,2403.586,2428.363,6457.465,7766.893,-0.021,0.941,-0.339,-3.113,-0.671,-0.519,73.333,692.000,1.000
309.329,-5881.309,-164408.086,-75428.436,2399.375,2363.882,6460.614,7769.884,-0.019,0.939,-0.338,-3.204,-0.549,-0.610,73.333,693.000,1.000
313.794,-5947.137,-163942.472,-75139.737,2395.114,2298.212,6463.414,7773.210,-0.020,0.939,-0.335,-3.296,-0.366,-0.671,73.333,694.000,1.000
317.789,-6014.066,-163476.521,-74851.761,2390.505,2230.117,6464.769,7775.397,-0.017,0.941,-0.338,-3.357,-0.336,-0.793,73.333,695.000,1.000
320.378,-6082.399,-163010.588,-74564.886,2385.312,2159.515,6464.364,7775.387,-0.017,0.939,-0.341,-3.510,-0.275,-0.885,73.333,696.000,1.000
322.208,-6150.938,-162543.760,-74278.232,2379.563,2088.083,6463.389,7773.637,-0.016,0.942,-0.337,-3.540,-0.183,-0.977,73.333,697.000,1.000
324.303,-6218.195,-162074.907,-73991.062,2373.441,2017.714,6463.251,7771.208,-0.018,0.942,-0.333,-3.632,-0.061,-0.946,73.333,698.000,1.000
326.973,-6283.580,-161603.586,-73703.454,2367.175,1949.051,6464.338,7768.644,-0.019,0.941,-0.336,-3.784,-0.031,-0.977,73.333,699.000,1.000
329.817,-6347.094,-161129.553,-73415.674,2361.121,1881.748,6466.090,7766.123,-0.020,0.941,-0.332,-3.876,0.061,-1.007,73.333,700.000,1.000
332.137,-6409.354,-160652.681,-73127.885,2355.638,1814.764,6467.254,7763.552,-0.024,0.941,-0.332,-4.028,0.183,-1.007,73.333,701.000,1.000
333.422,-6471.113,-160172.793,-72840.076,2350.854,1747.245,6466.748,7760.983,-0.024,0.942,-0.332,-4.150,0.214,-1.007,73.333,702.000,1.000
333.746,-6532.937,-159689.840,-72552.167,2346.547,1679.059,6464.420,7758.698,-0.023,0.942,-0.330,-4.150,0.183,-1.190,73.333,703.000,1.000
333.431,-6595.463,-159204.376,-72264.417,2342.204,1610.334,6460.711,7756.774,-0.027,0.940,-0.329,-4.211,-0.061,-1.190,73.333,704.000,1.000
332.576,-6659.058,-158716.989,-71977.294,2337.282,1541.294,6456.195,7755.177,-0.027,0.941,-0.329,-4.272,-0.153,-1.190,73.333,705.000,1.000
331.300,-6723.732,-158227.723,-71690.758,2331.552,1472.198,6451.742,7754.032,-0.026,0.943,-0.328,-4.364,-0.244,-1.282,73.333,706.000,1.000
329.800,-6789.130,-157735.954,-71404.025,2325.175,1403.193,6448.554,7753.612,-0.029,0.945,-0.327,-4.517,-0.427,-1.312,73.333,707.000,1.000
328.389,-6854.593,-157240.610,-71116.082,2318.492,1333.941,6447.493,7753.899,-0.029,0.944,-0.326,-4.486,-0.458,-1.404,73.333,708.000,1.000
327.834,-6918.912,-156739.955,-70825.966,2311.911,1264.178,6448.811,7754.864,-0.029,0.947,-0.329,-4.761,-0.427,-1.373,73.333,709.000,1.000
329.036,-6980.585,-156231.749,-70533.127,2305.811,1194.532,6452.143,7756.868,-0.031,0.944,-0.329,-4.944,-0.458,-1.343,73.333,710.000,1.000
332.413,-7039.126,-155714.922,-70237.888,2300.387,1126.006,6456.308,7760.122,-0.032,0.946,-0.330,-5.066,-0.488,-1.190,73.333,711.000,1.000
337.674,-7095.152,-155190.612,-69941.174,2295.644,1059.586,6459.777,7764.509,-0.032,0.944,-0.324,-5.157,-0.519,-1.160,73.333,712.000,1.000
343.898,-7150.088,-154662.399,-69644.183,2291.429,995.793,6461.354,7769.461,-0.032,0.943,-0.322,-5.188,-0.702,-1.190,73.333,713.000,1.000
349.953,-7205.493,-154135.234,-69347.916,2287.499,934.673,6460.936,7774.308,-0.033,0.942,-0.322,-5.188,-0.824,-1.068,73.333,714.000,1.000
355.145,-7261.456,-153612.663,-69052.529,2283.713,876.549,6459.737,7779.100,-0.033,0.942,-0.322,-5.219,-0.946,-1.038,73.333,715.000,1.000
359.385,-7316.841,-153095.521,-68757.600,2280.037,821.564,6459.045,7784.182,-0.032,0.941,-0.319,-5.310,-0.946,-0.916,73.333,716.000,1.000
362.703,-7370.704,-152582.657,-68462.912,2276.353,768.990,6459.023,7789.531,-0.031,0.938,-0.320,-5.219,-1.099,-0.793,73.333,717.000,1.000
365.188,-7423.247,-152072.589,-68168.635,2272.386,717.306,6458.888,7794.848,-0.030,0.938,-0.320,-5.127,-1.129,-0.732,73.333,718.000,1.000
367.217,-7475.654,-151564.620,-67874.719,2267.928,665.083,6458.000,7800.108,-0.030,0.936,-0.319,-5.005,-1.221,-0.702,73.333,719.000,1.000
369.124,-7529.296,-151058.688,-67580.696,2262.974,611.720,6456.346,7805.542,-0.030,0.934,-0.318,-4.944,-1.190,-0.610,73.333,720.000,1.000
370.922,-7585.266,-150554.851,-67286.208,2257.577,557.094,6454.078,7810.885,-0.031,0.934,-0.316,-4.730,-1.282,-0.671,73.333,721.000,1.000
372.440,-7643.463,-150052.376,-66991.307,2251.794,501.556,6451.315,7815.475,-0.030,0.933,-0.314,-4.547,-1.373,-0.519,73.333,722.000,1.000
373.741,-7702.661,-149549.839,-66696.243,2245.800,445.826,6448.286,7818.760,-0.030,0.932,-0.315,-4.272,-1.526,-0.519,73.333,723.000,1.000
375.288,-7761.580,-149046.150,-66401.019,2239.853,390.467,6445.565,7820.702,-0.029,0.933,-0.317,-3.998,-1.465,-0.244,73.333,724.000,1.000
377.371,-7819.554,-148541.015,-66105.531,2234.011,335.383,6443.744,7821.653,-0.027,0.935,-0.320,-3.754,-1.404,-0.122,73.333,725.000,1.000
379.724,-7876.817,-148034.686,-65810.008,2228.016,279.623,6442.718,7821.720,-0.029,0.934,-0.317,-3.662,-1.312,0.061,73.333,726.000,1.000
381.885,-7933.735,-147526.648,-65514.679,2221.674,222.530,6441.946,7821.123,-0.028,0.936,-0.316,-3.540,-1.343,0.214,73.333,727.000,1.000
383.662,-7990.594,-147015.529,-65219.459,2215.122,164.246,6440.797,7820.295,-0.026,0.936,-0.315,-3.479,-1.312,0.336,73.333,728.000,1.000
385.129,-8047.679,-146500.455,-64924.140,2208.647,105.236,6438.661,7819.463,-0.029,0.936,-0.312,-3.296,-1.160,0.305,73.333,729.000,1.000
386.422,-8104.548,-145981.744,-64628.611,2202.400,46.195,6435.365,7818.628,-0.026,0.937,-0.314,-2.960,-1.099,0.366,73.333,730.000,1.000
387.708,-8160.218,-145461.026,-64332.914,2196.343,-12.302,6431.306,7817.538,-0.028,0.938,-0.312,-2.747,-1.068,0.397,73.333,731.000,1.000
389.078,-8213.790,-144940.415,-64037.043,2190.416,-69.862,6427.212,7816.049,-0.026,0.939,-0.313,-2.655,-1.160,0.458,73.333,732.000,1.000
390.451,-8265.272,-144421.678,-63741.063,2184.620,-126.403,6423.567,7814.217,-0.029,0.941,-0.312,-2.472,-1.038,0.458,73.333,733.000,1.000
391.525,-8315.970,-143905.724,-63445.331,2178.999,-182.131,6420.360,7812.252,-0.029,0.945,-0.314,-2.380,-1.068,0.488,73.333,734.000,1.000
391.850,-8367.668,-143392.183,-63150.381,2173.553,-237.272,6417.330,7810.551,-0.028,0.945,-0.313,-2.228,-0.885,0.336,73.333,735.000,1.000
391.339,-8421.704,-142879.910,-62856.497,2168.117,-292.227,6414.277,7809.374,-0.028,0.940,-0.313,-2.228,-0.977,0.305,73.333,736.000,1.000
390.469,-8477.918,-142367.374,-62563.150,2162.439,-347.092,6411.480,7809.025,-0.027,0.941,-0.310,-2.197,-0.916,0.214,73.333,737.000,1.000
389.866,-8534.834,-141853.230,-62269.246,2156.363,-401.508,6409.454,7809.838,-0.026,0.941,-0.310,-2.075,-0.824,0.214,73.333,738.000,1.000
389.843,-8590.748,-141336.936,-61973.957,2149.899,-455.048,6408.440,7811.924,-0.023,0.939,-0.315,-1.984,-0.763,0.244,73.333,739.000,1.000
390.332,-8644.450,-140818.712,-61677.179,2143.209,-507.310,6408.394,7815.143,-0.023,0.940,-0.316,-1.740,-0.641,0.397,73.333,740.000,1.000
391.159,-8696.011,-140299.534,-61379.427,2136.510,-558.369,6408.962,7818.781,-0.022,0.942,-0.314,-1.617,-0.580,0.336,73.333,741.000,1.000
392.261,-8746.271,-139780.280,-61081.215,2130.008,-608.703,6409.611,7821.820,-0.023,0.944,-0.314,-1.556,-0.458,0.305,73.333,742.000,1.000
393.857,-8795.974,-139260.926,-60782.695,2123.849,-658.917,6409.827,7823.421,-0.021,0.942,-0.314,-1.373,-0.244,0.305,73.333,743.000,1.000
396.358,-8845.567,-138740.712,-60483.800,2118.095,-709.490,6409.331,7823.345,-0.022,0.943,-0.318,-1.312,-0.092,0.366,73.333,744.000,1.000
399.884,-8895.120,-138218.641,-60184.593,2112.755,-760.466,6408.076,7822.138,-0.021,0.943,-0.316,-1.160,-0.122,0.366,73.333,745.000,1.000
404.084,-8944.627,-137694.372,-59885.292,2107.815,-811.605,6406.098,7820.699,-0.019,0.942,-0.315,-1.160,0.153,0.336,73.333,746.000,1.000
408.351,-8993.772,-137168.471,-59585.906,2103.210,-862.224,6403.742,7820.027,-0.022,0.941,-0.315,-0.977,0.183,0.397,73.333,747.000,1.000
412.136,-9042.167,-136642.470,-59286.426,2098.679,-911.811,6401.332,7820.499,-0.021,0.940,-0.317,-0.763,0.366,0.519,73.333,748.000,1.000
414.919,-9090.115,-136118.401,-58987.306,2093.720,-960.841,6398.534,7821.366,-0.024,0.940,-0.315,-0.702,0.427,0.488,73.333,749.000,1.000
416.103,-9138.626,-135597.424,-58689.370,2087.866,-1010.426,6394.589,7821.481,-0.027,0.941,-0.313,-0.580,0.519,0.397,73.333,750.000,1.000
415.536,-9188.817,-135079.128,-58393.049,2081.035,-1061.552,6389.151,7820.298,-0.031,0.939,-0.313,-0.488,0.519,0.366,73.333,751.000,1.000
413.886,-9240.528,-134561.332,-58097.658,2073.632,-1114.138,6382.855,7818.497,-0.032,0.940,-0.314,-0.305,0.427,0.336,73.333,752.000,1.000
412.210,-9292.319,-134041.061,-57801.853,2066.275,-1167.226,6376.755,7817.229,-0.034,0.942,-0.312,-0.153,0.427,0.244,73.333,753.000,1.000
411.254,-9342.882,-133516.312,-57504.691,2059.430,-1219.901,6371.522,7817.080,-0.033,0.945,-0.312,-0.031,0.275,0.183,73.333,754.000,1.000
411.089,-9391.861,-132987.064,-57206.234,2053.228,-1271.827,6367.067,7817.876,-0.035,0.945,-0.314,0.092,0.153,0.244,73.333,755.000,1.000
411.326,-9440.219,-132455.447,-56907.461,2047.453,-1323.663,6362.521,7818.791,-0.032,0.944,-0.317,0.153,0.122,0.275,73.333,756.000,1.000
411.459,-9489.328,-131924.222,-56609.364,2041.725,-1376.360,6357.025,7819.120,-0.033,0.943,-0.314,0.183,0.061,0.305,73.333,757.000,1.000
411.250,-9539.900,-131394.950,-56312.111,2035.764,-1430.252,6350.439,7818.670,-0.031,0.944,-0.317,0.214,-0.061,0.397,73.333,758.000,1.000
410.914,-9591.670,-130867.405,-56014.952,2029.487,-1484.742,6343.302,7817.396,-0.032,0.944,-0.317,0.336,-0.153,0.519,73.333,759.000,1.000
410.877,-9643.501,-130340.178,-55716.874,2022.943,-1538.563,6336.397,7815.074,-0.032,0.947,-0.316,0.458,-0.153,0.580,73.333,760.000,1.000
411.569,-9694.146,-129812.091,-55417.391,2016.266,-1590.805,6330.327,7811.397,-0.033,0.947,-0.314,0.458,-0.153,0.702,73.333,761.000,1.000
413.092,-9742.653,-129282.674,-55116.832,2009.631,-1641.362,6325.306,7806.712,-0.032,0.949,-0.312,0.549,-0.244,0.763,73.333,762.000,1.000
414.947,-9789.092,-128752.191,-54816.285,2003.050,-1691.171,6320.728,7801.843,-0.029,0.949,-0.314,0.427,-0.336,0.977,73.333,763.000,1.000
416.314,-9834.675,-128221.345,-54516.993,1996.313,-1741.754,6315.431,7797.513,-0.031,0.949,-0.312,0.427,-0.366,1.099,73.333,764.000,1.000
416.625,-9880.373,-127690.430,-54219.455,1989.215,-1793.820,6308.789,7794.288,-0.031,0.948,-0.314,0.366,-0.488,1.190,73.333,765.000,1.000
415.922,-9926.324,-127159.407,-53923.226,1981.785,-1846.857,6301.255,7792.250,-0.029,0.947,-0.314,0.427,-0.549,1.404,73.333,766.000,1.000
414.593,-9972.069,-126628.176,-53627.385,1974.291,-1899.528,6294.034,7790.838,-0.031,0.946,-0.312,0.549,-0.580,1.465,73.333,767.000,1.000
413.156,-10017.247,-126096.702,-53331.132,1967.029,-1950.752,6288.117,7788.904,-0.031,0.946,-0.314,0.519,-0.641,1.556,73.333,768.000,1.000
412.341,-10061.741,-125564.799,-53033.920,1960.125,-2000.423,6283.779,7785.511,-0.029,0.947,-0.316,0.488,-0.610,1.648,73.333,769.000,1.000
412.758,-10105.398,-125032.006,-52735.516,1953.474,-2049.230,6280.636,7780.793,-0.030,0.944,-0.316,0.488,-0.641,1.770,73.333,770.000,1.000
414.415,-10148.557,-124498.504,-52436.217,1946.803,-2098.453,6277.702,7775.494,-0.028,0.944,-0.316,0.580,-0.610,1.801,73.333,771.000,1.000
416.759,-10191.544,-123964.929,-52136.558,1939.949,-2148.889,6273.969,7770.406,-0.026,0.942,-0.316,0.519,-0.702,1.862,73.333,772.000,1.000
419.178,-10234.140,-123431.489,-51836.989,1933.015,-2200.201,6268.975,7765.788,-0.027,0.943,-0.315,0.549,-0.671,1.862,73.333,773.000,1.000
421.279,-10276.073,-122897.831,-51537.867,1926.189,-2251.398,6262.881,7761.093,-0.027,0.942,-0.315,0.610,-0.610,1.801,73.333,774.000,1.000
422.820,-10317.400,-122363.487,-51239.508,1919.517,-2301.487,6256.203,7755.488,-0.027,0.941,-0.313,0.671,-0.641,1.740,73.333,775.000,1.000
423.751,-10358.923,-121828.806,-50942.193,1912.857,-2350.241,6249.367,7748.491,-0.027,0.939,-0.314,0.793,-0.610,1.892,73.333,776.000,1.000
424.194,-10401.717,-121294.752,-50645.980,1906.006,-2398.054,6242.649,7740.655,-0.025,0.938,-0.318,0.946,-0.580,1.740,73.333,777.000,1.000
424.448,-10446.367,-120761.930,-50350.539,1898.868,-2445.588,6236.063,7733.238,-0.026,0.938,-0.317,1.068,-0.610,1.740,73.333,778.000,1.000
424.975,-10492.354,-120229.835,-50055.089,1891.609,-2493.449,6229.331,7727.290,-0.024,0.939,-0.320,1.221,-0.610,1.617,73.333,779.000,1.000
425.997,-10538.065,-119697.114,-49758.804,1884.603,-2541.883,6222.153,7723.073,-0.024,0.937,-0.318,1.221,-0.610,1.587,73.333,780.000,1.000
427.017,-10582.474,-119163.339,-49461.599,1878.072,-2591.300,6214.358,7719.681,-0.022,0.939,-0.319,1.434,-0.549,1.465,73.333,781.000,1.000
426.827,-10625.994,-118629.409,-49164.148,1871.831,-2642.158,6206.133,7715.808,-0.022,0.936,-0.320,1.404,-0.519,1.434,73.333,782.000,1.000
424.627,-10669.584,-118095.995,-48867.007,1865.434,-2694.279,6198.174,7711.026,-0.022,0.939,-0.316,1.556,-0.458,1.465,73.333,783.000,1.000
420.963,-10713.501,-117562.355,-48569.955,1858.562,-2746.545,6191.437,7706.248,-0.023,0.940,-0.318,1.770,-0.336,1.434,73.333,784.000,1.000
416.925,-10757.395,-117027.188,-48272.645,1851.195,-2797.754,6186.128,7702.523,-0.025,0.940,-0.318,1.770,-0.397,1.251,73.333,785.000,1.000
413.180,-10801.585,-116490.504,-47975.402,1843.496,-2847.976,6181.073,7699.468,-0.025,0.940,-0.316,1.862,-0.244,1.282,73.333,786.000,1.000
410.109,-10846.484,-115953.187,-47678.604,1835.731,-2897.933,6174.859,7695.928,-0.023,0.938,-0.318,1.923,-0.214,1.312,73.333,787.000,1.000
407.992,-10891.757,-115415.709,-47382.124,1828.086,-2948.156,6166.787,7691.014,-0.023,0.941,-0.321,2.075,-0.092,1.404,73.333,788.000,1.000
406.661,-10936.803,-114878.005,-47085.781,1820.474,-2999.089,6156.734,7684.204,-0.024,0.944,-0.320,2.136,-0.183,1.404,73.333,789.000,1.000
405.457,-10981.279,-114339.860,-46789.824,1812.649,-3050.957,6145.007,7675.397,-0.022,0.946,-0.320,2.045,-0.122,1.404,73.333,790.000,1.000
403.885,-11025.447,-113801.596,-46494.749,1804.466,-3103.679,6132.355,7664.880,-0.022,0.945,-0.322,2.075,-0.183,1.373,73.333,791.000,1.000
401.792,-11069.569,-113263.759,-46200.795,1795.977,-3156.635,6119.860,7653.428,-0.022,0.944,-0.321,2.197,-0.183,1.282,73.333,792.000,1.000
399.036,-11113.531,-112726.429,-45907.850,1787.341,-3208.985,6108.338,7641.961,-0.025,0.945,-0.321,2.075,-0.061,1.312,73.333,793.000,1.000
395.617,-11156.870,-112188.844,-45615.330,1778.808,-3259.858,6098.213,7631.385,-0.024,0.946,-0.323,2.014,-0.092,1.312,73.333,794.000,1.000
391.986,-11198.856,-111649.676,-45322.202,1770.723,-3308.243,6089.849,7622.625,-0.023,0.948,-0.324,1.953,-0.092,1.312,73.333,795.000,1.000
388.871,-11239.409,-111108.431,-45027.697,1763.324,-3353.845,6083.239,7616.013,-0.024,0.947,-0.325,1.770,-0.092,1.312,73.333,796.000,1.000
386.782,-11278.894,-110565.534,-44731.665,1756.595,-3397.277,6077.852,7611.346,-0.026,0.949,-0.324,1.770,-0.092,1.221,73.333,797.000,1.000
385.960,-11317.397,-110021.352,-44434.264,1750.328,-3439.622,6072.867,7608.203,-0.023,0.949,-0.325,1.617,-0.092,1.251,73.333,798.000,1.000
386.310,-11355.022,-109476.175,-44135.820,1744.209,-3482.243,6067.350,7605.812,-0.024,0.949,-0.321,1.556,-0.092,1.129,73.333,799.000,1.000
387.084,-11392.394,-108930.678,-43837.088,1737.889,-3526.513,6060.413,7602.989,-0.023,0.949,-0.324,1.404,-0.092,1.221,73.333,800.000,1.000
387.399,-11430.571,-108385.875,-43539.060,1731.118,-3573.378,6051.653,7598.509,-0.025,0.948,-0.325,1.221,-0.031,1.190,73.333,801.000,1.000
386.978,-11469.864,-107841.920,-43242.110,1723.875,-3622.394,6041.712,7592.048,-0.025,0.950,-0.324,1.038,0.031,1.160,73.333,802.000,1.000
386.320,-11509.575,-107297.685,-42945.715,1716.291,-3671.857,6031.903,7584.339,-0.025,0.949,-0.328,0.916,0.000,1.221,73.333,803.000,1.000
386.402,-11548.527,-106751.363,-42648.864,1708.583,-3719.886,6023.478,7576.761,-0.025,0.949,-0.327,0.824,-0.061,1.251,73.333,804.000,1.000
387.992,-11585.418,-106201.342,-42350.839,1700.996,-3765.349,6017.093,7570.687,-0.024,0.949,-0.326,0.671,-0.031,1.251,73.333,805.000,1.000
390.953,-11620.031,-105647.639,-42051.903,1693.585,-3808.738,6012.315,7566.301,-0.024,0.950,-0.325,0.549,0.061,1.282,73.333,806.000,1.000
394.075,-11653.540,-105092.021,-41753.179,1686.161,-3851.707,6007.831,7562.430,-0.024,0.949,-0.327,0.336,-0.031,1.312,73.333,807.000,1.000
396.015,-11687.396,-104536.557,-41455.834,1678.585,-3895.761,6002.309,7557.506,-0.023,0.949,-0.327,0.244,0.122,1.434,73.333,808.000,1.000
396.604,-11721.672,-103981.736,-41160.072,1671.126,-3940.892,5995.502,7551.014,-0.022,0.948,-0.328,0.153,0.122,1.373,73.333,809.000,1.000
396.559,-11755.174,-103426.393,-40865.393,1664.239,-3985.814,5988.145,7543.732,-0.024,0.950,-0.328,-0.061,0.153,1.343,73.333,810.000,1.000
396.103,-11787.991,-102870.181,-40571.908,1657.883,-4030.283,5980.506,7536.070,-0.025,0.949,-0.325,-0.244,0.214,1.373,73.333,811.000,1.000
394.803,-11821.790,-102314.111,-40280.095,1651.516,-4075.366,5972.145,7527.688,-0.023,0.949,-0.323,-0.458,0.244,1.526,73.333,812.000,1.000
392.681,-11857.831,-101758.905,-39989.522,1644.673,-4121.861,5962.860,7518.501,-0.023,0.949,-0.323,-0.488,0.275,1.526,73.333,813.000,1.000
390.541,-11895.745,-101204.235,-39698.727,1637.233,-4169.516,5953.254,7509.133,-0.021,0.948,-0.327,-0.732,0.305,1.587,73.333,814.000,1.000
389.143,-11933.918,-100649.338,-39406.394,1629.263,-4217.447,5944.249,7500.340,-0.022,0.948,-0.325,-0.854,0.244,1.678,73.333,815.000,1.000
388.721,-11971.032,-100094.095,-39112.239,1620.868,-4265.105,5936.125,7492.209,-0.020,0.950,-0.324,-1.099,0.275,1.831,73.333,816.000,1.000
389.270,-12006.243,-99538.496,-38816.549,1612.322,-4311.896,5928.675,7484.749,-0.019,0.950,-0.327,-1.343,0.336,1.740,73.333,817.000,1.000
391.039,-12038.732,-98981.792,-38519.586,1604.188,-4356.709,5921.963,7478.441,-0.022,0.948,-0.327,-1.465,0.427,1.862,73.333,818.000,1.000
394.355,-12068.013,-98422.897,-38221.624,1597.084,-4398.529,5916.420,7473.782,-0.022,0.947,-0.328,-1.617,0.366,1.862,73.333,819.000,1.000
398.741,-12094.561,-97861.424,-37923.361,1591.188,-4437.454,5912.094,7470.468,-0.020,0.945,-0.327,-1.801,0.427,1.892,73.333,820.000,1.000
402.685,-12120.390,-97298.697,-37626.095,1585.926,-4475.368,5907.950,7466.953,-0.018,0.944,-0.325,-1.862,0.549,1.923,73.333,821.000,1.000
404.442,-12147.922,-96736.925,-37331.053,1580.244,-4514.735,5902.537,7461.596,-0.018,0.945,-0.326,-1.862,0.549,2.075,73.333,822.000,1.000
403.168,-12178.544,-96177.636,-37038.673,1573.320,-4557.110,5894.973,7453.913,-0.022,0.944,-0.325,-1.984,0.641,2.045,73.333,823.000,1.000
399.292,-12212.173,-95620.891,-36748.477,1565.153,-4602.686,5885.178,7444.622,-0.023,0.943,-0.326,-2.045,0.671,2.075,73.333,824.000,1.000
393.810,-12247.633,-95065.357,-36459.464,1556.492,-4650.481,5873.663,7434.766,-0.025,0.940,-0.327,-2.197,0.427,2.075,73.333,825.000,1.000
387.721,-12283.648,-94509.344,-36170.511,1548.214,-4699.065,5861.364,7424.728,-0.021,0.940,-0.327,-2.258,0.275,2.014,73.333,826.000,1.000
382.117,-12318.610,-93951.299,-35880.426,1540.853,-4746.582,5849.760,7414.498,-0.019,0.943,-0.323,-2.228,0.275,1.923,73.333,827.000,1.000
378.038,-12350.956,-93390.774,-35588.485,1534.318,-4791.479,5840.090,7403.832,-0.015,0.945,-0.324,-2.106,0.244,1.984,73.333,828.000,1.000
375.732,-12380.562,-92829.425,-35295.073,1527.870,-4833.793,5832.257,7392.096,-0.016,0.945,-0.323,-2.075,0.244,2.075,73.333,829.000,1.000
374.639,-12408.568,-92269.579,-35001.272,1520.750,-4874.800,5825.083,7379.068,-0.018,0.944,-0.321,-2.228,0.244,2.136,73.333,830.000,1.000
374.530,-12436.281,-91712.064,-34707.810,1512.904,-4915.643,5817.627,7365.821,-0.020,0.942,-0.320,-2.289,0.214,2.167,73.333,831.000,1.000
375.676,-12464.575,-91155.774,-34414.743,1504.910,-4956.565,5809.898,7354.362,-0.021,0.941,-0.324,-2.289,0.122,2.167,73.333,832.000,1.000
377.840,-12494.608,-90599.517,-34122.124,1497.210,-4997.923,5801.907,7345.651,-0.019,0.940,-0.323,-2.258,0.031,2.075,73.333,833.000,1.000
380.161,-12527.539,-90043.047,-33830.102,1489.717,-5040.699,5792.940,7338.720,-0.018,0.937,-0.324,-2.167,-0.031,2.167,73.333,834.000,1.000
382.111,-12562.602,-89486.014,-33538.422,1482.147,-5085.276,5782.307,7331.942,-0.019,0.937,-0.320,-2.014,-0.122,2.289,73.333,835.000,1.000
383.971,-12597.169,-88927.834,-33246.644,1474.412,-5130.995,5770.148,7324.224,-0.019,0.935,-0.318,-1.892,-0.153,2.258,73.333,836.000,1.000
385.934,-12628.813,-88368.647,-32954.944,1466.616,-5176.878,5757.279,7315.379,-0.017,0.936,-0.317,-1.648,-0.244,2.411,73.333,837.000,1.000
387.159,-12657.599,-87810.300,-32664.566,1458.722,-5222.874,5744.353,7305.372,-0.017,0.936,-0.320,-1.404,-0.153,2.563,73.333,838.000,1.000
386.369,-12685.900,-87255.290,-32376.729,1450.505,-5269.524,5731.928,7294.183,-0.020,0.935,-0.319,-1.312,-0.305,2.747,73.333,839.000,1.000
383.509,-12715.541,-86703.727,-32090.881,1442.004,-5315.981,5721.227,7282.853,-0.021,0.938,-0.318,-1.068,-0.458,2.899,73.333,840.000,1.000
380.386,-12746.219,-86152.471,-31804.717,1433.732,-5359.953,5713.615,7273.172,-0.021,0.937,-0.319,-0.946,-0.549,2.869,73.333,841.000,1.000
379.106,-12776.045,-85597.367,-31516.116,1426.226,-5399.653,5709.155,7266.132,-0.023,0.936,-0.315,-0.854,-0.763,2.930,73.333,842.000,1.000
380.213,-12803.656,-85036.722,-31225.036,1419.486,-5435.757,5705.993,7260.832,-0.023,0.938,-0.316,-0.641,-0.854,3.052,73.333,843.000,1.000
