EEG 1,EEG 2,EEG 3,EEG 4,EEG 5,EEG 6,EEG 7,EEG 8,Accelerometer X,Accelerometer Y,Accelerometer Z,Gyroscope X,Gyroscope Y,Gyroscope Z,Battery Level,Counter,Validation Indicator
0.270,24.735,8.956,3.424,-4.161,-15.167,-10.819,-8.287,0.043,1.008,0.018,-2.258,0.000,2.075,80.000,183433.000,1.000
0.919,25.834,9.086,3.325,-1.700,-8.000,-3.677,-5.157,0.044,1.011,0.016,-2.441,0.000,2.167,80.000,183434.000,1.000
2.377,26.781,9.210,3.494,0.777,-1.531,2.557,-0.946,0.046,1.011,0.017,-2.441,-0.031,2.045,80.000,183435.000,1.000
3.301,26.772,8.363,2.906,1.714,1.617,4.803,2.253,0.042,1.010,0.020,-2.563,0.061,1.984,80.000,183436.000,1.000
2.872,25.756,6.453,1.369,1.053,1.610,3.600,3.907,0.040,1.008,0.019,-2.594,0.031,1.892,80.000,183437.000,1.000
1.252,24.550,4.224,-0.339,0.031,0.560,2.102,5.045,0.042,1.006,0.016,-2.686,0.061,1.709,80.000,183438.000,1.000
-0.857,24.017,2.405,-1.425,-0.398,0.244,2.374,6.332,0.042,1.002,0.016,-2.594,0.122,1.648,80.000,183439.000,1.000
-2.756,24.472,1.174,-1.769,-0.253,1.082,4.198,7.214,0.045,1.001,0.018,-2.563,0.061,1.617,80.000,183440.000,1.000
-3.979,25.773,0.291,-1.688,0.184,2.697,6.776,7.088,0.045,1.005,0.019,-2.441,0.183,1.617,80.000,183441.000,1.000
-4.501,27.385,-0.484,-1.564,0.693,4.532,9.270,5.929,0.046,1.007,0.018,-2.319,0.336,1.556,80.000,183442.000,1.000
-4.815,28.384,-1.533,-1.880,0.743,6.193,9.951,3.497,0.047,1.010,0.016,-2.380,0.427,1.526,80.000,183443.000,1.000
-5.473,27.996,-3.113,-3.008,-0.297,7.315,7.082,-0.460,0.046,1.010,0.015,-2.502,0.458,1.587,80.000,183444.000,1.000
-6.532,26.244,-4.950,-4.760,-2.397,6.933,0.910,-4.963,0.045,1.006,0.015,-2.441,0.488,1.648,80.000,183445.000,1.000
-7.531,23.951,-6.372,-6.386,-4.618,4.025,-6.016,-7.813,0.048,1.003,0.015,-2.502,0.610,1.678,80.000,183446.000,1.000
-8.003,22.072,-6.757,-7.222,-5.920,-1.202,-11.057,-7.554,0.045,1.000,0.015,-2.258,0.671,1.678,80.000,183447.000,1.000
-7.975,21.006,-6.247,-7.338,-6.075,-7.338,-13.498,-5.057,0.044,0.995,0.015,-2.136,0.671,1.709,80.000,183448.000,1.000
-7.841,20.664,-5.426,-7.219,-5.380,-12.337,-13.450,-2.272,0.044,0.994,0.016,-1.862,0.732,1.617,80.000,183449.000,1.000
-7.865,20.824,-4.658,-7.084,-4.045,-14.170,-10.881,-0.312,0.043,0.998,0.015,-1.678,0.916,1.434,80.000,183450.000,1.000
-7.921,21.197,-4.131,-6.871,-2.457,-12.152,-6.873,0.362,0.042,1.001,0.015,-1.434,0.885,1.343,80.000,183451.000,1.000
-7.651,21.352,-3.997,-6.575,-1.449,-7.738,-3.725,-0.776,0.039,1.001,0.017,-1.465,0.702,1.251,80.000,183452.000,1.000
-6.886,20.780,-4.521,-6.395,-1.785,-3.700,-3.043,-3.773,0.040,1.005,0.018,-1.465,0.671,1.160,80.000,183453.000,1.000
-5.859,19.298,-5.762,-6.489,-3.372,-1.981,-3.996,-7.360,0.039,1.005,0.017,-1.404,0.610,1.129,80.000,183454.000,1.000
-4.996,17.381,-7.302,-6.735,-5.150,-2.062,-4.164,-9.455,0.039,1.006,0.015,-1.404,0.610,0.916,80.000,183455.000,1.000
-4.619,15.829,-8.561,-6.898,-6.018,-1.972,-2.651,-8.835,0.038,1.006,0.016,-1.434,0.458,0.824,80.000,183456.000,1.000
-4.833,15.042,-9.192,-6.942,-5.857,-0.840,-1.335,-6.252,0.038,1.006,0.018,-1.343,0.427,0.732,80.000,183457.000,1.000
-5.518,14.742,-9.480,-7.077,-5.446,0.227,-2.548,-3.775,0.038,1.006,0.020,-1.312,0.305,0.671,80.000,183458.000,1.000
-6.373,14.385,-9.911,-7.374,-5.444,-0.127,-6.129,-2.834,0.039,1.006,0.015,-1.373,0.275,0.549,80.000,183459.000,1.000
-7.055,13.790,-10.499,-7.505,-5.602,-1.406,-9.205,-2.973,0.038,1.004,0.018,-1.282,0.092,0.519,80.000,183460.000,1.000
-7.367,13.231,-10.855,-7.077,-5.183,-1.734,-8.893,-2.765,0.038,1.004,0.019,-1.282,0.092,0.488,80.000,183461.000,1.000
-7.413,12.821,-10.718,-6.202,-4.159,-0.464,-5.033,-1.759,0.038,1.004,0.020,-1.160,0.031,0.427,80.000,183462.000,1.000
-7.541,12.135,-10.398,-5.528,-3.455,1.071,-0.281,-0.918,0.039,1.006,0.017,-1.038,-0.122,0.488,80.000,183463.000,1.000
-8.012,10.804,-10.210,-5.496,-3.779,1.388,2.354,-1.030,0.042,1.007,0.019,-1.160,-0.153,0.458,80.000,183464.000,1.000
-8.868,9.019,-10.076,-5.931,-4.861,0.011,1.682,-1.702,0.043,1.006,0.017,-1.038,-0.122,0.488,80.000,183465.000,1.000
-10.106,7.193,-9.938,-6.461,-6.025,-2.804,-1.514,-2.159,0.043,1.006,0.018,-1.068,-0.183,0.549,80.000,183466.000,1.000
-11.698,5.552,-9.884,-6.964,-6.962,-6.435,-5.607,-2.279,0.043,1.007,0.017,-1.038,-0.183,0.671,80.000,183467.000,1.000
-13.346,4.200,-10.054,-7.537,-7.719,-10.083,-9.359,-2.553,0.042,1.007,0.017,-1.068,-0.183,0.732,80.000,183468.000,1.000
-14.371,3.358,-10.234,-8.094,-8.130,-12.771,-11.914,-3.181,0.042,1.006,0.016,-0.977,-0.153,0.763,80.000,183469.000,1.000
-14.006,3.379,-9.779,-8.205,-7.528,-13.196,-12.207,-3.598,0.041,1.008,0.018,-0.916,-0.244,0.946,80.000,183470.000,1.000
-11.918,4.480,-8.151,-7.407,-5.275,-10.251,-9.476,-3.143,0.042,1.006,0.019,-0.977,-0.153,1.068,80.000,183471.000,1.000
-8.658,6.291,-5.399,-5.714,-1.703,-4.531,-4.476,-1.997,0.041,1.005,0.017,-0.946,-0.183,1.038,80.000,183472.000,1.000
-5.467,7.888,-2.404,-3.745,1.840,1.268,0.604,-1.077,0.044,1.004,0.018,-0.854,-0.214,1.099,80.000,183473.000,1.000
-3.333,8.644,-0.146,-2.147,4.133,4.504,4.011,-0.999,0.042,1.001,0.018,-0.702,-0.305,1.099,80.000,183474.000,1.000
-2.355,8.640,0.958,-1.226,4.746,4.643,5.377,-1.970,0.038,1.001,0.018,-0.702,-0.427,1.129,80.000,183475.000,1.000
-2.028,8.185,0.852,-1.092,3.669,2.888,4.663,-4.348,0.038,1.003,0.020,-0.580,-0.458,1.099,80.000,183476.000,1.000
-1.706,7.584,-0.033,-1.499,1.419,1.021,2.135,-7.788,0.038,1.003,0.017,-0.549,-0.580,1.160,80.000,183477.000,1.000
-0.833,7.396,-0.699,-1.623,-0.381,1.154,-0.159,-10.120,0.038,1.000,0.021,-0.519,-0.458,0.977,80.000,183478.000,1.000
0.807,8.245,-0.014,-0.616,0.259,5.022,0.987,-8.671,0.038,0.999,0.021,-0.427,-0.549,0.854,80.000,183479.000,1.000
2.780,9.942,2.195,1.433,3.792,11.974,6.500,-2.965,0.038,1.001,0.018,-0.366,-0.549,0.977,80.000,183480.000,1.000
4.088,11.092,4.624,3.387,8.457,18.385,13.582,4.737,0.038,1.004,0.016,-0.336,-0.519,0.977,80.000,183481.000,1.000
3.791,10.040,5.613,4.000,11.756,20.315,18.424,11.353,0.039,1.003,0.016,-0.305,-0.732,0.824,80.000,183482.000,1.000
1.626,6.190,4.259,2.735,12.140,16.515,18.722,14.585,0.040,1.002,0.015,-0.214,-0.793,0.702,80.000,183483.000,1.000
-1.866,0.310,0.749,-0.108,9.355,8.642,13.714,13.338,0.043,1.003,0.019,-0.122,-0.824,0.732,80.000,183484.000,1.000
-5.761,-6.069,-3.945,-3.721,4.152,-0.342,4.123,7.980,0.044,1.004,0.018,-0.153,-0.854,0.732,80.000,183485.000,1.000
-9.128,-11.205,-8.445,-6.986,-1.621,-7.313,-6.667,0.894,0.043,1.006,0.019,-0.153,-0.763,0.610,80.000,183486.000,1.000
-11.137,-13.624,-11.119,-8.563,-5.224,-9.651,-12.939,-3.789,0.044,1.005,0.015,-0.092,-0.763,0.671,80.000,183487.000,1.000
-11.320,-12.811,-10.893,-7.492,-4.524,-6.371,-10.558,-2.532,0.043,1.007,0.021,-0.092,-0.702,0.702,80.000,183488.000,1.000
-9.954,-9.685,-8.045,-4.037,0.172,0.834,-0.894,4.617,0.042,1.002,0.021,-0.061,-0.793,0.671,80.000,183489.000,1.000
-7.919,-6.159,-4.131,0.221,6.095,8.357,10.052,13.482,0.041,1.003,0.018,-0.153,-0.763,0.671,80.000,183490.000,1.000
-5.885,-3.773,-0.797,3.568,10.299,13.500,16.877,18.952,0.042,1.001,0.018,-0.092,-0.702,0.702,80.000,183491.000,1.000
-3.779,-2.665,1.643,5.458,11.853,16.421,18.553,18.910,0.043,1.003,0.017,-0.092,-0.641,0.671,80.000,183492.000,1.000
-1.296,-2.047,3.756,6.335,11.472,18.585,16.636,14.602,0.044,1.003,0.017,-0.031,-0.549,0.702,80.000,183493.000,1.000
1.400,-1.336,5.746,6.650,9.868,20.057,12.122,8.175,0.044,1.000,0.017,0.061,-0.488,0.763,80.000,183494.000,1.000
3.786,-0.437,7.301,6.586,7.448,19.625,5.798,1.381,0.043,1.000,0.014,0.061,-0.244,0.824,80.000,183495.000,1.000
5.525,0.675,8.180,6.344,4.905,16.945,-0.373,-4.165,0.043,1.000,0.014,0.092,-0.214,0.885,80.000,183496.000,1.000
6.632,2.022,8.540,6.110,2.947,13.021,-4.549,-7.194,0.041,1.000,0.014,0.244,-0.366,0.763,80.000,183497.000,1.000
7.250,3.281,8.468,5.791,1.591,8.769,-7.047,-7.539,0.041,1.000,0.013,0.153,-0.305,0.671,80.000,183498.000,1.000
7.472,3.891,7.907,5.144,0.408,4.679,-9.150,-5.985,0.042,1.001,0.016,0.214,-0.244,0.641,80.000,183499.000,1.000
7.431,3.699,7.047,4.207,-0.565,1.827,-10.551,-3.315,0.039,1.000,0.016,0.275,-0.275,0.702,80.000,183500.000,1.000
7.465,3.325,6.362,3.438,-0.684,1.690,-9.796,0.012,0.040,1.001,0.016,0.305,-0.244,0.641,80.000,183501.000,1.000
7.941,3.597,6.265,3.245,0.336,4.402,-6.753,3.036,0.040,1.001,0.017,0.305,-0.183,0.732,80.000,183502.000,1.000
8.853,4.587,6.467,3.412,1.735,7.897,-3.245,4.084,0.038,1.001,0.015,0.366,-0.183,0.580,80.000,183503.000,1.000
9.869,5.431,6.218,3.371,2.362,9.319,-1.160,2.273,0.036,1.001,0.014,0.488,-0.061,0.488,80.000,183504.000,1.000
10.737,5.108,5.075,2.806,1.627,7.070,-1.278,-1.523,0.034,1.001,0.014,0.519,-0.061,0.549,80.000,183505.000,1.000
11.390,3.242,3.097,1.696,-0.360,1.657,-3.629,-5.730,0.033,1.001,0.014,0.488,-0.153,0.397,80.000,183506.000,1.000
11.750,0.212,0.724,0.063,-3.109,-4.807,-7.570,-9.303,0.032,1.003,0.016,0.549,-0.275,0.397,80.000,183507.000,1.000
11.672,-3.253,-1.626,-2.030,-6.010,-10.108,-12.102,-11.874,0.033,1.001,0.016,0.610,-0.336,0.305,80.000,183508.000,1.000
11.173,-6.322,-3.534,-4.184,-8.403,-13.165,-16.306,-13.323,0.031,1.004,0.017,0.519,-0.488,0.336,80.000,183509.000,1.000
10.509,-8.276,-4.544,-5.698,-9.678,-13.954,-19.242,-13.627,0.028,1.004,0.016,0.488,-0.641,0.275,80.000,183510.000,1.000
9.915,-8.946,-4.641,-6.097,-9.630,-13.181,-20.159,-13.049,0.029,1.001,0.012,0.397,-0.732,0.275,80.000,183511.000,1.000
9.461,-8.741,-4.176,-5.356,-8.462,-11.989,-18.745,-11.700,0.031,1.001,0.014,0.458,-0.793,0.275,80.000,183512.000,1.000
9.242,-7.998,-3.473,-3.678,-6.285,-10.941,-14.941,-9.030,0.032,1.003,0.017,0.427,-0.824,0.305,80.000,183513.000,1.000
9.350,-6.788,-2.766,-1.609,-3.425,-9.731,-9.494,-5.056,0.035,1.004,0.016,0.458,-0.946,0.275,80.000,183514.000,1.000
9.500,-5.459,-2.576,-0.343,-1.327,-8.595,-5.283,-2.021,0.034,1.005,0.017,0.397,-0.977,0.244,80.000,183515.000,1.000
9.078,-4.619,-3.595,-1.084,-1.823,-8.718,-6.087,-2.910,0.037,1.005,0.016,0.305,-1.099,0.275,80.000,183516.000,1.000
7.843,-4.304,-5.589,-3.672,-4.881,-10.037,-11.889,-7.680,0.036,1.007,0.016,0.244,-1.099,0.427,80.000,183517.000,1.000
6.320,-3.657,-7.213,-6.344,-7.913,-9.918,-17.173,-12.252,0.036,1.008,0.016,0.183,-1.160,0.488,80.000,183518.000,1.000
5.290,-1.799,-7.051,-7.083,-7.867,-5.625,-15.766,-11.698,0.038,1.009,0.014,0.153,-1.160,0.641,80.000,183519.000,1.000
4.858,0.994,-4.959,-5.380,-4.052,1.967,-6.948,-4.592,0.038,1.009,0.014,0.153,-1.099,0.610,80.000,183520.000,1.000
4.083,3.072,-2.638,-2.952,0.816,7.982,3.212,4.983,0.041,1.007,0.011,0.153,-1.038,0.854,80.000,183521.000,1.000
1.711,2.598,-2.425,-2.541,2.463,7.305,6.371,9.934,0.041,1.007,0.013,0.183,-1.038,1.068,80.000,183522.000,1.000
-2.599,-0.853,-5.474,-5.609,-1.385,-1.074,-1.123,5.811,0.042,1.008,0.013,0.092,-0.977,1.099,80.000,183523.000,1.000
-7.719,-5.767,-10.734,-10.995,-8.909,-12.970,-14.588,-5.347,0.042,1.008,0.012,-0.031,-0.977,1.282,80.000,183524.000,1.000
-11.668,-9.705,-15.689,-15.802,-15.571,-21.835,-24.546,-16.581,0.043,1.008,0.012,0.000,-0.763,1.373,80.000,183525.000,1.000
-12.855,-10.870,-18.228,-17.566,-17.512,-23.125,-24.364,-21.279,0.043,1.006,0.012,-0.061,-0.702,1.465,80.000,183526.000,1.000
-10.948,-9.016,-17.646,-15.734,-13.984,-16.833,-14.669,-17.541,0.042,1.005,0.009,0.000,-0.580,1.465,80.000,183527.000,1.000
-6.848,-5.253,-14.622,-11.561,-7.288,-6.971,-1.818,-8.624,0.043,1.007,0.009,-0.092,-0.305,1.404,80.000,183528.000,1.000
-2.072,-1.267,-10.540,-7.005,-0.912,0.915,7.030,0.201,0.043,1.005,0.010,0.000,-0.214,1.343,80.000,183529.000,1.000
1.901,1.480,-6.731,-3.643,2.702,3.122,8.757,5.550,0.044,1.006,0.008,0.031,-0.122,1.312,80.000,183530.000,1.000
4.253,2.490,-3.953,-2.001,3.424,0.172,5.739,7.579,0.045,1.005,0.009,0.092,0.031,1.343,80.000,183531.000,1.000
5.160,2.387,-2.089,-1.579,2.760,-4.302,2.605,8.322,0.045,1.005,0.010,0.214,0.122,1.343,80.000,183532.000,1.000
5.345,2.098,-0.846,-1.719,1.977,-6.993,1.695,8.700,0.045,1.006,0.008,0.122,0.214,1.312,80.000,183533.000,1.000
5.406,2.094,-0.247,-2.182,1.284,-6.734,2.358,7.829,0.045,1.005,0.009,0.122,0.397,1.373,80.000,183534.000,1.000
5.712,2.577,-0.137,-2.740,0.763,-3.724,3.894,5.210,0.045,1.005,0.008,0.183,0.610,1.343,80.000,183535.000,1.000
6.540,3.784,0.049,-2.805,1.140,1.352,7.088,2.365,0.043,1.005,0.009,0.183,0.763,1.251,80.000,183536.000,1.000
7.818,5.534,0.751,-2.055,2.798,6.982,11.904,1.167,0.042,1.004,0.009,0.336,0.946,1.160,80.000,183537.000,1.000
8.966,6.889,1.615,-1.126,4.643,10.863,15.345,1.150,0.042,1.007,0.009,0.305,1.068,1.099,80.000,183538.000,1.000
9.362,6.934,1.970,-0.966,5.047,11.433,13.956,0.198,0.041,1.003,0.008,0.275,1.190,1.160,80.000,183539.000,1.000
8.950,5.731,1.743,-1.628,3.745,9.320,7.924,-2.342,0.041,1.004,0.009,0.336,1.282,1.068,80.000,183540.000,1.000
8.371,4.307,1.565,-2.050,2.254,7.172,1.616,-4.551,0.040,1.004,0.008,0.366,1.373,1.129,80.000,183541.000,1.000
8.478,3.798,2.295,-0.954,2.597,7.864,0.426,-3.640,0.038,1.003,0.006,0.397,1.434,1.007,80.000,183542.000,1.000
9.498,4.349,4.004,1.887,5.365,11.811,6.033,1.411,0.038,1.002,0.007,0.366,1.526,1.038,80.000,183543.000,1.000
10.552,4.623,5.435,5.016,8.525,15.556,13.644,8.092,0.038,1.003,0.009,0.366,1.587,1.160,80.000,183544.000,1.000
10.247,2.649,4.745,6.099,8.522,13.991,14.943,11.418,0.036,1.001,0.014,0.336,1.648,1.190,80.000,183545.000,1.000
7.989,-2.415,0.995,3.870,3.468,4.953,5.606,8.074,0.039,1.001,0.011,0.336,1.709,1.251,80.000,183546.000,1.000
4.636,-9.358,-4.713,-0.616,-4.710,-8.355,-9.724,-0.189,0.037,0.999,0.012,0.580,1.770,1.373,80.000,183547.000,1.000
1.801,-15.812,-9.944,-4.814,-11.667,-19.589,-21.065,-7.914,0.039,0.997,0.010,0.610,1.770,1.465,80.000,183548.000,1.000
0.671,-19.840,-12.573,-6.623,-14.004,-23.573,-21.448,-10.511,0.041,1.000,0.008,0.763,1.770,1.556,80.000,183549.000,1.000
1.402,-20.869,-11.977,-5.622,-11.361,-18.989,-11.513,-7.406,0.040,1.002,0.007,0.763,1.862,1.617,80.000,183550.000,1.000
3.211,-19.774,-9.348,-3.007,-6.191,-8.830,1.861,-1.675,0.043,1.002,0.007,0.824,2.014,1.740,80.000,183551.000,1.000
4.911,-18.296,-6.662,-0.545,-1.939,1.075,10.601,2.813,0.043,1.006,0.010,0.641,1.984,1.923,80.000,183552.000,1.000
5.664,-17.877,-5.234,0.643,-0.660,5.752,11.067,4.255,0.045,1.006,0.013,0.671,1.984,2.106,80.000,183553.000,1.000
5.470,-18.779,-4.956,0.581,-1.927,4.367,5.871,3.478,0.045,1.006,0.014,0.549,2.106,2.350,80.000,183554.000,1.000
4.844,-20.429,-4.965,-0.202,-4.124,-0.455,-0.361,1.885,0.046,1.006,0.011,0.458,2.197,2.472,80.000,183555.000,1.000
4.162,-22.277,-4.951,-1.530,-6.364,-5.742,-6.115,-0.652,0.048,1.008,0.012,0.366,2.289,2.625,80.000,183556.000,1.000
3.580,-23.862,-5.039,-3.400,-8.484,-9.602,-12.042,-4.956,0.049,1.007,0.015,0.305,2.319,2.869,80.000,183557.000,1.000
3.505,-24.300,-4.818,-5.083,-9.535,-10.533,-16.506,-9.661,0.048,1.005,0.013,0.305,2.441,2.899,80.000,183558.000,1.000
4.646,-22.507,-3.142,-5.057,-7.591,-7.149,-15.292,-10.830,0.050,1.003,0.011,0.275,2.655,3.021,80.000,183559.000,1.000
7.281,-18.295,0.707,-2.376,-1.729,0.693,-6.164,-5.767,0.049,1.003,0.011,0.183,2.716,3.082,80.000,183560.000,1.000
10.659,-13.016,5.768,2.160,6.390,10.876,7.980,3.674,0.050,1.002,0.013,0.214,2.747,3.174,80.000,183561.000,1.000
13.354,-8.893,9.980,6.558,13.372,19.508,20.918,12.520,0.048,1.003,0.011,0.092,2.747,3.265,80.000,183562.000,1.000
14.016,-7.846,11.476,8.929,16.095,22.553,26.680,16.280,0.046,1.001,0.016,0.061,2.930,3.296,80.000,183563.000,1.000
11.971,-10.588,9.504,8.303,13.148,17.936,22.017,12.974,0.048,1.000,0.014,0.092,3.052,3.265,80.000,183564.000,1.000
7.671,-16.177,4.890,5.082,5.650,7.197,8.299,3.871,0.049,0.999,0.013,0.000,3.052,3.235,80.000,183565.000,1.000
2.647,-22.356,-0.356,0.975,-2.911,-5.055,-8.213,-6.625,0.046,0.998,0.014,0.061,3.113,3.174,80.000,183566.000,1.000
-1.257,-26.737,-3.961,-1.878,-8.452,-13.745,-19.551,-13.068,0.045,0.999,0.011,0.153,3.143,3.082,80.000,183567.000,1.000
-2.718,-27.894,-4.561,-2.081,-8.527,-15.729,-20.830,-12.150,0.045,1.001,0.013,0.275,3.296,3.052,80.000,183568.000,1.000
-1.330,-25.723,-2.163,0.533,-3.259,-10.677,-12.101,-4.120,0.046,1.002,0.011,0.122,3.357,2.899,80.000,183569.000,1.000
2.293,-21.232,2.204,5.084,5.267,-0.543,3.373,8.035,0.044,1.002,0.015,0.061,3.326,2.747,80.000,183570.000,1.000
6.565,-16.245,6.714,9.865,13.846,11.213,20.279,19.598,0.042,1.002,0.013,0.183,3.326,2.563,80.000,183571.000,1.000
9.334,-13.045,9.194,12.752,18.878,19.953,31.446,25.381,0.041,1.003,0.012,0.092,3.296,2.472,80.000,183572.000,1.000
8.936,-13.371,8.125,12.273,17.998,21.445,31.179,22.621,0.040,1.003,0.013,0.153,3.204,2.258,80.000,183573.000,1.000
5.285,-17.199,3.850,8.766,12.020,14.856,20.638,13.715,0.040,1.000,0.011,0.153,3.143,2.136,80.000,183574.000,1.000
-0.052,-22.683,-1.432,4.266,4.732,3.620,7.812,5.288,0.040,1.002,0.009,0.153,3.021,1.984,80.000,183575.000,1.000
-4.908,-27.473,-5.366,0.908,-0.077,-7.246,0.333,2.974,0.041,1.000,0.010,0.092,2.991,1.862,80.000,183576.000,1.000
-7.876,-30.192,-6.998,-0.823,-1.677,-14.199,-0.710,6.035,0.042,1.001,0.007,0.122,2.838,1.678,80.000,183577.000,1.000
-8.864,-30.844,-7.111,-2.156,-2.334,-16.141,0.237,7.971,0.042,1.001,0.007,0.061,2.930,1.587,80.000,183578.000,1.000
-8.538,-30.219,-7.120,-4.349,-4.580,-14.259,-1.909,3.092,0.040,1.002,0.011,0.092,2.716,1.434,80.000,183579.000,1.000
-7.676,-29.257,-7.829,-7.465,-9.138,-11.454,-9.505,-8.573,0.040,0.999,0.008,0.122,2.686,1.373,80.000,183580.000,1.000
-6.878,-28.482,-9.115,-10.504,-14.594,-10.370,-20.719,-21.882,0.039,0.998,0.007,0.183,2.563,1.343,80.000,183581.000,1.000
-6.221,-27.501,-9.848,-11.904,-17.989,-11.018,-29.662,-29.801,0.040,0.998,0.008,0.336,2.472,1.343,80.000,183582.000,1.000
-5.117,-25.243,-8.508,-10.292,-16.433,-10.812,-29.807,-27.313,0.039,0.999,0.008,0.397,2.380,1.221,80.000,183583.000,1.000
-2.874,-20.991,-4.358,-5.534,-9.312,-7.144,-19.024,-14.929,0.038,1.004,0.008,0.458,2.167,1.221,80.000,183584.000,1.000
0.491,-15.346,1.723,0.825,0.706,-0.153,-1.898,1.022,0.038,1.005,0.009,0.580,1.953,1.129,80.000,183585.000,1.000
4.086,-10.159,7.409,6.397,9.130,6.874,13.036,12.615,0.036,1.007,0.009,0.580,1.862,1.099,80.000,183586.000,1.000
6.863,-7.229,10.571,9.569,12.707,10.220,19.414,15.873,0.037,1.007,0.011,0.488,1.770,1.068,80.000,183587.000,1.000
8.357,-6.989,10.606,10.285,11.352,8.849,16.942,12.472,0.037,1.008,0.012,0.488,1.678,1.038,80.000,183588.000,1.000
8.672,-8.419,8.403,9.437,7.380,4.866,10.119,6.670,0.038,1.008,0.009,0.275,1.495,1.038,80.000,183589.000,1.000
8.060,-10.028,5.404,7.892,3.400,1.475,4.164,1.638,0.037,1.008,0.010,0.214,1.282,1.129,80.000,183590.000,1.000
6.802,-10.786,2.650,6.251,1.032,0.555,1.796,-1.208,0.039,1.009,0.008,0.214,1.099,1.129,80.000,183591.000,1.000
5.237,-10.491,0.683,4.987,0.681,1.678,2.855,-1.308,0.041,1.009,0.007,0.275,1.038,1.190,80.000,183592.000,1.000
3.358,-9.937,-0.725,4.023,1.363,2.716,5.006,0.593,0.043,1.007,0.006,0.214,1.068,1.251,80.000,183593.000,1.000
0.571,-10.636,-2.709,2.469,0.944,1.119,4.456,1.909,0.043,1.005,0.007,0.153,0.946,1.404,80.000,183594.000,1.000
-3.634,-13.616,-6.317,-0.525,-2.235,-4.391,-1.460,0.061,0.045,1.001,0.004,0.153,0.824,1.556,80.000,183595.000,1.000
-8.765,-18.144,-11.278,-4.529,-7.394,-12.265,-10.687,-4.512,0.048,1.000,0.009,0.214,0.702,1.770,80.000,183596.000,1.000
-13.358,-21.944,-15.683,-7.744,-11.446,-18.489,-16.821,-7.967,0.047,0.999,0.010,0.305,0.763,1.831,80.000,183597.000,1.000
-16.032,-23.016,-17.543,-8.671,-11.897,-19.624,-15.416,-7.249,0.047,0.996,0.008,0.397,0.702,1.831,80.000,183598.000,1.000
-16.437,-21.135,-16.497,-7.658,-9.306,-15.717,-8.691,-3.927,0.047,0.998,0.005,0.458,0.641,1.953,80.000,183599.000,1.000
-15.129,-17.493,-13.595,-6.229,-6.153,-9.858,-2.092,-1.948,0.048,1.000,0.006,0.732,0.610,2.167,80.000,183600.000,1.000
-12.878,-13.462,-10.236,-5.466,-4.265,-5.511,1.106,-3.103,0.049,1.002,0.011,0.763,0.641,2.197,80.000,183601.000,1.000
-10.253,-9.900,-7.359,-5.531,-4.093,-4.487,0.393,-6.558,0.048,1.003,0.007,0.793,0.610,2.441,80.000,183602.000,1.000
-7.456,-6.855,-5.168,-5.948,-5.089,-6.105,-3.155,-10.618,0.049,1.005,0.005,0.732,0.641,2.594,80.000,183603.000,1.000
-4.311,-3.583,-3.025,-5.745,-5.860,-7.552,-6.743,-13.213,0.049,1.006,0.007,0.793,0.732,2.655,80.000,183604.000,1.000
-0.670,0.658,0.020,-4.011,-5.003,-6.006,-7.128,-12.649,0.051,1.004,0.004,0.702,0.732,2.808,80.000,183605.000,1.000
3.064,5.708,4.082,-0.718,-2.262,-0.933,-2.994,-9.118,0.052,1.001,0.004,0.610,0.702,2.869,80.000,183606.000,1.000
6.003,10.555,8.265,3.248,1.567,5.862,4.855,-4.310,0.052,1.001,0.003,0.641,0.763,2.960,80.000,183607.000,1.000
7.378,13.980,11.237,6.669,5.265,11.417,13.450,0.161,0.051,1.000,0.005,0.732,0.916,2.869,80.000,183608.000,1.000
7.040,15.070,11.924,8.439,7.313,12.439,17.372,2.951,0.050,1.002,0.008,0.763,0.854,2.869,80.000,183609.000,1.000
5.581,13.697,10.212,8.033,6.530,7.047,12.331,2.836,0.047,1.002,0.010,0.793,0.824,2.716,80.000,183610.000,1.000
4.170,10.980,7.106,6.034,3.438,-2.801,0.041,-0.124,0.048,1.003,0.009,0.763,0.824,2.563,80.000,183611.000,1.000
4.068,8.970,4.403,4.056,0.517,-11.607,-12.009,-3.421,0.049,1.005,0.008,0.854,0.793,2.350,80.000,183612.000,1.000
5.948,9.434,3.694,3.794,0.651,-14.018,-15.825,-3.112,0.048,1.005,0.007,0.824,0.702,2.136,80.000,183613.000,1.000
9.418,12.727,5.365,5.842,5.002,-8.327,-8.366,2.872,0.046,1.006,0.007,0.732,0.732,1.953,80.000,183614.000,1.000
13.020,17.510,8.354,9.083,11.871,2.842,6.516,11.974,0.048,1.010,0.009,0.610,0.702,1.801,80.000,183615.000,1.000
14.888,21.499,10.678,11.313,17.695,14.453,20.720,18.454,0.049,1.010,0.007,0.549,0.580,1.617,80.000,183616.000,1.000
13.923,22.894,10.900,10.893,19.666,22.213,27.443,18.170,0.050,1.010,0.010,0.458,0.580,1.373,80.000,183617.000,1.000
10.594,21.491,9.115,8.054,17.674,24.609,25.242,11.866,0.052,1.007,0.007,0.336,0.641,1.221,80.000,183618.000,1.000
6.527,18.511,6.583,4.670,13.825,22.325,17.490,4.125,0.052,1.005,0.007,0.275,0.580,1.099,80.000,183619.000,1.000
3.267,15.452,4.598,2.626,10.223,16.713,8.470,-0.767,0.053,1.004,0.009,0.305,0.732,1.038,80.000,183620.000,1.000
1.486,13.302,3.565,2.447,7.586,9.441,0.570,-1.899,0.055,1.002,0.009,0.305,0.641,0.824,80.000,183621.000,1.000
1.113,12.568,3.315,3.513,5.743,2.723,-5.074,-1.034,0.054,0.999,0.005,0.397,0.732,0.732,80.000,183622.000,1.000
1.775,13.523,3.689,5.066,4.763,-0.808,-6.841,-0.058,0.052,0.998,0.007,0.488,0.763,0.671,80.000,183623.000,1.000
3.127,16.206,4.757,6.841,5.310,1.019,-2.826,0.752,0.051,0.998,0.007,0.549,0.763,0.610,80.000,183624.000,1.000
4.946,20.129,6.772,8.932,7.753,7.783,6.331,2.440,0.048,0.999,0.006,0.671,0.702,0.488,80.000,183625.000,1.000
6.988,24.063,9.527,11.121,10.968,15.178,15.483,5.326,0.048,1.000,0.008,0.732,0.671,0.549,80.000,183626.000,1.000
8.769,26.435,12.146,12.639,12.727,17.543,18.338,7.967,0.047,1.000,0.011,0.763,0.641,0.488,80.000,183627.000,1.000
9.772,26.444,13.664,12.942,11.878,12.628,13.481,9.129,0.045,0.998,0.007,0.793,0.641,0.458,80.000,183628.000,1.000
9.897,24.871,13.938,12.570,9.826,3.659,6.217,10.036,0.045,0.999,0.008,0.885,0.488,0.427,80.000,183629.000,1.000
9.413,23.319,13.710,12.567,9.080,-3.396,3.766,12.970,0.043,0.999,0.009,0.977,0.305,0.397,80.000,183630.000,1.000
8.463,22.632,13.474,13.121,10.411,-4.560,8.414,17.576,0.042,0.999,0.009,1.038,0.153,0.366,80.000,183631.000,1.000
6.911,22.324,12.964,13.267,11.907,-0.493,15.522,19.886,0.041,0.999,0.007,0.824,0.061,0.244,80.000,183632.000,1.000
4.635,21.338,11.541,11.828,10.732,4.541,17.787,15.532,0.040,0.998,0.007,0.916,-0.092,0.305,80.000,183633.000,1.000
1.875,19.132,8.951,8.540,5.778,6.226,11.649,4.110,0.039,1.000,0.010,0.916,-0.214,0.275,80.000,183634.000,1.000
-0.716,16.184,5.899,4.468,-1.089,3.399,0.458,-9.381,0.040,0.999,0.009,0.885,-0.305,0.305,80.000,183635.000,1.000
-2.492,13.617,3.579,1.301,-6.322,-1.611,-8.346,-17.820,0.042,0.998,0.006,1.038,-0.458,0.244,80.000,183636.000,1.000
-3.441,12.129,2.712,-0.018,-7.598,-5.610,-9.398,-17.469,0.041,0.999,0.007,1.068,-0.732,0.214,80.000,183637.000,1.000
-4.375,11.227,2.665,-0.161,-5.808,-7.594,-3.713,-10.879,0.043,0.999,0.010,1.099,-0.885,0.244,80.000,183638.000,1.000
-6.277,9.803,1.872,-0.730,-4.088,-9.008,2.769,-4.389,0.044,0.999,0.008,0.977,-0.916,0.275,80.000,183639.000,1.000
-9.305,7.541,-0.428,-2.665,-4.880,-11.293,4.739,-2.746,0.043,1.000,0.007,0.977,-0.977,0.366,80.000,183640.000,1.000
-12.456,5.493,-3.349,-5.378,-7.922,-13.989,1.455,-5.887,0.042,1.002,0.008,1.068,-1.160,0.336,80.000,183641.000,1.000
-14.317,5.140,-5.116,-7.366,-10.887,-15.328,-3.895,-10.013,0.044,1.001,0.009,1.038,-1.343,0.488,80.000,183642.000,1.000
-14.273,6.945,-4.751,-7.648,-11.788,-14.224,-7.933,-11.458,0.046,1.000,0.008,1.038,-1.495,0.610,80.000,183643.000,1.000
-12.877,10.033,-2.795,-6.502,-10.422,-11.224,-9.295,-9.507,0.047,1.001,0.006,1.038,-1.526,0.610,80.000,183644.000,1.000
-11.159,13.190,-0.386,-4.855,-7.646,-7.398,-7.538,-5.664,0.046,1.002,0.004,1.038,-1.556,0.763,80.000,183645.000,1.000
-9.974,15.619,1.477,-3.544,-4.424,-3.375,-2.896,-1.728,0.048,1.002,0.004,0.854,-1.617,0.885,80.000,183646.000,1.000
-9.926,16.797,2.101,-3.259,-1.997,-0.099,2.072,0.563,0.049,1.004,0.003,0.732,-1.648,0.885,80.000,183647.000,1.000
-11.227,16.436,1.123,-4.476,-1.674,0.850,3.056,-0.326,0.051,1.005,0.007,0.671,-1.678,1.007,80.000,183648.000,1.000
-13.401,14.877,-1.165,-6.943,-3.669,-1.238,-2.168,-4.300,0.052,1.003,0.003,0.702,-1.648,1.099,80.000,183649.000,1.000
-15.400,13.100,-3.616,-9.504,-6.570,-5.006,-11.126,-8.904,0.053,1.003,0.003,0.580,-1.526,1.160,80.000,183650.000,1.000
-16.136,12.250,-4.892,-10.693,-8.171,-7.785,-18.286,-10.702,0.052,1.003,0.004,0.641,-1.587,1.282,80.000,183651.000,1.000
-14.967,13.068,-4.140,-9.510,-6.741,-7.304,-18.510,-7.258,0.053,1.006,0.000,0.641,-1.465,1.404,80.000,183652.000,1.000
-12.114,15.304,-1.550,-6.108,-2.184,-3.144,-10.173,1.329,0.055,1.006,0.000,0.458,-1.434,1.465,80.000,183653.000,1.000
-8.751,17.410,1.459,-2.083,3.291,2.493,2.919,11.592,0.057,1.007,-0.001,0.366,-1.373,1.648,80.000,183654.000,1.000
-6.380,17.343,3.111,0.251,6.072,5.806,13.067,17.857,0.057,1.009,0.001,0.336,-1.373,1.648,80.000,183655.000,1.000
-5.774,14.244,2.476,-0.510,3.758,4.224,14.083,15.997,0.057,1.010,-0.001,0.244,-1.190,1.617,80.000,183656.000,1.000
-6.474,9.261,0.272,-3.670,-2.774,-1.476,6.313,6.891,0.056,1.011,0.000,0.000,-1.038,1.709,80.000,183657.000,1.000
-7.284,4.720,-1.707,-6.953,-9.965,-7.801,-3.902,-4.160,0.055,1.009,0.004,-0.153,-0.885,1.678,80.000,183658.000,1.000
-7.202,2.560,-1.912,-8.142,-14.110,-11.118,-9.421,-11.273,0.057,1.006,0.003,-0.336,-0.732,1.740,80.000,183659.000,1.000
-5.989,3.265,0.174,-6.334,-13.500,-10.028,-6.928,-11.182,0.058,1.004,0.004,-0.397,-0.732,1.617,80.000,183660.000,1.000
-4.163,5.807,3.712,-2.238,-9.015,-6.081,1.442,-4.379,0.056,1.003,0.002,-0.519,-0.549,1.526,80.000,183661.000,1.000
-2.664,8.367,7.000,2.187,-3.558,-2.657,9.404,4.906,0.057,1.003,0.000,-0.580,-0.458,1.617,80.000,183662.000,1.000
-2.345,9.384,8.400,4.662,-0.525,-2.672,10.467,10.526,0.056,1.005,0.000,-0.580,-0.183,1.587,80.000,183663.000,1.000
-3.379,8.595,7.395,4.060,-1.433,-6.194,2.990,8.722,0.056,1.008,0.000,-0.671,-0.214,1.495,80.000,183664.000,1.000
-5.046,7.208,5.154,1.281,-4.719,-10.082,-8.276,1.227,0.054,1.009,0.007,-0.916,-0.183,1.465,80.000,183665.000,1.000
-6.189,6.900,3.574,-1.486,-7.171,-10.625,-16.284,-6.342,0.052,1.009,0.002,-0.946,-0.183,1.526,80.000,183666.000,1.000
-5.892,8.665,4.080,-2.248,-6.353,-6.423,-16.422,-8.776,0.052,1.007,0.004,-1.068,-0.092,1.465,80.000,183667.000,1.000
-4.002,12.285,6.810,-0.413,-2.075,1.061,-8.866,-4.751,0.053,1.004,0.003,-1.251,-0.122,1.465,80.000,183668.000,1.000
-1.291,16.397,10.405,2.824,3.411,8.342,0.957,2.265,0.053,1.004,0.006,-1.373,0.031,1.526,80.000,183669.000,1.000
0.985,19.258,12.939,5.339,6.867,11.613,5.768,6.725,0.052,1.001,0.005,-1.343,-0.061,1.526,80.000,183670.000,1.000
2.028,20.029,13.257,5.773,6.671,9.519,2.609,5.627,0.052,0.999,0.005,-1.434,-0.122,1.434,80.000,183671.000,1.000
2.064,19.329,11.865,4.513,4.048,4.582,-4.705,0.668,0.050,1.000,0.003,-1.404,-0.061,1.373,80.000,183672.000,1.000
1.940,18.466,10.267,3.014,1.626,1.064,-9.730,-3.945,0.048,1.002,0.001,-1.434,-0.153,1.373,80.000,183673.000,1.000
2.276,18.207,9.487,2.387,1.064,1.248,-8.999,-5.169,0.051,1.004,0.001,-1.373,-0.275,1.251,80.000,183674.000,1.000
2.980,18.221,9.474,2.645,2.022,3.893,-3.663,-2.959,0.051,1.004,0.000,-1.434,-0.244,1.251,80.000,183675.000,1.000
3.404,17.557,9.365,3.026,2.981,6.066,2.488,0.444,0.052,1.004,-0.001,-1.434,-0.214,1.282,80.000,183676.000,1.000
2.889,15.561,8.326,2.773,2.634,5.672,5.558,2.568,0.053,1.006,0.001,-1.495,-0.336,1.251,80.000,183677.000,1.000
1.304,12.424,6.150,1.673,0.770,2.419,3.659,2.491,0.055,1.006,0.000,-1.556,-0.336,1.221,80.000,183678.000,1.000
-0.702,9.231,3.495,0.327,-1.390,-2.035,-1.271,1.495,0.056,1.004,-0.001,-1.526,-0.305,1.221,80.000,183679.000,1.000
-2.044,7.462,1.703,-0.127,-1.832,-4.638,-4.373,1.895,0.055,1.002,0.000,-1.648,-0.397,1.282,80.000,183680.000,1.000
-1.987,7.965,1.636,0.926,0.474,-3.156,-2.414,4.504,0.057,1.005,0.002,-1.587,-0.336,1.160,80.000,183681.000,1.000
-0.661,10.227,3.072,2.849,4.321,1.613,3.212,7.454,0.056,1.002,0.000,-1.678,-0.305,1.190,80.000,183682.000,1.000
1.233,12.923,5.189,4.488,7.412,6.666,8.726,8.233,0.057,1.002,-0.002,-1.526,-0.275,0.977,80.000,183683.000,1.000
3.071,15.144,7.349,5.463,8.625,9.736,11.949,6.584,0.057,1.002,-0.003,-1.434,-0.366,1.068,80.000,183684.000,1.000
4.511,16.699,9.347,6.206,8.416,10.500,12.879,4.372,0.056,1.003,-0.004,-1.434,-0.275,1.038,80.000,183685.000,1.000
5.372,17.630,10.934,7.092,7.690,9.801,12.077,3.284,0.054,1.004,-0.003,-1.221,-0.336,1.068,80.000,183686.000,1.000
5.739,18.111,12.033,8.307,7.464,9.303,11.237,4.191,0.054,1.002,-0.004,-1.068,-0.366,1.007,80.000,183687.000,1.000
6.042,18.552,13.018,10.123,8.876,10.895,13.329,7.722,0.054,1.000,-0.002,-1.068,-0.458,1.007,80.000,183688.000,1.000
6.639,19.104,14.064,12.458,11.978,14.472,18.880,13.378,0.056,0.999,0.000,-1.007,-0.488,1.129,80.000,183689.000,1.000
7.282,19.074,14.578,14.327,14.704,16.868,23.502,18.354,0.057,0.999,-0.001,-0.977,-0.397,1.099,80.000,183690.000,1.000
7.223,17.252,13.315,14.232,14.032,14.181,21.041,18.676,0.056,1.000,-0.002,-0.885,-0.366,1.068,80.000,183691.000,1.000
5.795,12.892,9.416,11.229,8.297,4.963,8.804,12.048,0.054,1.001,0.000,-0.854,-0.427,1.068,80.000,183692.000,1.000
2.909,6.523,3.225,5.672,-1.344,-8.398,-9.851,-0.175,0.054,1.001,0.003,-0.885,-0.427,1.068,80.000,183693.000,1.000
-0.731,0.111,-3.665,-0.705,-11.052,-20.388,-26.741,-13.052,0.054,1.001,-0.001,-0.763,-0.458,1.099,80.000,183694.000,1.000
-3.867,-3.759,-8.956,-5.489,-16.228,-25.074,-33.342,-20.366,0.053,1.002,0.001,-0.702,-0.580,1.129,80.000,183695.000,1.000
-5.451,-3.479,-11.076,-6.953,-14.377,-19.887,-26.434,-18.425,0.051,1.004,0.002,-0.610,-0.671,1.068,80.000,183696.000,1.000
-5.323,0.396,-10.061,-5.079,-6.798,-7.738,-10.419,-8.480,0.052,1.006,0.004,-0.702,-0.763,1.007,80.000,183697.000,1.000
-4.171,5.469,-7.251,-1.400,2.488,4.871,6.049,4.479,0.052,1.007,0.005,-0.824,-0.885,1.007,80.000,183698.000,1.000
-2.973,9.092,-4.308,2.108,9.619,12.616,16.578,15.256,0.052,1.007,0.006,-0.854,-1.129,0.977,80.000,183699.000,1.000
-2.494,9.856,-2.280,4.133,13.002,14.721,20.757,21.120,0.053,1.006,0.004,-0.977,-1.221,0.916,80.000,183700.000,1.000
-3.074,7.914,-1.660,4.289,13.058,13.704,21.260,21.740,0.050,1.007,0.002,-1.129,-1.251,0.946,80.000,183701.000,1.000
-4.690,4.276,-2.586,2.687,10.644,11.720,18.957,17.750,0.052,1.005,0.001,-1.099,-1.434,0.916,80.000,183702.000,1.000
-7.070,0.201,-4.764,-0.298,6.564,9.588,13.017,10.391,0.054,1.005,0.001,-1.160,-1.495,0.885,80.000,183703.000,1.000
-9.670,-2.980,-7.436,-3.838,2.116,8.076,4.203,1.967,0.053,1.003,0.002,-1.190,-1.617,0.854,80.000,183704.000,1.000
-11.864,-4.524,-9.713,-6.837,-1.340,7.244,-4.818,-4.791,0.055,1.003,0.001,-1.282,-1.587,0.824,80.000,183705.000,1.000
-13.334,-4.994,-11.338,-8.591,-3.450,5.187,-11.928,-8.272,0.056,0.998,0.000,-1.221,-1.587,0.885,80.000,183706.000,1.000
-14.109,-5.649,-12.428,-8.982,-4.666,0.044,-16.096,-8.392,0.055,1.000,-0.003,-1.099,-1.648,0.885,80.000,183707.000,1.000
-14.208,-6.935,-12.716,-8.084,-5.048,-6.952,-16.188,-5.613,0.056,1.000,0.001,-1.068,-1.892,0.793,80.000,183708.000,1.000
-13.459,-8.014,-11.544,-5.956,-3.920,-11.909,-11.181,-0.239,0.057,1.000,0.000,-1.068,-1.709,0.793,80.000,183709.000,1.000
-11.781,-7.834,-8.580,-3.049,-1.087,-11.807,-2.183,6.531,0.056,1.001,0.001,-1.129,-1.740,0.854,80.000,183710.000,1.000
-9.611,-6.455,-4.948,-0.732,1.845,-7.266,6.063,11.158,0.056,1.001,-0.001,-1.129,-1.709,0.885,80.000,183711.000,1.000
-7.837,-5.213,-2.857,-0.759,2.065,-2.204,7.315,9.314,0.055,1.003,0.002,-1.251,-1.678,0.793,80.000,183712.000,1.000
-7.246,-5.673,-3.908,-3.876,-2.142,-0.885,-1.379,-0.319,0.057,1.003,0.000,-1.312,-1.678,0.854,80.000,183713.000,1.000
-7.973,-8.354,-7.820,-9.022,-9.709,-4.671,-16.727,-14.306,0.058,1.002,0.000,-1.312,-1.587,0.763,80.000,183714.000,1.000
-9.321,-12.217,-12.391,-13.771,-17.051,-10.955,-30.362,-25.984,0.058,1.003,0.002,-1.312,-1.556,0.671,80.000,183715.000,1.000
-10.239,-15.371,-15.140,-15.812,-20.124,-15.060,-33.758,-29.082,0.056,1.003,-0.002,-1.282,-1.556,0.488,80.000,183716.000,1.000
-10.306,-16.665,-15.104,-14.680,-17.460,-14.025,-24.598,-22.171,0.055,1.005,0.001,-1.190,-1.526,0.488,80.000,183717.000,1.000
-10.187,-16.764,-13.515,-12.366,-11.896,-9.410,-9.970,-10.891,0.054,1.003,0.001,-1.221,-1.465,0.427,80.000,183718.000,1.000
-10.980,-17.494,-12.826,-11.846,-8.688,-6.128,-1.851,-4.562,0.055,1.003,0.002,-1.434,-1.556,0.214,80.000,183719.000,1.000
-13.124,-20.004,-14.479,-14.564,-11.129,-7.829,-7.289,-8.863,0.054,1.000,0.003,-1.434,-1.556,0.092,80.000,183720.000,1.000
-15.833,-23.445,-17.710,-19.118,-17.619,-13.184,-22.325,-21.018,0.053,1.000,0.004,-1.404,-1.587,-0.031,80.000,183721.000,1.000
-17.483,-25.376,-20.064,-22.175,-22.798,-16.610,-34.667,-31.769,0.052,1.001,0.003,-1.465,-1.556,-0.031,80.000,183722.000,1.000
-16.755,-23.732,-19.357,-20.978,-21.807,-12.990,-33.056,-32.461,0.053,1.003,0.003,-1.495,-1.495,-0.275,80.000,183723.000,1.000
-13.643,-18.792,-15.573,-15.526,-14.317,-2.514,-16.588,-21.578,0.053,1.006,0.005,-1.465,-1.556,-0.366,80.000,183724.000,1.000
-9.387,-13.184,-10.743,-8.568,-4.775,8.985,4.411,-5.353,0.052,1.006,0.004,-1.495,-1.587,-0.519,80.000,183725.000,1.000
-5.583,-9.858,-7.419,-3.513,1.369,14.712,17.153,7.635,0.052,1.004,0.008,-1.648,-1.556,-0.610,80.000,183726.000,1.000
-3.401,-10.245,-7.049,-2.401,1.260,11.351,15.525,12.014,0.051,1.004,0.006,-1.770,-1.587,-0.702,80.000,183727.000,1.000
-3.166,-13.902,-9.484,-5.338,-4.686,0.008,1.801,7.055,0.050,1.003,0.007,-1.709,-1.526,-0.793,80.000,183728.000,1.000
-4.175,-18.915,-13.326,-10.676,-13.576,-14.572,-16.560,-4.148,0.049,1.000,0.005,-1.770,-1.648,-0.824,80.000,183729.000,1.000
-5.163,-22.892,-16.542,-15.748,-21.369,-25.960,-30.986,-16.201,0.050,1.001,0.006,-1.831,-1.617,-0.854,80.000,183730.000,1.000
-5.206,-24.278,-17.705,-18.271,-24.815,-29.313,-35.797,-24.028,0.050,1.000,0.009,-1.831,-1.740,-0.885,80.000,183731.000,1.000
-4.065,-22.852,-16.427,-17.257,-22.654,-23.627,-29.786,-24.742,0.046,1.002,0.010,-1.892,-1.770,-0.916,80.000,183732.000,1.000
-2.002,-19.368,-13.102,-13.085,-15.568,-11.596,-15.286,-17.886,0.047,1.002,0.010,-1.862,-1.770,-0.885,80.000,183733.000,1.000
0.328,-15.152,-8.870,-7.390,-5.963,2.011,2.681,-5.763,0.048,1.004,0.010,-1.801,-1.831,-0.946,80.000,183734.000,1.000
2.052,-11.732,-5.269,-2.627,2.507,12.453,17.456,6.418,0.047,1.005,0.012,-1.953,-1.892,-0.916,80.000,183735.000,1.000
2.671,-10.046,-3.602,-0.773,6.724,17.137,23.801,13.072,0.046,1.005,0.014,-2.167,-1.984,-0.824,80.000,183736.000,1.000
2.602,-9.735,-3.917,-1.880,6.280,16.716,21.474,12.503,0.045,1.006,0.013,-2.319,-2.014,-0.702,80.000,183737.000,1.000
2.787,-9.571,-5.027,-4.202,3.476,13.957,14.796,7.895,0.046,1.006,0.011,-2.289,-2.075,-0.641,80.000,183738.000,1.000
3.661,-8.809,-5.870,-5.995,0.824,11.020,7.961,3.425,0.044,1.006,0.011,-2.502,-2.075,-0.641,80.000,183739.000,1.000
4.780,-7.882,-6.232,-6.903,-1.054,8.012,1.880,0.387,0.046,1.005,0.013,-2.655,-2.228,-0.549,80.000,183740.000,1.000
5.601,-7.519,-6.352,-7.465,-2.666,4.693,-3.805,-2.252,0.045,1.006,0.013,-2.808,-2.228,-0.366,80.000,183741.000,1.000
6.285,-7.599,-5.973,-7.751,-3.784,2.690,-7.397,-4.975,0.044,1.005,0.013,-2.869,-2.289,-0.336,80.000,183742.000,1.000
7.292,-7.496,-4.592,-7.269,-3.657,3.965,-6.749,-7.097,0.047,1.004,0.017,-2.899,-2.319,-0.214,80.000,183743.000,1.000
8.549,-7.218,-2.474,-5.813,-2.420,7.368,-2.765,-7.809,0.048,1.007,0.015,-3.021,-2.350,-0.092,80.000,183744.000,1.000
9.533,-7.408,-0.345,-3.656,-0.940,9.034,1.766,-6.256,0.047,1.006,0.016,-3.021,-2.350,0.092,80.000,183745.000,1.000
9.805,-8.539,1.134,-1.366,0.072,6.102,4.660,-1.988,0.047,1.007,0.015,-3.082,-2.350,0.153,80.000,183746.000,1.000
9.226,-10.530,1.607,0.249,0.092,-1.066,4.339,3.610,0.047,1.005,0.014,-3.143,-2.441,0.275,80.000,183747.000,1.000
7.967,-12.779,1.132,0.528,-1.094,-9.168,0.418,7.539,0.047,1.006,0.014,-3.265,-2.472,0.458,80.000,183748.000,1.000
6.436,-14.436,0.079,-0.498,-2.874,-13.802,-4.848,7.577,0.047,1.004,0.014,-3.204,-2.594,0.580,80.000,183749.000,1.000
4.983,-14.981,-1.015,-2.150,-4.110,-12.310,-7.782,3.971,0.047,1.002,0.016,-3.113,-2.563,0.641,80.000,183750.000,1.000
3.713,-14.568,-1.914,-3.684,-4.128,-5.629,-6.587,-1.165,0.047,1.002,0.016,-3.082,-2.625,0.641,80.000,183751.000,1.000
2.611,-13.807,-2.620,-4.658,-3.182,2.442,-2.664,-5.445,0.048,1.002,0.017,-2.899,-2.563,0.641,80.000,183752.000,1.000
1.706,-13.348,-3.144,-4.981,-2.145,7.574,0.632,-7.511,0.049,1.002,0.013,-2.930,-2.655,0.671,80.000,183753.000,1.000
1.072,-13.517,-3.542,-4.827,-1.847,7.431,0.423,-7.551,0.050,1.000,0.015,-2.808,-2.594,0.732,80.000,183754.000,1.000
0.735,-14.088,-3.651,-4.332,-2.329,3.218,-3.098,-6.446,0.051,1.001,0.016,-2.716,-2.563,0.702,80.000,183755.000,1.000
0.666,-14.373,-3.148,-3.303,-2.558,-1.030,-6.286,-4.332,0.049,1.002,0.013,-2.563,-2.625,0.824,80.000,183756.000,1.000
0.866,-13.754,-1.685,-1.364,-1.141,-1.327,-4.736,-0.370,0.053,1.000,0.013,-2.380,-2.441,0.763,80.000,183757.000,1.000
1.299,-12.400,0.684,1.364,2.293,3.203,2.976,5.740,0.052,1.002,0.015,-2.350,-2.411,0.732,80.000,183758.000,1.000
1.694,-11.368,3.106,3.916,6.365,9.627,13.595,12.305,0.052,1.003,0.016,-2.258,-2.472,0.641,80.000,183759.000,1.000
1.674,-11.730,4.672,5.181,8.941,13.854,21.632,16.391,0.052,1.003,0.015,-2.167,-2.258,0.702,80.000,183760.000,1.000
1.138,-13.561,5.098,4.859,8.977,14.180,23.622,16.195,0.052,1.003,0.011,-2.045,-2.228,0.641,80.000,183761.000,1.000
0.382,-15.880,4.790,3.573,7.148,11.981,20.093,12.353,0.052,1.002,0.011,-2.045,-2.197,0.519,80.000,183762.000,1.000
-0.156,-17.418,4.326,2.214,4.936,9.838,14.232,7.023,0.054,1.002,0.016,-2.014,-2.014,0.397,80.000,183763.000,1.000
-0.064,-17.280,4.019,1.455,3.662,9.843,9.572,2.383,0.055,1.002,0.016,-1.831,-1.831,0.458,80.000,183764.000,1.000
0.862,-15.375,4.078,1.570,3.843,12.184,7.864,-0.249,0.054,1.001,0.017,-1.831,-1.678,0.366,80.000,183765.000,1.000
2.285,-12.598,4.353,2.253,4.804,14.097,7.774,-0.730,0.055,1.000,0.015,-1.801,-1.587,0.427,80.000,183766.000,1.000
3.442,-10.224,4.492,2.923,5.329,11.808,6.682,0.461,0.056,1.003,0.015,-1.770,-1.404,0.336,80.000,183767.000,1.000
3.778,-8.975,4.299,3.252,4.761,4.371,3.357,2.628,0.054,1.000,0.018,-1.678,-1.251,0.275,80.000,183768.000,1.000
3.351,-8.779,3.613,3.127,3.118,-5.266,-1.856,4.288,0.054,1.002,0.017,-1.678,-1.160,0.275,80.000,183769.000,1.000
2.753,-9.119,2.565,2.537,0.765,-12.561,-7.593,3.468,0.055,1.006,0.017,-1.617,-1.038,0.244,80.000,183770.000,1.000
2.740,-9.397,1.639,1.731,-1.597,-14.255,-11.640,-0.658,0.053,1.006,0.019,-1.648,-0.916,0.244,80.000,183771.000,1.000
3.730,-9.278,1.482,1.184,-3.159,-10.105,-12.033,-6.889,0.054,1.006,0.020,-1.617,-0.763,0.214,80.000,183772.000,1.000
5.493,-8.880,2.337,1.212,-3.524,-2.640,-8.742,-12.766,0.053,1.005,0.021,-1.587,-0.671,0.092,80.000,183773.000,1.000
7.329,-8.527,3.660,1.794,-2.690,4.867,-3.351,-15.727,0.052,1.004,0.018,-1.587,-0.580,0.122,80.000,183774.000,1.000
8.543,-8.414,4.723,2.704,-0.760,10.189,2.636,-14.045,0.050,1.004,0.018,-1.465,-0.549,0.031,80.000,183775.000,1.000
8.693,-8.700,4.901,3.436,1.750,12.225,7.613,-8.163,0.047,1.003,0.020,-1.526,-0.519,0.031,80.000,183776.000,1.000
7.600,-9.659,3.848,3.240,3.626,10.612,9.469,-1.185,0.045,1.005,0.020,-1.465,-0.580,0.092,80.000,183777.000,1.000
5.444,-11.349,1.738,1.663,3.739,6.189,7.239,3.059,0.044,1.004,0.019,-1.526,-0.580,0.092,80.000,183778.000,1.000
2.941,-13.108,-0.701,-0.751,2.369,1.395,2.794,3.257,0.043,1.005,0.021,-1.587,-0.610,0.092,80.000,183779.000,1.000
1.218,-13.628,-2.184,-2.450,1.401,-0.585,0.174,1.864,0.043,1.005,0.020,-1.617,-0.671,0.031,80.000,183780.000,1.000
1.177,-11.905,-1.709,-2.026,2.667,2.003,2.128,2.407,0.042,1.007,0.023,-1.526,-0.824,0.031,80.000,183781.000,1.000
2.900,-8.255,0.715,0.549,6.034,7.581,7.212,5.777,0.040,1.006,0.023,-1.465,-0.854,-0.061,80.000,183782.000,1.000
5.708,-4.057,4.228,4.014,9.756,12.541,11.751,10.035,0.040,1.005,0.023,-1.434,-0.946,0.061,80.000,183783.000,1.000
8.787,-0.422,7.854,7.119,12.708,15.029,14.749,13.570,0.039,1.004,0.021,-1.343,-1.099,0.061,80.000,183784.000,1.000
11.589,2.332,11.101,9.350,14.929,15.754,18.000,16.440,0.040,1.004,0.018,-1.282,-1.221,0.031,80.000,183785.000,1.000
13.676,4.064,13.377,10.385,16.072,15.194,21.214,18.292,0.042,1.004,0.017,-1.190,-1.404,0.000,80.000,183786.000,1.000
14.693,4.623,14.064,9.933,15.171,12.570,21.289,17.698,0.041,1.001,0.019,-1.068,-1.556,0.061,80.000,183787.000,1.000
14.525,4.112,13.163,8.195,11.935,7.250,16.027,14.060,0.042,1.000,0.017,-0.854,-1.617,0.061,80.000,183788.000,1.000
13.255,2.803,11.125,5.789,7.048,-0.500,5.843,8.376,0.044,1.001,0.015,-0.732,-1.709,0.092,80.000,183789.000,1.000
11.167,1.171,8.770,3.400,1.741,-9.196,-6.379,2.261,0.042,1.000,0.017,-0.641,-1.740,0.153,80.000,183790.000,1.000
8.930,0.135,7.107,1.741,-2.333,-15.749,-15.923,-2.729,0.040,1.000,0.014,-0.427,-1.862,0.122,80.000,183791.000,1.000
7.476,0.707,6.999,1.536,-3.566,-16.728,-18.402,-5.186,0.041,0.998,0.012,-0.244,-1.984,0.244,80.000,183792.000,1.000
7.550,3.340,8.705,3.196,-1.366,-10.983,-12.656,-4.337,0.042,0.997,0.012,0.061,-2.106,0.275,80.000,183793.000,1.000
9.369,7.746,11.767,6.587,3.460,-0.812,-1.464,-0.510,0.041,0.997,0.014,0.244,-2.167,0.244,80.000,183794.000,1.000
12.421,12.945,15.466,10.975,9.121,9.466,10.368,5.040,0.041,0.998,0.013,0.427,-2.228,0.275,80.000,183795.000,1.000
15.407,17.361,18.638,14.998,13.474,16.021,18.094,10.367,0.043,0.998,0.014,0.580,-2.228,0.244,80.000,183796.000,1.000
16.798,19.502,19.983,17.194,14.963,17.421,19.148,13.535,0.044,0.998,0.013,0.732,-2.289,0.214,80.000,183797.000,1.000
15.848,18.939,18.997,16.971,13.546,14.828,14.523,13.807,0.045,0.996,0.013,0.916,-2.258,0.061,80.000,183798.000,1.000
13.103,16.505,16.219,14.944,10.502,10.475,7.365,11.802,0.047,0.999,0.010,1.160,-2.319,0.092,80.000,183799.000,1.000
9.920,13.549,12.880,12.361,7.322,6.007,0.659,8.608,0.046,1.000,0.007,1.343,-2.258,0.092,80.000,183800.000,1.000
7.489,11.074,9.922,10.219,4.927,2.154,-3.601,5.158,0.047,1.003,0.008,1.373,-2.228,0.061,80.000,183801.000,1.000
6.286,9.427,7.641,8.874,3.615,-0.729,-4.233,2.310,0.047,1.004,0.011,1.373,-2.289,0.092,80.000,183802.000,1.000
6.159,8.470,5.983,8.320,3.434,-2.339,-0.883,1.168,0.046,1.006,0.010,1.495,-2.197,0.092,80.000,183803.000,1.000
6.642,7.949,4.778,8.546,4.522,-2.461,5.918,2.882,0.047,1.005,0.010,1.465,-2.136,0.031,80.000,183804.000,1.000
7.212,7.711,4.097,9.542,6.854,-1.268,14.719,7.556,0.047,1.004,0.011,1.404,-2.075,0.061,80.000,183805.000,1.000
7.484,7.635,3.987,11.093,9.722,0.217,22.545,13.537,0.050,1.004,0.013,1.404,-2.045,0.214,80.000,183806.000,1.000
7.231,7.420,4.179,12.595,11.584,0.271,24.933,17.731,0.048,1.003,0.008,1.343,-1.953,0.244,80.000,183807.000,1.000
6.129,6.415,3.892,12.825,10.412,-2.758,17.770,16.316,0.048,1.005,0.010,1.282,-1.770,0.275,80.000,183808.000,1.000
3.793,4.051,2.086,10.565,5.084,-9.383,0.783,7.169,0.046,1.005,0.009,1.343,-1.770,0.244,80.000,183809.000,1.000
0.402,0.753,-1.214,6.049,-2.825,-17.565,-19.731,-6.877,0.047,1.005,0.006,1.404,-1.740,0.183,80.000,183810.000,1.000
-3.046,-2.011,-4.724,1.132,-9.534,-22.962,-33.698,-19.046,0.046,1.007,0.008,1.312,-1.831,0.244,80.000,183811.000,1.000
-5.419,-3.030,-7.039,-2.256,-12.118,-22.455,-34.693,-23.897,0.045,1.008,0.008,1.160,-1.709,0.153,80.000,183812.000,1.000
-6.273,-2.411,-7.710,-3.421,-10.685,-17.106,-24.706,-20.906,0.044,1.008,0.011,1.099,-1.709,0.061,80.000,183813.000,1.000
-5.931,-1.241,-7.392,-2.882,-7.587,-10.725,-11.718,-13.624,0.043,1.009,0.010,0.885,-1.709,0.000,80.000,183814.000,1.000
-4.977,-0.503,-6.876,-1.580,-5.185,-6.356,-3.081,-6.611,0.044,1.009,0.011,0.885,-1.587,0.061,80.000,183815.000,1.000
-3.789,-0.264,-6.495,-0.165,-4.255,-4.597,-0.969,-2.584,0.044,1.008,0.009,0.732,-1.648,0.031,80.000,183816.000,1.000
-2.395,0.343,-5.887,1.348,-3.833,-4.122,-2.367,-1.208,0.045,1.008,0.007,0.641,-1.678,0.031,80.000,183817.000,1.000
-0.628,2.417,-4.313,3.306,-2.241,-2.765,-2.322,-0.253,0.047,1.006,0.004,0.610,-1.709,0.031,80.000,183818.000,1.000
1.569,6.328,-1.568,5.767,1.426,0.986,1.959,2.094,0.048,1.004,0.006,0.519,-1.709,0.122,80.000,183819.000,1.000
3.833,11.121,1.750,8.162,6.329,6.086,9.184,5.955,0.048,1.003,0.007,0.519,-1.617,0.122,80.000,183820.000,1.000
5.342,14.809,4.336,9.488,10.262,9.036,15.405,9.879,0.051,1.001,0.005,0.549,-1.556,0.183,80.000,183821.000,1.000
5.251,15.519,4.909,8.857,10.957,6.815,16.664,11.359,0.050,0.998,0.007,0.488,-1.434,0.214,80.000,183822.000,1.000
3.304,12.616,2.963,5.967,7.228,-0.688,10.464,7.783,0.048,0.995,0.008,0.580,-1.434,0.427,80.000,183823.000,1.000
0.154,7.171,-0.986,1.482,-0.124,-10.737,-2.510,-1.301,0.044,0.994,0.005,0.641,-1.312,0.458,80.000,183824.000,1.000
-2.818,1.565,-5.235,-2.862,-8.105,-19.205,-16.954,-12.446,0.044,0.994,0.003,0.793,-1.465,0.488,80.000,183825.000,1.000
-4.348,-1.838,-7.985,-5.159,-13.125,-22.645,-25.854,-20.194,0.045,0.997,0.004,0.946,-1.343,0.458,80.000,183826.000,1.000
-4.171,-2.096,-8.540,-4.645,-13.422,-20.214,-25.679,-21.079,0.045,0.999,0.004,1.068,-1.404,0.488,80.000,183827.000,1.000
-3.045,0.066,-7.463,-2.081,-9.892,-13.886,-18.107,-15.704,0.047,1.004,0.007,1.190,-1.404,0.549,80.000,183828.000,1.000
-2.059,3.146,-6.041,0.993,-4.883,-6.589,-7.610,-7.484,0.046,1.009,0.002,1.129,-1.404,0.702,80.000,183829.000,1.000
-2.053,5.706,-5.420,3.077,-0.821,-0.620,0.980,-0.364,0.049,1.010,0.000,1.190,-1.373,0.916,80.000,183830.000,1.000
-3.431,6.729,-6.482,3.017,0.413,2.310,3.370,2.475,0.051,1.008,0.000,1.160,-1.343,0.946,80.000,183831.000,1.000
-5.970,6.001,-9.423,0.437,-1.707,1.497,-1.626,-0.117,0.049,1.006,-0.001,1.160,-1.221,1.038,80.000,183832.000,1.000
-8.770,4.298,-13.285,-3.783,-5.648,-1.750,-9.805,-5.978,0.050,1.007,0.000,1.160,-1.068,1.068,80.000,183833.000,1.000
-10.667,2.931,-16.468,-7.808,-8.593,-4.658,-14.359,-10.466,0.048,1.006,0.003,1.221,-1.099,1.038,80.000,183834.000,1.000
-10.878,3.001,-17.428,-9.872,-8.423,-4.634,-11.335,-9.975,0.046,1.005,0.005,1.221,-1.160,1.007,80.000,183835.000,1.000
-9.546,4.710,-15.795,-9.485,-5.393,-1.038,-2.804,-5.273,0.047,1.006,0.004,1.190,-1.068,0.885,80.000,183836.000,1.000
-7.723,7.167,-12.663,-7.609,-1.851,3.700,5.186,-0.520,0.047,1.006,0.006,1.282,-1.099,0.763,80.000,183837.000,1.000
-6.593,9.170,-9.567,-5.534,0.017,5.847,8.137,1.157,0.048,1.009,0.005,1.343,-1.068,0.732,80.000,183838.000,1.000
-6.724,10.214,-7.525,-3.959,-0.138,3.857,6.106,-0.109,0.049,1.012,0.004,1.251,-1.068,0.671,80.000,183839.000,1.000
-7.952,10.595,-6.589,-3.012,-1.326,-0.781,1.787,-2.488,0.049,1.015,0.006,1.038,-0.977,0.671,80.000,183840.000,1.000
-9.608,10.916,-6.258,-2.468,-2.322,-5.317,-2.351,-4.295,0.050,1.015,0.005,0.824,-0.946,0.641,80.000,183841.000,1.000
-10.740,11.805,-5.636,-1.647,-1.885,-7.007,-4.035,-4.050,0.050,1.015,0.007,0.519,-1.038,0.519,80.000,183842.000,1.000
-10.599,13.657,-3.768,0.302,0.974,-4.056,-0.903,-0.478,0.052,1.017,0.008,0.488,-0.977,0.458,80.000,183843.000,1.000
-9.305,16.099,-0.705,3.459,5.909,2.664,7.088,6.081,0.050,1.016,0.003,0.244,-0.946,0.336,80.000,183844.000,1.000
-7.812,17.973,2.490,6.724,10.782,9.369,15.860,12.769,0.049,1.016,0.009,0.031,-0.885,0.397,80.000,183845.000,1.000
-7.068,18.244,4.514,8.602,13.106,12.223,19.659,15.967,0.048,1.015,0.008,-0.214,-0.793,0.458,80.000,183846.000,1.000
-7.460,16.728,4.685,8.272,11.905,10.437,16.042,14.327,0.050,1.010,0.009,-0.275,-0.763,0.397,80.000,183847.000,1.000
-8.980,13.811,3.000,5.775,7.920,6.206,7.686,9.436,0.049,1.008,0.009,-0.336,-0.702,0.519,80.000,183848.000,1.000
-11.501,9.903,-0.431,1.550,2.455,2.289,-0.657,3.640,0.046,1.006,0.005,-0.519,-0.732,0.549,80.000,183849.000,1.000
-14.776,5.335,-5.191,-3.764,-3.378,0.296,-5.295,-1.714,0.045,1.004,0.008,-0.488,-0.763,0.488,80.000,183850.000,1.000
-18.393,0.478,-10.558,-9.243,-8.609,0.402,-4.547,-5.897,0.045,1.006,0.009,-0.366,-0.824,0.458,80.000,183851.000,1.000
-21.788,-4.274,-15.582,-13.757,-12.499,1.426,0.611,-7.989,0.043,1.003,0.010,-0.397,-0.824,0.549,80.000,183852.000,1.000
-24.267,-8.492,-19.230,-16.405,-14.887,1.431,6.276,-7.424,0.042,1.001,0.012,-0.458,-0.946,0.519,80.000,183853.000,1.000
-25.188,-11.666,-20.868,-17.014,-16.095,-0.757,8.064,-4.913,0.043,1.000,0.009,-0.519,-1.099,0.610,80.000,183854.000,1.000
-24.395,-13.504,-20.372,-16.292,-16.700,-4.812,4.298,-2.465,0.039,0.998,0.002,-0.397,-1.129,0.610,80.000,183855.000,1.000
-22.481,-14.227,-18.412,-15.511,-17.482,-9.827,-3.901,-2.563,0.039,0.995,0.006,-0.366,-1.221,0.671,80.000,183856.000,1.000
-20.377,-14.160,-16.012,-15.603,-18.803,-14.925,-13.478,-6.456,0.039,0.994,0.010,-0.153,-1.282,0.732,80.000,183857.000,1.000
-18.727,-13.288,-13.806,-16.490,-20.019,-18.910,-20.466,-12.972,0.040,0.993,0.010,-0.031,-1.495,0.671,80.000,183858.000,1.000
-17.799,-11.679,-12.184,-17.421,-20.264,-20.927,-22.990,-19.517,0.040,0.991,0.010,0.153,-1.617,0.641,80.000,183859.000,1.000
-17.660,-9.921,-11.256,-17.670,-19.433,-21.380,-22.552,-23.862,0.040,0.992,0.009,0.305,-1.801,0.671,80.000,183860.000,1.000
-18.080,-8.565,-10.772,-16.816,-17.704,-20.845,-21.141,-24.748,0.036,0.990,0.009,0.427,-1.923,0.763,80.000,183861.000,1.000
-18.423,-7.424,-9.979,-14.689,-14.704,-18.712,-18.352,-21.609,0.039,0.990,0.009,0.610,-2.045,0.763,80.000,183862.000,1.000
-17.981,-5.851,-8.105,-11.454,-9.986,-14.130,-12.575,-14.805,0.042,0.991,0.006,0.854,-2.258,0.885,80.000,183863.000,1.000
-16.543,-3.636,-5.376,-7.848,-4.163,-7.873,-4.131,-6.207,0.043,0.993,0.009,1.068,-2.319,0.854,80.000,183864.000,1.000
-14.559,-1.328,-2.797,-4.958,1.108,-2.211,4.427,1.389,0.045,0.995,0.008,1.129,-2.472,0.885,80.000,183865.000,1.000
-12.612,0.504,-1.213,-3.417,4.706,1.659,11.387,6.342,0.046,0.995,0.009,1.282,-2.441,0.916,80.000,183866.000,1.000
-10.767,2.035,-0.327,-2.707,7.259,5.205,18.053,9.662,0.048,0.996,0.008,1.312,-2.472,1.068,80.000,183867.000,1.000
-8.642,3.713,0.904,-1.742,9.937,10.050,25.754,13.387,0.049,0.998,0.006,1.373,-2.502,1.160,80.000,183868.000,1.000
-6.104,5.128,2.624,-0.285,12.299,14.576,31.628,17.360,0.049,1.000,0.005,1.465,-2.380,1.190,80.000,183869.000,1.000
-3.558,5.091,3.966,0.742,12.476,15.318,30.790,18.756,0.050,0.999,0.006,1.495,-2.411,1.312,80.000,183870.000,1.000
-1.443,3.099,4.143,0.470,9.590,11.410,22.021,15.188,0.052,0.999,0.006,1.434,-2.411,1.312,80.000,183871.000,1.000
0.221,0.201,3.498,-0.783,5.121,5.715,9.243,7.751,0.052,1.002,0.004,1.587,-2.319,1.282,80.000,183872.000,1.000
1.618,-1.873,3.172,-1.871,1.657,1.764,-2.043,0.456,0.052,1.003,0.003,1.526,-2.228,1.312,80.000,183873.000,1.000
2.725,-2.132,3.732,-2.044,0.774,0.804,-8.485,-3.234,0.052,1.004,0.001,1.648,-2.258,1.373,80.000,183874.000,1.000
3.275,-0.919,4.894,-1.489,2.098,1.422,-9.842,-2.862,0.051,1.005,0.003,1.556,-2.167,1.343,80.000,183875.000,1.000
3.092,0.623,5.973,-0.834,4.149,1.462,-7.868,-0.241,0.052,1.007,0.004,1.556,-2.136,1.282,80.000,183876.000,1.000
2.518,1.719,6.814,-0.211,5.988,0.507,-4.148,2.901,0.051,1.009,0.006,1.465,-2.045,1.282,80.000,183877.000,1.000
2.380,2.605,8.080,0.932,7.815,0.364,0.909,5.824,0.051,1.009,0.004,1.373,-1.953,1.160,80.000,183878.000,1.000
3.399,4.088,10.260,3.144,10.116,3.068,6.970,8.005,0.051,1.010,0.000,1.404,-2.045,1.190,80.000,183879.000,1.000
5.693,6.693,13.237,6.412,12.764,8.523,12.567,8.884,0.049,1.008,0.001,1.312,-2.075,1.068,80.000,183880.000,1.000
8.675,10.161,16.149,10.050,14.932,14.009,14.984,8.294,0.048,1.008,0.005,1.251,-1.984,0.916,80.000,183881.000,1.000
11.318,13.609,17.854,12.994,15.709,16.317,12.091,6.666,0.045,1.006,0.001,1.160,-2.014,0.885,80.000,183882.000,1.000
12.703,16.170,17.748,14.425,14.942,14.694,4.927,4.891,0.045,1.004,0.004,1.221,-2.045,0.732,80.000,183883.000,1.000
12.525,17.466,16.007,14.280,13.536,11.470,-2.116,4.165,0.046,1.000,0.001,1.160,-2.014,0.549,80.000,183884.000,1.000
11.203,17.631,13.642,13.294,12.853,9.703,-4.144,5.851,0.048,0.999,0.003,1.221,-2.106,0.519,80.000,183885.000,1.000
9.544,17.102,11.740,12.476,13.769,10.695,0.692,10.869,0.050,0.997,0.001,1.312,-2.167,0.488,80.000,183886.000,1.000
8.175,16.277,10.756,12.310,15.960,13.569,9.952,18.330,0.049,1.001,0.003,1.434,-2.167,0.336,80.000,183887.000,1.000
7.047,15.072,10.107,12.117,17.597,16.044,17.916,24.427,0.052,1.004,0.001,1.526,-2.106,0.244,80.000,183888.000,1.000
5.550,13.015,8.358,10.419,16.244,15.583,18.570,24.258,0.052,1.006,0.003,1.617,-2.014,0.275,80.000,183889.000,1.000
3.348,10.072,4.812,6.461,10.974,11.268,10.384,16.308,0.051,1.009,0.001,1.465,-2.014,0.336,80.000,183890.000,1.000
0.892,7.035,0.150,1.134,3.495,4.832,-1.839,4.428,0.052,1.011,0.000,1.343,-1.923,0.458,80.000,183891.000,1.000
-1.020,4.797,-4.369,-3.806,-3.308,-0.979,-10.860,-5.349,0.050,1.008,0.002,1.404,-1.953,0.549,80.000,183892.000,1.000
-1.929,3.538,-7.934,-7.134,-7.722,-4.770,-12.971,-9.694,0.051,1.003,0.003,1.373,-1.831,0.610,80.000,183893.000,1.000
-1.725,3.074,-10.302,-8.462,-9.570,-6.398,-9.447,-9.116,0.053,0.999,0.001,1.465,-1.770,0.549,80.000,183894.000,1.000
-0.316,3.604,-10.891,-7.585,-8.896,-5.440,-2.763,-5.191,0.050,0.995,-0.002,1.617,-1.801,0.580,80.000,183895.000,1.000
2.094,5.197,-9.440,-4.778,-6.180,-2.043,4.552,0.258,0.048,0.992,0.005,1.831,-1.770,0.610,80.000,183896.000,1.000
4.557,6.770,-7.085,-1.637,-3.773,0.841,7.687,3.474,0.043,0.992,0.005,2.014,-1.709,0.610,80.000,183897.000,1.000
5.919,6.801,-5.553,-0.212,-4.590,-0.903,1.994,0.638,0.043,0.996,0.004,2.106,-1.770,0.549,80.000,183898.000,1.000
5.859,5.221,-5.438,-0.911,-8.591,-7.452,-10.565,-7.358,0.043,0.998,0.003,2.258,-1.770,0.427,80.000,183899.000,1.000
5.118,3.814,-5.403,-1.960,-12.113,-13.401,-20.765,-14.531,0.044,0.999,0.002,2.472,-1.831,0.366,80.000,183900.000,1.000
4.802,4.643,-3.695,-1.111,-11.190,-12.447,-19.980,-15.023,0.043,1.002,0.006,2.655,-1.831,0.275,80.000,183901.000,1.000
5.537,8.323,0.219,2.497,-4.875,-3.099,-7.237,-7.575,0.044,1.007,0.009,2.716,-1.923,0.153,80.000,183902.000,1.000
7.056,13.576,5.339,7.852,4.448,10.442,11.211,4.500,0.045,1.006,0.007,2.869,-1.892,0.092,80.000,183903.000,1.000
8.440,18.078,9.654,12.829,12.891,21.591,26.341,15.963,0.043,1.008,0.007,2.838,-1.953,0.061,80.000,183904.000,1.000
8.774,19.770,11.516,15.441,17.034,24.976,30.705,22.254,0.043,1.008,0.007,2.808,-1.862,0.000,80.000,183905.000,1.000
7.774,18.064,10.494,14.850,15.606,19.320,22.393,21.318,0.042,1.005,0.006,2.838,-1.923,-0.031,80.000,183906.000,1.000
6.166,14.436,7.866,11.975,10.559,8.830,7.497,14.860,0.043,1.003,0.004,2.930,-1.892,-0.092,80.000,183907.000,1.000
5.256,11.439,5.930,8.997,5.921,0.258,-3.546,7.662,0.042,1.002,0.004,3.052,-2.014,-0.061,80.000,183908.000,1.000
5.695,10.563,5.811,7.550,4.410,-2.707,-4.950,3.886,0.045,1.001,0.004,3.174,-2.045,-0.183,80.000,183909.000,1.000
6.843,11.265,6.745,7.522,5.511,-1.211,0.436,3.930,0.048,0.999,0.002,3.387,-2.106,0.000,80.000,183910.000,1.000
7.583,12.206,7.227,7.837,7.285,2.292,6.636,5.675,0.050,0.997,0.006,3.510,-2.167,0.153,80.000,183911.000,1.000
7.408,12.635,6.566,7.852,8.632,6.489,10.371,7.499,0.050,0.994,0.006,3.845,-2.136,0.275,80.000,183912.000,1.000
6.536,12.277,4.980,7.425,8.983,9.682,10.241,8.538,0.048,0.993,0.005,4.150,-2.075,0.427,80.000,183913.000,1.000
5.589,11.068,2.860,6.519,7.815,9.747,5.616,7.885,0.050,0.992,0.005,4.364,-2.045,0.458,80.000,183914.000,1.000
5.448,9.552,1.107,5.525,5.610,6.876,-1.129,5.594,0.050,0.993,0.005,4.669,-1.953,0.671,80.000,183915.000,1.000
6.761,8.528,0.596,5.118,3.685,3.313,-5.710,3.022,0.047,0.994,0.003,4.944,-1.892,0.885,80.000,183916.000,1.000
9.250,8.038,1.287,5.368,2.572,0.520,-6.148,1.126,0.045,0.994,0.004,5.341,-1.892,1.068,80.000,183917.000,1.000
11.801,7.414,2.397,5.637,1.765,-1.024,-3.488,-0.279,0.045,0.994,0.001,5.646,-1.953,1.221,80.000,183918.000,1.000
13.352,6.239,3.102,5.512,1.034,-0.732,0.633,-0.946,0.041,0.998,0.003,6.195,-2.045,1.373,80.000,183919.000,1.000
13.591,4.722,3.368,5.380,0.950,1.201,5.089,0.863,0.042,0.998,0.006,6.409,-2.106,1.526,80.000,183920.000,1.000
12.784,3.070,3.413,5.602,1.692,2.927,7.797,5.827,0.040,1.000,0.009,6.714,-2.289,1.495,80.000,183921.000,1.000
11.086,0.835,2.915,5.399,1.871,2.470,5.374,10.251,0.039,1.000,0.011,6.958,-2.472,1.587,80.000,183922.000,1.000
8.454,-2.584,1.426,3.512,-0.240,-0.098,-3.610,8.472,0.038,0.998,0.011,7.111,-2.563,1.617,80.000,183923.000,1.000
5.378,-6.796,-0.650,0.165,-4.167,-2.596,-15.406,-0.459,0.039,0.994,0.010,7.294,-2.655,1.648,80.000,183924.000,1.000
3.035,-10.507,-1.800,-2.665,-7.286,-3.013,-23.022,-11.171,0.039,0.995,0.008,7.660,-2.808,1.556,80.000,183925.000,1.000
2.367,-12.815,-0.991,-3.226,-7.544,-1.514,-22.128,-17.375,0.040,0.996,0.010,8.118,-2.991,1.587,80.000,183926.000,1.000
3.507,-13.753,1.601,-1.233,-4.940,0.108,-13.860,-16.385,0.040,0.997,0.006,8.392,-3.082,1.617,80.000,183927.000,1.000
6.024,-13.796,5.214,2.518,-0.865,0.288,-2.830,-9.317,0.039,0.998,0.008,8.789,-3.235,1.648,80.000,183928.000,1.000
9.146,-13.513,8.729,6.572,2.790,-1.157,5.810,-0.085,0.041,0.999,0.010,9.003,-3.387,1.648,80.000,183929.000,1.000
11.866,-13.559,11.123,9.075,4.099,-3.343,8.239,5.806,0.042,0.997,0.009,9.430,-3.571,1.770,80.000,183930.000,1.000
13.328,-14.628,11.645,8.573,1.785,-5.856,2.693,3.988,0.042,0.996,0.012,9.674,-3.571,1.801,80.000,183931.000,1.000
13.283,-17.157,10.215,5.141,-3.749,-9.239,-9.196,-5.264,0.043,0.997,0.011,9.888,-3.510,1.770,80.000,183932.000,1.000
12.235,-20.912,7.754,0.577,-10.034,-13.247,-21.567,-16.488,0.042,0.994,0.010,10.437,-3.662,1.678,80.000,183933.000,1.000
11.217,-24.782,5.652,-2.652,-13.603,-15.405,-26.614,-22.616,0.042,0.995,0.007,10.803,-3.815,1.617,80.000,183934.000,1.000
11.271,-27.247,5.304,-2.790,-12.001,-12.346,-18.971,-19.503,0.041,0.998,0.010,11.200,-3.937,1.648,80.000,183935.000,1.000
12.670,-27.609,6.964,0.103,-5.693,-3.486,-0.205,-8.463,0.040,0.999,0.010,11.383,-3.967,1.678,80.000,183936.000,1.000
14.721,-26.644,9.555,4.397,2.168,7.295,21.393,5.433,0.037,1.000,0.011,11.719,-4.181,1.587,80.000,183937.000,1.000
16.545,-25.648,11.947,8.451,8.472,15.111,37.231,17.708,0.039,1.000,0.014,12.024,-4.395,1.526,80.000,183938.000,1.000
17.594,-25.681,13.275,11.152,11.597,17.747,42.831,25.488,0.039,1.000,0.009,12.146,-4.578,1.648,80.000,183939.000,1.000
17.297,-28.070,12.594,11.242,10.304,14.770,36.568,25.770,0.040,0.996,0.008,12.451,-4.730,1.770,80.000,183940.000,1.000
15.218,-33.870,9.253,7.937,4.298,7.009,20.384,17.421,0.042,0.994,0.004,12.756,-4.974,1.801,80.000,183941.000,1.000
12.051,-41.895,4.514,2.676,-3.421,-1.238,3.370,5.181,0.044,0.992,0.005,13.123,-5.157,1.862,80.000,183942.000,1.000
9.497,-48.937,1.159,-1.615,-8.238,-4.666,-3.710,-3.185,0.044,0.988,0.005,13.458,-5.096,1.923,80.000,183943.000,1.000
8.694,-52.563,0.537,-3.551,-9.012,-3.366,-0.369,-5.227,0.050,0.985,0.002,13.855,-5.219,1.862,80.000,183944.000,1.000
9.586,-52.216,2.101,-3.810,-8.412,-2.049,4.524,-5.077,0.051,0.981,0.001,14.313,-5.219,1.953,80.000,183945.000,1.000
11.799,-47.927,5.086,-2.843,-8.166,-3.255,4.922,-6.016,0.052,0.978,-0.001,14.526,-5.188,2.014,80.000,183946.000,1.000
15.078,-40.065,9.122,-0.299,-7.656,-5.726,1.071,-7.419,0.053,0.975,-0.002,15.106,-5.127,1.984,80.000,183947.000,1.000
18.726,-30.438,13.295,3.217,-6.889,-8.312,-6.448,-9.132,0.056,0.971,-0.003,15.686,-5.127,2.075,80.000,183948.000,1.000
21.627,-21.813,16.027,6.010,-6.934,-11.288,-17.292,-12.247,0.056,0.968,-0.004,16.510,-4.944,1.984,80.000,183949.000,1.000
23.182,-15.852,16.843,7.260,-7.524,-14.223,-27.443,-15.333,0.059,0.967,-0.012,17.365,-4.913,1.923,80.000,183950.000,1.000
23.655,-12.385,16.482,7.419,-7.250,-15.565,-32.001,-15.471,0.061,0.968,-0.013,18.402,-4.791,1.709,80.000,183951.000,1.000
23.668,-10.223,15.901,7.187,-5.423,-13.924,-29.652,-12.063,0.063,0.972,-0.014,19.104,-4.669,1.678,80.000,183952.000,1.000
23.933,-7.626,16.261,7.504,-1.501,-7.667,-20.067,-5.786,0.062,0.975,-0.017,19.989,-4.486,1.617,80.000,183953.000,1.000
25.062,-2.861,18.665,9.676,5.709,4.840,-1.573,3.940,0.062,0.982,-0.015,20.721,-4.272,1.587,80.000,183954.000,1.000
26.837,4.059,23.070,13.888,15.671,21.505,23.524,16.727,0.060,0.985,-0.016,21.271,-4.059,1.312,80.000,183955.000,1.000
27.819,10.485,27.168,17.860,24.035,34.646,44.485,27.790,0.060,0.989,-0.015,21.820,-3.876,1.129,80.000,183956.000,1.000
26.367,13.156,27.979,18.475,25.663,36.438,49.511,30.805,0.061,0.992,-0.017,22.400,-3.754,0.885,80.000,183957.000,1.000
22.077,11.042,24.620,14.799,19.768,26.526,37.799,24.637,0.059,0.993,-0.017,22.705,-3.540,0.671,80.000,183958.000,1.000
15.997,5.780,18.553,8.693,10.589,12.715,20.577,14.486,0.057,0.993,-0.021,22.888,-3.448,0.458,80.000,183959.000,1.000
9.746,-0.129,12.177,2.794,3.146,3.670,10.128,6.363,0.057,0.993,-0.024,23.224,-3.265,0.183,80.000,183960.000,1.000
4.659,-4.950,7.145,-1.318,-0.408,1.942,9.921,2.793,0.053,0.995,-0.025,23.407,-3.143,-0.031,80.000,183961.000,1.000
1.386,-8.124,3.932,-3.348,-0.899,3.909,14.889,3.126,0.051,0.996,-0.026,23.773,-3.021,-0.336,80.000,183962.000,1.000
-0.468,-10.330,1.887,-4.211,-1.064,3.476,16.472,4.327,0.050,0.993,-0.027,24.109,-2.930,-0.641,80.000,183963.000,1.000
-2.157,-13.024,-0.680,-5.768,-4.118,-4.126,7.396,1.934,0.044,0.995,-0.031,24.445,-3.052,-1.007,80.000,183964.000,1.000
-4.529,-16.724,-4.556,-9.115,-10.857,-18.202,-12.366,-6.041,0.042,0.996,-0.034,24.780,-3.174,-1.190,80.000,183965.000,1.000
-6.961,-19.707,-8.376,-13.083,-18.024,-31.432,-33.442,-16.371,0.043,0.995,-0.032,25.146,-3.357,-1.434,80.000,183966.000,1.000
-7.875,-19.085,-9.667,-15.137,-20.709,-34.809,-43.400,-23.235,0.042,0.995,-0.033,25.421,-3.448,-1.678,80.000,183967.000,1.000
-6.289,-13.293,-7.062,-13.657,-16.378,-24.714,-36.310,-23.046,0.039,0.996,-0.035,25.757,-3.510,-1.923,80.000,183968.000,1.000
-2.899,-3.673,-1.811,-9.280,-6.809,-6.039,-17.052,-16.655,0.037,0.997,-0.038,26.215,-3.540,-2.197,80.000,183969.000,1.000
0.152,5.958,3.152,-4.409,3.040,10.555,2.487,-8.053,0.031,0.998,-0.040,26.550,-3.662,-2.441,80.000,183970.000,1.000
0.722,11.747,5.161,-1.572,8.377,15.776,11.789,-1.416,0.031,0.999,-0.042,26.886,-3.998,-2.716,80.000,183971.000,1.000
-1.723,12.652,3.782,-1.667,7.980,8.679,9.055,1.624,0.031,1.001,-0.043,27.039,-4.303,-2.808,80.000,183972.000,1.000
-5.842,10.929,0.945,-3.583,4.641,-3.080,1.079,2.443,0.031,1.001,-0.043,27.252,-4.547,-2.869,80.000,183973.000,1.000
-9.578,9.964,-1.045,-5.385,2.466,-10.026,-3.704,3.445,0.029,1.003,-0.045,27.466,-4.700,-2.808,80.000,183974.000,1.000
-11.482,11.815,-0.843,-5.673,3.797,-7.953,-1.348,5.881,0.030,1.000,-0.048,27.893,-4.822,-2.808,80.000,183975.000,1.000
-11.390,16.142,1.244,-4.368,7.923,0.207,6.072,9.025,0.029,0.998,-0.053,28.259,-5.096,-2.747,80.000,183976.000,1.000
-10.131,20.931,3.850,-2.449,12.168,8.255,13.474,11.054,0.025,0.996,-0.054,28.717,-5.432,-2.747,80.000,183977.000,1.000
-8.762,24.076,5.666,-1.146,13.886,11.649,16.323,10.266,0.025,0.996,-0.055,29.022,-5.646,-2.655,80.000,183978.000,1.000
-8.089,24.499,5.608,-1.448,11.662,9.317,11.767,5.639,0.021,0.994,-0.054,29.327,-5.890,-2.594,80.000,183979.000,1.000
-8.407,22.646,3.493,-3.524,6.044,3.375,0.353,-2.214,0.022,0.994,-0.057,29.694,-6.195,-2.563,80.000,183980.000,1.000
-9.497,20.091,0.240,-6.451,-0.479,-2.386,-12.966,-10.446,0.024,0.996,-0.060,30.273,-6.470,-2.716,80.000,183981.000,1.000
-11.027,18.117,-2.784,-8.861,-5.146,-5.682,-22.124,-15.267,0.021,0.996,-0.063,30.792,-6.866,-2.747,80.000,183982.000,1.000
-12.734,16.894,-4.543,-9.766,-6.537,-7.144,-23.711,-13.893,0.021,1.000,-0.070,31.189,-7.141,-2.808,80.000,183983.000,1.000
-14.089,16.385,-4.632,-8.673,-4.397,-7.312,-16.854,-5.679,0.023,1.001,-0.069,31.616,-7.507,-2.777,80.000,183984.000,1.000
-14.381,17.036,-2.907,-5.733,0.508,-4.558,-2.989,6.752,0.022,1.002,-0.073,31.677,-7.812,-2.594,80.000,183985.000,1.000
-13.544,18.819,-0.119,-2.307,5.625,1.800,12.142,17.290,0.024,0.997,-0.073,31.799,-8.179,-2.533,80.000,183986.000,1.000
-12.333,20.746,2.259,-0.303,7.683,9.093,20.808,20.015,0.029,0.992,-0.076,31.952,-8.392,-2.350,80.000,183987.000,1.000
-11.535,21.906,3.314,-0.572,5.501,13.997,19.933,13.943,0.030,0.991,-0.080,32.532,-8.514,-2.197,80.000,183988.000,1.000
-11.522,22.016,2.790,-2.561,0.607,14.893,12.736,3.240,0.031,0.985,-0.079,32.928,-8.514,-2.014,80.000,183989.000,1.000
-12.305,20.973,0.985,-5.164,-4.755,10.959,4.042,-6.451,0.032,0.985,-0.085,33.203,-8.606,-1.984,80.000,183990.000,1.000
-13.532,18.815,-1.448,-7.520,-9.234,2.230,-3.835,-11.788,0.034,0.978,-0.092,33.539,-8.575,-1.984,80.000,183991.000,1.000
-14.684,15.941,-3.759,-9.359,-12.617,-8.970,-11.191,-13.292,0.035,0.975,-0.092,34.149,-8.545,-1.953,80.000,183992.000,1.000
-15.520,12.903,-5.605,-10.886,-15.355,-18.788,-19.007,-13.809,0.037,0.969,-0.095,34.729,-8.514,-1.831,80.000,183993.000,1.000
-16.048,10.316,-7.279,-12.219,-17.631,-24.019,-26.815,-15.446,0.038,0.968,-0.099,35.339,-8.545,-1.709,80.000,183994.000,1.000
-16.205,8.807,-8.728,-13.031,-18.934,-23.649,-32.053,-18.106,0.039,0.965,-0.100,36.072,-8.514,-1.709,80.000,183995.000,1.000
-15.953,8.535,-9.524,-12.977,-18.655,-19.357,-32.072,-20.218,0.039,0.963,-0.107,36.743,-8.453,-1.617,80.000,183996.000,1.000
-15.393,9.107,-9.307,-12.006,-16.598,-14.152,-26.209,-19.901,0.038,0.962,-0.106,37.567,-8.331,-1.740,80.000,183997.000,1.000
-14.593,10.128,-8.006,-10.320,-13.145,-10.321,-16.805,-16.338,0.038,0.959,-0.109,38.300,-8.118,-1.678,80.000,183998.000,1.000
-13.598,11.501,-6.239,-8.420,-9.262,-8.594,-8.297,-10.810,0.038,0.959,-0.108,38.879,-7.904,-1.678,80.000,183999.000,1.000
-12.565,13.329,-4.541,-6.762,-5.696,-7.735,-3.025,-5.311,0.040,0.959,-0.113,39.673,-7.721,-1.831,80.000,184000.000,1.000
-11.602,15.894,-2.784,-5.203,-2.063,-4.829,1.249,-0.199,0.042,0.963,-0.118,40.253,-7.507,-1.862,80.000,184001.000,1.000
-10.607,19.349,-0.522,-3.310,2.253,2.042,7.491,5.011,0.044,0.964,-0.121,40.802,-7.233,-1.923,80.000,184002.000,1.000
-9.620,22.951,1.860,-1.480,6.103,10.517,13.890,8.601,0.045,0.965,-0.122,41.077,-7.172,-1.953,80.000,184003.000,1.000
-9.098,25.027,2.616,-0.951,6.941,14.580,15.074,7.358,0.047,0.965,-0.127,41.534,-6.897,-1.862,80.000,184004.000,1.000
-9.427,24.383,0.628,-2.304,3.723,10.177,8.999,0.860,0.048,0.961,-0.132,41.901,-6.714,-1.770,80.000,184005.000,1.000
-10.387,21.564,-3.305,-4.881,-1.816,-0.192,-0.766,-7.917,0.050,0.958,-0.136,42.297,-6.531,-1.831,80.000,184006.000,1.000
-11.246,18.320,-7.246,-7.605,-7.005,-10.107,-9.294,-15.827,0.051,0.954,-0.142,42.786,-6.226,-1.862,80.000,184007.000,1.000
-11.297,16.018,-9.718,-9.626,-10.236,-15.700,-14.336,-20.843,0.053,0.952,-0.147,43.396,-5.890,-1.892,80.000,184008.000,1.000
-10.364,14.803,-10.783,-10.455,-11.259,-17.697,-16.647,-21.553,0.055,0.952,-0.151,44.159,-5.554,-1.892,80.000,184009.000,1.000
-8.928,13.975,-11.157,-10.057,-10.663,-18.053,-17.786,-18.019,0.057,0.959,-0.152,44.678,-5.005,-1.923,80.000,184010.000,1.000
-7.871,12.650,-11.396,-8.946,-9.362,-17.229,-18.178,-12.521,0.059,0.964,-0.153,45.258,-4.517,-1.892,80.000,184011.000,1.000
-7.844,10.400,-11.403,-7.614,-7.766,-14.512,-16.253,-7.368,0.059,0.969,-0.158,45.441,-4.089,-1.984,80.000,184012.000,1.000
-8.686,7.596,-10.567,-6.016,-5.545,-9.557,-10.166,-2.768,0.059,0.971,-0.161,45.624,-3.723,-1.984,80.000,184013.000,1.000
-9.683,4.845,-8.995,-4.149,-2.721,-3.677,-1.150,1.847,0.059,0.971,-0.164,45.868,-3.204,-1.892,80.000,184014.000,1.000
-10.071,2.602,-7.204,-2.252,0.178,1.398,7.703,6.595,0.059,0.969,-0.164,46.051,-2.808,-1.923,80.000,184015.000,1.000
-9.288,1.329,-5.343,-0.302,3.107,5.642,14.914,11.610,0.057,0.965,-0.167,46.051,-2.380,-1.801,80.000,184016.000,1.000
-7.576,0.691,-3.672,1.424,5.457,8.501,18.920,15.663,0.053,0.964,-0.173,46.051,-2.045,-1.740,80.000,184017.000,1.000
-6.282,-1.076,-3.425,1.486,4.812,6.343,15.605,14.909,0.052,0.958,-0.175,46.265,-1.678,-1.801,80.000,184018.000,1.000
-6.525,-5.250,-5.930,-1.344,-0.474,-3.155,2.752,6.577,0.046,0.955,-0.182,46.570,-1.343,-1.831,80.000,184019.000,1.000
-7.743,-10.505,-10.317,-6.023,-8.270,-15.841,-14.632,-6.756,0.043,0.954,-0.185,47.028,-1.038,-2.014,80.000,184020.000,1.000
-8.455,-14.077,-14.147,-9.930,-14.248,-24.272,-27.573,-18.692,0.043,0.956,-0.188,47.424,-0.946,-2.167,80.000,184021.000,1.000
-7.882,-14.349,-15.519,-11.022,-15.410,-24.454,-30.085,-23.347,0.042,0.959,-0.190,47.791,-0.824,-2.228,80.000,184022.000,1.000
-6.224,-11.457,-13.959,-8.820,-11.338,-17.021,-21.703,-18.315,0.040,0.961,-0.193,48.065,-0.732,-2.289,80.000,184023.000,1.000
-4.089,-6.510,-10.557,-4.345,-3.618,-4.158,-6.057,-6.148,0.038,0.964,-0.195,48.309,-0.641,-2.441,80.000,184024.000,1.000
-2.207,-1.220,-7.029,0.437,4.880,11.336,11.359,6.829,0.038,0.961,-0.197,48.340,-0.458,-2.441,80.000,184025.000,1.000
-1.452,2.209,-5.115,3.385,10.770,24.588,24.431,14.260,0.035,0.959,-0.201,48.553,-0.366,-2.655,80.000,184026.000,1.000
-2.623,1.912,-5.963,3.124,11.491,29.708,28.142,13.230,0.034,0.957,-0.205,48.859,-0.275,-3.021,80.000,184027.000,1.000
-5.933,-2.359,-9.436,-0.197,6.867,23.887,21.360,5.453,0.033,0.952,-0.211,49.103,-0.183,-3.204,80.000,184028.000,1.000
-10.652,-8.748,-14.312,-4.935,-0.515,9.927,8.084,-4.141,0.032,0.949,-0.217,49.316,-0.122,-3.357,80.000,184029.000,1.000
-15.320,-14.238,-18.586,-8.846,-6.822,-5.471,-4.668,-10.433,0.033,0.947,-0.223,49.652,-0.122,-3.693,80.000,184030.000,1.000
-18.411,-16.339,-20.598,-10.289,-9.114,-15.566,-11.060,-10.796,0.033,0.945,-0.224,50.018,-0.183,-3.876,80.000,184031.000,1.000
-18.942,-14.220,-19.677,-8.773,-6.411,-16.301,-8.545,-5.723,0.036,0.941,-0.229,50.262,-0.305,-3.967,80.000,184032.000,1.000
-16.878,-8.965,-16.165,-5.003,0.125,-7.777,1.746,1.913,0.033,0.937,-0.229,50.720,-0.275,-3.998,80.000,184033.000,1.000
-13.277,-3.240,-11.696,-0.704,7.372,4.780,14.091,8.217,0.036,0.936,-0.237,51.056,-0.275,-4.120,80.000,184034.000,1.000
-9.763,-0.079,-8.205,2.265,11.596,12.932,20.238,10.476,0.036,0.937,-0.238,51.361,-0.122,-4.181,80.000,184035.000,1.000
-7.599,-1.113,-6.965,2.843,10.657,10.756,14.991,8.183,0.039,0.938,-0.240,51.575,-0.092,-4.181,80.000,184036.000,1.000
-6.977,-5.481,-7.883,1.257,5.472,-0.365,0.585,2.645,0.040,0.941,-0.244,51.819,-0.092,-4.089,80.000,184037.000,1.000
-6.917,-10.325,-9.295,-0.854,-0.155,-12.626,-13.996,-2.890,0.040,0.943,-0.245,51.758,0.061,-3.967,80.000,184038.000,1.000
-6.045,-12.699,-9.300,-1.323,-1.818,-17.597,-19.187,-4.293,0.040,0.945,-0.257,51.697,0.122,-3.723,80.000,184039.000,1.000
-3.705,-11.585,-7.024,0.849,2.029,-12.299,-12.267,-0.158,0.041,0.946,-0.259,51.544,0.183,-3.571,80.000,184040.000,1.000
-0.413,-8.434,-3.427,4.547,8.660,-1.056,0.241,6.051,0.040,0.944,-0.265,51.392,0.183,-3.326,80.000,184041.000,1.000
2.536,-5.846,-0.482,7.433,13.396,8.341,8.291,8.738,0.038,0.943,-0.267,51.270,0.275,-3.082,80.000,184042.000,1.000
4.016,-5.444,0.588,7.874,13.656,11.195,7.328,5.358,0.037,0.944,-0.273,51.086,0.305,-2.991,80.000,184043.000,1.000
4.027,-6.713,-0.039,6.251,10.940,9.165,1.571,-1.068,0.037,0.942,-0.277,51.117,0.397,-2.930,80.000,184044.000,1.000
3.501,-8.147,-1.238,4.202,8.498,6.709,-1.955,-5.194,0.039,0.939,-0.284,51.056,0.366,-2.838,80.000,184045.000,1.000
3.046,-9.349,-2.662,2.558,7.477,5.441,-1.656,-5.033,0.036,0.939,-0.291,50.842,0.305,-2.747,80.000,184046.000,1.000
2.541,-11.217,-4.919,0.854,6.359,3.584,-1.691,-3.289,0.032,0.931,-0.297,50.842,0.153,-2.563,80.000,184047.000,1.000
1.881,-14.343,-8.074,-1.409,3.508,-0.271,-5.919,-3.867,0.027,0.924,-0.302,50.751,0.153,-2.716,80.000,184048.000,1.000
1.481,-17.942,-11.245,-3.867,-0.834,-4.971,-13.949,-8.202,0.025,0.918,-0.298,50.751,0.244,-2.869,80.000,184049.000,1.000
2.116,-20.227,-12.831,-5.322,-4.607,-8.099,-21.571,-13.919,0.025,0.910,-0.303,51.056,0.275,-3.052,80.000,184050.000,1.000
4.468,-19.522,-11.636,-4.420,-5.298,-7.963,-23.848,-16.386,0.026,0.904,-0.310,51.300,0.122,-3.326,80.000,184051.000,1.000
8.665,-15.275,-7.613,-0.633,-1.742,-4.244,-18.576,-12.489,0.023,0.903,-0.317,51.727,-0.031,-3.662,80.000,184052.000,1.000
13.889,-8.683,-1.930,4.896,4.562,1.761,-8.336,-3.911,0.022,0.905,-0.321,52.155,-0.183,-3.967,80.000,184053.000,1.000
18.549,-2.345,3.195,9.611,10.058,7.069,0.696,3.733,0.023,0.906,-0.325,52.490,-0.336,-4.181,80.000,184054.000,1.000
21.373,1.463,6.182,11.446,11.844,8.646,3.488,5.839,0.023,0.912,-0.329,52.643,-0.580,-4.486,80.000,184055.000,1.000
22.371,2.507,7.080,10.510,10.043,6.212,0.071,2.730,0.022,0.918,-0.332,52.734,-0.702,-4.669,80.000,184056.000,1.000
22.576,2.456,7.197,8.837,7.409,2.654,-5.108,-1.047,0.022,0.924,-0.337,52.765,-0.793,-4.883,80.000,184057.000,1.000
22.946,3.123,7.907,8.602,6.661,1.081,-7.626,-0.884,0.026,0.926,-0.340,52.368,-0.916,-5.157,80.000,184058.000,1.000
23.637,5.094,9.387,10.511,8.431,2.331,-6.425,4.199,0.026,0.930,-0.341,52.185,-1.007,-5.341,80.000,184059.000,1.000
24.247,7.870,11.148,13.764,11.567,5.605,-2.739,11.605,0.025,0.934,-0.346,51.758,-1.068,-5.463,80.000,184060.000,1.000
24.402,10.658,12.531,16.965,14.584,9.908,1.948,17.908,0.024,0.939,-0.349,51.392,-1.190,-5.737,80.000,184061.000,1.000
24.000,12.751,12.971,18.932,16.397,13.906,6.156,21.028,0.022,0.942,-0.354,50.842,-1.312,-5.920,80.000,184062.000,1.000
23.019,13.492,12.095,18.897,16.162,15.578,7.841,20.140,0.018,0.944,-0.357,50.140,-1.373,-5.981,80.000,184063.000,1.000
21.339,12.432,9.431,16.511,13.324,13.378,4.900,14.911,0.016,0.946,-0.358,49.347,-1.587,-6.073,80.000,184064.000,1.000
19.125,9.952,5.454,12.460,8.528,8.047,-2.422,6.439,0.016,0.945,-0.359,48.981,-1.648,-6.195,80.000,184065.000,1.000
17.263,7.590,1.962,8.664,4.063,2.690,-10.577,-1.889,0.012,0.942,-0.365,48.126,-1.953,-6.348,80.000,184066.000,1.000
16.869,7.129,0.954,7.168,2.462,0.395,-15.215,-6.060,0.012,0.943,-0.372,47.638,-2.106,-6.470,80.000,184067.000,1.000
18.100,9.046,2.962,8.531,4.414,1.789,-14.612,-4.235,0.010,0.947,-0.375,46.875,-2.472,-6.744,80.000,184068.000,1.000
19.746,12.084,6.271,11.384,8.343,5.065,-10.543,2.196,0.007,0.951,-0.378,46.143,-2.563,-6.866,80.000,184069.000,1.000
20.227,14.516,8.667,13.678,11.931,8.050,-5.890,9.927,0.007,0.952,-0.381,45.288,-2.808,-6.989,80.000,184070.000,1.000
18.801,15.503,8.828,14.126,13.795,9.993,-2.356,15.716,0.002,0.955,-0.379,44.312,-3.082,-7.050,80.000,184071.000,1.000
15.942,15.269,6.780,12.791,13.952,11.444,-0.089,17.972,0.001,0.951,-0.380,43.274,-3.479,-6.989,80.000,184072.000,1.000
12.822,14.341,3.739,10.628,13.003,12.500,0.963,16.906,-0.001,0.945,-0.379,42.084,-3.937,-7.050,80.000,184073.000,1.000
10.427,12.904,0.988,8.506,11.157,11.902,-0.131,13.315,-0.005,0.938,-0.380,41.107,-4.333,-7.202,80.000,184074.000,1.000
8.994,10.914,-0.623,6.760,8.340,8.604,-4.008,8.035,-0.004,0.928,-0.387,40.161,-4.761,-7.019,80.000,184075.000,1.000
8.001,8.484,-1.276,5.213,4.804,3.256,-9.811,2.118,-0.007,0.920,-0.391,39.398,-5.127,-6.958,80.000,184076.000,1.000
6.726,6.083,-1.733,3.576,1.313,-2.361,-15.734,-3.162,-0.009,0.914,-0.394,38.910,-5.585,-6.805,80.000,184077.000,1.000
4.965,4.559,-2.044,2.010,-1.007,-6.303,-19.804,-6.411,-0.012,0.916,-0.398,38.513,-5.920,-6.897,80.000,184078.000,1.000
3.153,4.799,-1.598,1.086,-1.067,-6.844,-20.429,-6.466,-0.014,0.918,-0.402,38.269,-6.500,-6.927,80.000,184079.000,1.000
1.816,7.081,0.200,1.172,1.455,-3.211,-17.016,-3.197,-0.016,0.921,-0.402,37.720,-7.141,-6.897,80.000,184080.000,1.000
0.853,10.546,2.538,1.728,5.480,3.456,-11.097,1.647,-0.013,0.919,-0.404,36.957,-7.843,-6.683,80.000,184081.000,1.000
-0.605,13.380,3.292,1.415,8.748,10.292,-6.039,4.839,-0.011,0.911,-0.402,36.072,-8.453,-6.622,80.000,184082.000,1.000
-3.461,13.874,1.003,-0.812,9.145,14.427,-4.718,3.701,-0.012,0.905,-0.403,35.431,-8.942,-6.439,80.000,184083.000,1.000
-7.738,11.636,-3.862,-4.690,6.210,14.769,-7.492,-1.831,-0.013,0.898,-0.407,34.912,-9.277,-6.317,80.000,184084.000,1.000
-12.513,7.683,-9.119,-8.787,1.278,12.094,-12.295,-9.143,-0.014,0.892,-0.411,34.332,-9.735,-6.073,80.000,184085.000,1.000
-16.874,3.313,-13.106,-11.873,-3.839,7.794,-16.773,-15.118,-0.011,0.885,-0.411,33.905,-10.101,-5.829,80.000,184086.000,1.000
-20.525,-0.695,-15.701,-13.690,-7.859,3.158,-19.451,-17.831,-0.011,0.880,-0.420,33.478,-10.498,-5.402,80.000,184087.000,1.000
-23.473,-4.015,-17.231,-14.555,-10.187,-0.860,-19.565,-16.798,-0.012,0.875,-0.425,33.173,-10.956,-5.127,80.000,184088.000,1.000
-25.819,-6.767,-18.166,-15.085,-11.163,-4.216,-17.676,-13.277,-0.010,0.875,-0.430,32.898,-11.292,-4.883,80.000,184089.000,1.000
-27.964,-9.530,-19.195,-16.115,-12.050,-7.606,-15.749,-9.989,-0.006,0.873,-0.435,32.623,-11.627,-4.456,80.000,184090.000,1.000
-30.574,-12.844,-21.469,-18.306,-14.098,-11.393,-15.873,-9.477,-0.004,0.870,-0.438,32.623,-11.841,-4.211,80.000,184091.000,1.000
-34.019,-16.659,-25.733,-21.563,-17.610,-15.284,-18.745,-12.442,-0.003,0.870,-0.441,32.349,-12.115,-3.815,80.000,184092.000,1.000
-37.915,-20.302,-31.152,-24.931,-21.853,-18.734,-23.187,-17.495,-0.003,0.866,-0.443,32.104,-12.299,-3.387,80.000,184093.000,1.000
-41.376,-22.930,-35.912,-27.319,-25.682,-21.208,-27.107,-22.448,-0.002,0.864,-0.446,31.891,-12.421,-3.204,80.000,184094.000,1.000
-43.628,-24.103,-38.326,-28.242,-28.285,-22.479,-28.821,-25.700,0.001,0.862,-0.450,31.555,-12.634,-2.869,80.000,184095.000,1.000
-44.211,-23.880,-37.968,-27.808,-29.241,-22.587,-27.759,-26.442,0.002,0.859,-0.453,31.342,-12.726,-2.502,80.000,184096.000,1.000
-42.882,-22.520,-35.460,-26.207,-28.298,-21.432,-24.127,-24.353,0.000,0.858,-0.460,31.189,-12.756,-1.984,80.000,184097.000,1.000
-39.885,-20.485,-31.683,-23.804,-25.799,-19.127,-18.847,-20.220,-0.003,0.860,-0.462,31.036,-12.787,-1.648,80.000,184098.000,1.000
-36.141,-18.499,-27.830,-21.512,-22.996,-16.607,-13.790,-16.229,-0.003,0.860,-0.463,30.884,-12.878,-1.312,80.000,184099.000,1.000
-32.763,-17.212,-24.808,-20.308,-21.318,-15.199,-10.671,-14.487,-0.005,0.862,-0.466,30.518,-13.000,-1.129,80.000,184100.000,1.000
-30.436,-16.897,-23.176,-20.556,-21.419,-15.617,-10.072,-15.644,-0.004,0.866,-0.468,30.273,-13.184,-0.916,80.000,184101.000,1.000
-29.115,-17.279,-22.932,-21.758,-22.844,-17.285,-11.170,-18.857,-0.004,0.870,-0.466,29.877,-13.184,-0.671,80.000,184102.000,1.000
-28.090,-17.543,-23.042,-22.730,-24.228,-18.479,-11.956,-22.191,-0.003,0.878,-0.470,29.358,-13.214,-0.519,80.000,184103.000,1.000
-26.425,-16.788,-22.212,-22.155,-23.965,-17.559,-10.420,-23.257,-0.004,0.882,-0.474,28.870,-13.214,-0.397,80.000,184104.000,1.000
-23.657,-14.828,-19.765,-19.424,-21.371,-14.459,-5.983,-20.645,-0.002,0.886,-0.474,28.290,-13.245,-0.214,80.000,184105.000,1.000
-20.365,-12.746,-16.753,-15.502,-17.694,-11.273,-0.769,-15.756,-0.003,0.890,-0.476,27.557,-13.214,0.000,80.000,184106.000,1.000
-17.765,-12.294,-15.253,-12.461,-15.475,-11.015,1.322,-12.209,-0.002,0.892,-0.475,26.733,-13.275,0.183,80.000,184107.000,1.000
-16.673,-14.419,-16.247,-11.701,-16.347,-14.856,-1.827,-12.516,-0.004,0.892,-0.474,25.818,-13.123,0.275,80.000,184108.000,1.000
-17.044,-18.515,-19.174,-12.972,-19.718,-20.842,-8.512,-16.017,-0.004,0.892,-0.475,24.719,-12.939,0.519,80.000,184109.000,1.000
-18.203,-23.022,-22.451,-14.871,-23.533,-25.785,-14.760,-19.831,-0.007,0.888,-0.477,23.834,-12.970,0.702,80.000,184110.000,1.000
-19.254,-26.421,-24.724,-16.028,-25.800,-27.689,-17.437,-21.083,-0.007,0.881,-0.477,22.797,-12.909,0.732,80.000,184111.000,1.000
-19.461,-27.747,-25.409,-15.869,-25.590,-26.297,-15.735,-18.644,-0.007,0.875,-0.479,21.942,-12.756,0.702,80.000,184112.000,1.000
-18.549,-26.585,-24.404,-14.598,-23.113,-22.061,-10.587,-13.488,-0.008,0.869,-0.481,21.210,-12.817,0.641,80.000,184113.000,1.000
-16.811,-23.004,-22.220,-12.773,-19.212,-15.436,-3.756,-7.662,-0.007,0.863,-0.483,20.630,-12.787,0.702,80.000,184114.000,1.000
-14.884,-17.768,-19.576,-10.874,-15.024,-7.742,2.628,-2.912,-0.009,0.860,-0.485,20.050,-12.665,0.641,80.000,184115.000,1.000
-13.299,-12.190,-17.260,-9.039,-11.511,-1.376,6.778,0.382,-0.010,0.856,-0.485,19.653,-12.543,0.580,80.000,184116.000,1.000
-12.077,-7.255,-15.504,-6.820,-8.627,2.343,8.973,3.666,-0.009,0.854,-0.488,19.318,-12.451,0.519,80.000,184117.000,1.000
-11.005,-3.259,-13.879,-3.811,-5.758,4.211,11.085,8.282,-0.006,0.854,-0.490,18.890,-12.390,0.549,80.000,184118.000,1.000
-10.234,-0.359,-12.513,-0.684,-3.140,5.346,13.518,12.878,-0.006,0.854,-0.493,18.707,-12.238,0.549,80.000,184119.000,1.000
-10.116,1.304,-11.817,1.291,-1.750,6.005,14.861,14.562,-0.006,0.851,-0.487,18.311,-12.024,0.488,80.000,184120.000,1.000
-10.586,2.010,-11.886,1.497,-1.966,6.241,14.067,12.074,-0.005,0.848,-0.490,17.944,-11.719,0.458,80.000,184121.000,1.000
-10.908,2.520,-12.140,0.467,-3.041,6.357,11.860,7.002,-0.006,0.842,-0.492,17.731,-11.536,0.580,80.000,184122.000,1.000
-10.007,3.748,-11.354,-0.499,-3.554,6.785,10.320,2.738,-0.007,0.836,-0.489,17.517,-11.414,0.488,80.000,184123.000,1.000
-7.213,6.275,-8.757,-0.167,-2.225,8.056,11.309,2.384,-0.006,0.832,-0.488,17.273,-11.139,0.488,80.000,184124.000,1.000
-2.790,9.848,-4.463,1.915,1.134,10.354,15.031,6.689,-0.008,0.828,-0.490,17.181,-10.864,0.458,80.000,184125.000,1.000
2.125,13.319,0.263,5.077,5.268,12.916,19.537,13.447,-0.007,0.826,-0.493,17.029,-10.590,0.336,80.000,184126.000,1.000
6.155,15.385,3.813,8.056,8.400,14.518,22.398,19.411,-0.010,0.822,-0.492,16.876,-10.376,0.122,80.000,184127.000,1.000
8.440,15.527,5.550,9.861,9.493,14.565,22.795,22.654,-0.011,0.817,-0.494,16.815,-10.071,-0.061,80.000,184128.000,1.000
9.097,14.436,5.750,10.262,8.834,13.624,21.682,23.270,-0.010,0.814,-0.494,16.907,-9.827,-0.275,80.000,184129.000,1.000
9.041,13.624,5.386,9.821,7.670,13.070,20.862,22.590,-0.011,0.813,-0.493,17.059,-9.460,-0.549,80.000,184130.000,1.000
8.980,14.206,4.935,9.032,6.925,13.808,21.217,21.313,-0.012,0.811,-0.495,17.029,-9.247,-0.702,80.000,184131.000,1.000
8.647,15.913,3.832,7.652,6.315,15.195,21.920,18.830,-0.010,0.810,-0.496,17.181,-9.094,-1.038,80.000,184132.000,1.000
7.277,17.406,1.482,5.269,4.979,15.498,21.607,14.734,-0.010,0.811,-0.501,17.365,-8.759,-1.221,80.000,184133.000,1.000
4.759,17.569,-1.939,2.188,2.614,13.436,19.549,9.895,-0.010,0.815,-0.502,17.548,-8.484,-1.465,80.000,184134.000,1.000
2.139,16.596,-4.943,-0.382,-0.015,9.494,16.334,6.025,-0.008,0.821,-0.506,17.822,-8.301,-1.648,80.000,184135.000,1.000
0.898,15.867,-5.827,-1.105,-1.425,5.977,13.755,4.729,-0.005,0.826,-0.504,17.975,-7.996,-1.892,80.000,184136.000,1.000
1.909,16.918,-3.783,0.682,-0.274,5.593,14.020,6.919,0.000,0.832,-0.502,17.944,-7.690,-1.923,80.000,184137.000,1.000
4.951,20.225,0.836,4.562,3.554,9.155,18.088,12.200,-0.001,0.837,-0.500,17.761,-7.294,-1.984,80.000,184138.000,1.000
8.682,24.488,6.148,8.816,8.270,14.189,23.878,18.129,-0.001,0.839,-0.495,17.487,-7.019,-2.075,80.000,184139.000,1.000
11.346,27.443,10.004,11.260,11.200,16.727,27.584,21.335,-0.002,0.835,-0.495,17.120,-6.561,-2.258,80.000,184140.000,1.000
12.041,27.856,11.367,10.910,11.159,15.119,27.272,20.516,-0.003,0.831,-0.494,16.754,-6.073,-2.350,80.000,184141.000,1.000
11.366,26.522,10.828,8.728,9.326,11.242,24.388,17.497,-0.002,0.829,-0.498,16.479,-5.646,-2.411,80.000,184142.000,1.000
10.649,25.122,9.792,6.355,7.431,7.854,21.245,14.432,-0.005,0.825,-0.501,16.357,-5.371,-2.533,80.000,184143.000,1.000
10.817,24.720,9.015,4.655,6.174,6.374,18.659,11.662,-0.004,0.823,-0.500,16.296,-4.913,-2.594,80.000,184144.000,1.000
12.229,25.622,9.040,3.966,5.782,7.254,17.040,9.252,-0.006,0.820,-0.503,16.144,-4.578,-2.686,80.000,184145.000,1.000
14.907,27.721,10.264,4.550,6.560,10.291,16.950,7.996,-0.008,0.820,-0.504,16.174,-4.272,-2.930,80.000,184146.000,1.000
18.575,30.555,12.663,6.401,8.432,14.199,18.169,8.403,-0.007,0.821,-0.510,16.235,-4.089,-3.021,80.000,184147.000,1.000
22.770,33.526,16.014,9.198,10.868,17.252,19.773,10.245,-0.006,0.825,-0.513,16.327,-3.754,-3.265,80.000,184148.000,1.000
26.935,36.162,19.548,12.338,13.192,18.468,20.791,12.773,-0.008,0.827,-0.514,16.357,-3.418,-3.418,80.000,184149.000,1.000
30.539,38.230,22.379,15.066,14.802,18.016,20.874,15.003,-0.009,0.830,-0.512,16.449,-3.265,-3.479,80.000,184150.000,1.000
33.280,39.849,23.932,16.839,15.573,16.983,20.475,16.245,-0.010,0.833,-0.514,16.388,-2.899,-3.571,80.000,184151.000,1.000
35.209,41.456,24.429,17.755,16.154,16.848,20.662,16.676,-0.009,0.838,-0.509,16.327,-2.563,-3.601,80.000,184152.000,1.000
36.595,43.396,24.868,18.475,17.462,18.570,22.428,17.206,-0.009,0.838,-0.506,16.083,-2.319,-3.571,80.000,184153.000,1.000
37.776,45.534,25.964,19.685,19.849,21.774,25.749,18.765,-0.010,0.839,-0.508,15.839,-2.167,-3.510,80.000,184154.000,1.000
39.079,47.314,27.992,21.680,22.749,24.758,29.508,21.516,-0.011,0.839,-0.510,15.320,-2.014,-3.540,80.000,184155.000,1.000
40.583,47.993,30.440,24.003,24.905,25.544,31.813,24.243,-0.012,0.838,-0.511,15.015,-1.740,-3.479,80.000,184156.000,1.000
42.118,47.159,32.369,25.789,25.346,23.601,31.449,25.282,-0.014,0.836,-0.514,14.801,-1.495,-3.387,80.000,184157.000,1.000
43.573,45.200,33.501,26.702,24.398,20.479,29.349,24.516,-0.016,0.834,-0.514,14.618,-1.312,-3.326,80.000,184158.000,1.000
44.931,42.892,34.093,27.120,23.244,17.924,27.453,23.540,-0.014,0.830,-0.515,14.404,-1.068,-3.143,80.000,184159.000,1.000
45.979,40.579,34.649,27.448,22.478,15.840,26.566,23.622,-0.016,0.828,-0.513,14.252,-1.068,-2.960,80.000,184160.000,1.000
46.237,38.058,35.147,27.401,21.436,12.860,25.459,23.807,-0.017,0.826,-0.515,14.160,-0.885,-2.808,80.000,184161.000,1.000
45.340,35.142,35.057,26.229,18.946,8.231,22.161,21.697,-0.020,0.826,-0.520,14.130,-0.824,-2.563,80.000,184162.000,1.000
43.506,32.154,34.194,23.625,14.670,2.784,16.092,16.113,-0.022,0.826,-0.521,14.130,-0.793,-2.380,80.000,184163.000,1.000
41.581,29.974,32.784,20.287,9.846,-1.318,8.960,8.629,-0.022,0.824,-0.519,14.038,-0.793,-2.380,80.000,184164.000,1.000
40.535,29.546,31.654,17.668,6.750,-1.772,4.065,2.695,-0.023,0.822,-0.518,13.977,-0.854,-2.258,80.000,184165.000,1.000
40.793,31.112,31.559,16.986,7.209,2.291,4.090,1.319,-0.022,0.822,-0.520,14.099,-0.854,-2.106,80.000,184166.000,1.000
42.112,33.857,32.739,18.565,11.447,9.487,9.330,5.368,-0.024,0.823,-0.521,14.069,-0.824,-1.892,80.000,184167.000,1.000
43.755,36.096,34.879,21.639,17.779,16.686,17.327,12.874,-0.025,0.823,-0.517,13.947,-0.946,-1.801,80.000,184168.000,1.000
44.671,36.047,36.738,24.505,23.294,20.701,23.868,19.626,-0.023,0.821,-0.520,13.916,-0.824,-1.740,80.000,184169.000,1.000
44.207,33.154,37.418,25.725,25.673,20.310,25.913,22.025,-0.022,0.824,-0.519,13.824,-0.854,-1.556,80.000,184170.000,1.000
42.618,28.524,36.971,25.113,24.492,16.539,23.334,19.472,-0.023,0.826,-0.523,13.855,-0.824,-1.373,80.000,184171.000,1.000
40.640,23.838,35.935,23.448,20.805,11.041,17.959,13.855,-0.023,0.827,-0.520,13.794,-0.732,-1.282,80.000,184172.000,1.000
38.829,20.224,34.947,21.702,16.246,5.182,12.171,7.818,-0.024,0.829,-0.517,13.824,-0.793,-1.129,80.000,184173.000,1.000
37.309,18.040,34.222,20.560,12.496,0.364,8.034,3.552,-0.022,0.831,-0.516,13.672,-0.854,-1.038,80.000,184174.000,1.000
36.000,17.100,33.935,20.350,10.740,-2.002,6.778,2.172,-0.021,0.830,-0.516,13.580,-0.885,-0.977,80.000,184175.000,1.000
34.907,16.933,34.059,20.967,11.138,-1.260,8.070,3.327,-0.020,0.829,-0.516,13.458,-0.916,-1.007,80.000,184176.000,1.000
34.279,17.175,34.477,22.058,12.980,2.037,10.418,5.713,-0.021,0.828,-0.516,13.245,-0.763,-0.854,80.000,184177.000,1.000
34.484,17.873,35.524,23.414,15.433,6.593,12.624,8.301,-0.022,0.826,-0.517,13.092,-0.610,-0.702,80.000,184178.000,1.000
35.514,19.107,37.342,24.812,17.742,10.895,13.957,10.520,-0.021,0.825,-0.515,12.756,-0.580,-0.702,80.000,184179.000,1.000
36.564,20.359,39.482,25.562,18.797,13.265,13.559,11.428,-0.019,0.822,-0.517,12.512,-0.610,-0.671,80.000,184180.000,1.000
36.264,20.605,40.613,24.588,17.378,12.427,10.572,9.761,-0.020,0.819,-0.518,12.390,-0.458,-0.610,80.000,184181.000,1.000
33.648,19.211,39.440,21.397,13.312,8.690,5.425,5.461,-0.019,0.819,-0.520,12.299,-0.397,-0.641,80.000,184182.000,1.000
28.991,16.625,36.097,16.853,8.114,4.241,0.455,0.521,-0.019,0.818,-0.519,12.329,-0.397,-0.610,80.000,184183.000,1.000
23.689,14.087,31.885,12.755,4.194,1.758,-1.506,-2.224,-0.020,0.819,-0.517,12.146,-0.397,-0.702,80.000,184184.000,1.000
19.328,12.551,28.554,10.675,3.099,2.320,0.767,-1.201,-0.021,0.820,-0.518,12.054,-0.427,-0.702,80.000,184185.000,1.000
16.553,11.662,26.752,10.712,4.146,4.278,5.257,2.295,-0.023,0.821,-0.520,11.963,-0.458,-0.732,80.000,184186.000,1.000
14.742,9.979,25.557,11.410,4.870,4.506,7.833,4.758,-0.021,0.821,-0.518,11.871,-0.397,-0.793,80.000,184187.000,1.000
12.806,6.427,23.789,11.139,3.189,1.110,5.773,3.363,-0.020,0.820,-0.516,11.749,-0.488,-0.732,80.000,184188.000,1.000
10.246,1.450,20.967,9.426,-0.884,-5.122,-0.148,-1.657,-0.018,0.820,-0.518,11.597,-0.366,-0.702,80.000,184189.000,1.000
7.461,-3.284,17.911,7.080,-5.580,-11.661,-6.531,-7.400,-0.017,0.820,-0.519,11.475,-0.366,-0.793,80.000,184190.000,1.000
5.149,-6.187,15.718,5.139,-9.038,-16.024,-10.123,-10.903,-0.017,0.818,-0.518,11.292,-0.336,-0.824,80.000,184191.000,1.000
3.654,-6.790,14.766,3.997,-10.531,-17.087,-9.765,-11.187,-0.018,0.819,-0.521,11.108,-0.336,-0.702,80.000,184192.000,1.000
2.748,-5.935,14.652,3.255,-10.784,-15.887,-6.978,-9.618,-0.017,0.815,-0.520,11.047,-0.275,-0.763,80.000,184193.000,1.000
1.743,-5.226,14.076,1.928,-11.464,-15.040,-5.388,-9.074,-0.018,0.813,-0.522,10.956,-0.244,-0.793,80.000,184194.000,1.000
-0.094,-5.988,12.023,-0.784,-13.855,-16.482,-7.908,-11.821,-0.017,0.814,-0.520,10.925,-0.305,-0.793,80.000,184195.000,1.000
-3.095,-8.541,8.502,-4.755,-17.777,-19.922,-14.286,-17.587,-0.018,0.812,-0.524,10.834,-0.244,-0.885,80.000,184196.000,1.000
-7.053,-12.307,4.470,-8.984,-21.857,-23.552,-21.474,-23.841,-0.016,0.810,-0.524,11.169,-0.183,-0.977,80.000,184197.000,1.000
-11.422,-16.326,1.170,-12.315,-24.556,-25.429,-25.818,-27.725,-0.019,0.811,-0.526,11.108,-0.275,-0.977,80.000,184198.000,1.000
-15.518,-19.631,-0.998,-13.988,-24.768,-24.182,-24.979,-27.402,-0.018,0.812,-0.528,11.078,-0.336,-0.946,80.000,184199.000,1.000
-18.713,-21.669,-2.035,-13.703,-22.182,-19.619,-18.759,-22.627,-0.020,0.814,-0.524,11.169,-0.366,-1.068,80.000,184200.000,1.000
-20.925,-22.857,-2.196,-11.971,-17.836,-13.426,-9.766,-15.440,-0.019,0.817,-0.527,11.292,-0.397,-1.007,80.000,184201.000,1.000
-22.829,-24.501,-2.079,-10.107,-13.874,-8.722,-2.317,-9.404,-0.021,0.819,-0.526,11.200,-0.427,-1.129,80.000,184202.000,1.000
-25.355,-27.840,-2.463,-9.401,-12.118,-8.082,0.537,-7.096,-0.023,0.820,-0.524,11.108,-0.427,-1.129,80.000,184203.000,1.000
-28.959,-33.093,-4.335,-10.342,-12.766,-11.487,-1.062,-8.319,-0.023,0.822,-0.521,10.956,-0.458,-1.068,80.000,184204.000,1.000
-33.276,-39.351,-7.739,-12.426,-14.484,-16.278,-4.242,-10.674,-0.022,0.820,-0.525,10.834,-0.549,-1.007,80.000,184205.000,1.000
-37.453,-45.396,-11.617,-14.740,-15.757,-19.463,-6.080,-11.858,-0.023,0.817,-0.522,10.620,-0.732,-0.977,80.000,184206.000,1.000
-40.605,-50.396,-14.437,-16.425,-15.860,-19.841,-5.506,-11.010,-0.023,0.815,-0.521,10.437,-0.732,-1.007,80.000,184207.000,1.000
-42.222,-54.111,-15.116,-16.992,-15.002,-18.228,-3.392,-8.838,-0.023,0.813,-0.521,10.315,-0.824,-0.977,80.000,184208.000,1.000
-42.603,-57.036,-14.278,-16.856,-14.264,-16.646,-2.178,-7.633,-0.025,0.812,-0.524,10.162,-0.824,-0.885,80.000,184209.000,1.000
-42.505,-60.021,-13.229,-16.910,-14.787,-17.020,-4.091,-9.763,-0.025,0.808,-0.523,10.101,-0.854,-0.854,80.000,184210.000,1.000
-42.207,-63.382,-12.617,-17.418,-16.536,-19.757,-9.147,-15.247,-0.025,0.808,-0.524,10.071,-0.946,-0.916,80.000,184211.000,1.000
-41.293,-66.572,-12.151,-17.758,-18.289,-23.584,-15.062,-21.380,-0.027,0.809,-0.522,10.132,-0.977,-0.977,80.000,184212.000,1.000
-39.421,-68.842,-11.353,-17.323,-18.955,-26.954,-19.291,-25.156,-0.026,0.807,-0.527,10.223,-1.160,-1.038,80.000,184213.000,1.000
-36.940,-69.935,-10.726,-16.294,-18.475,-29.139,-20.922,-25.515,-0.027,0.808,-0.529,10.284,-1.373,-1.068,80.000,184214.000,1.000
-34.691,-70.119,-10.969,-15.322,-17.549,-30.037,-20.300,-23.302,-0.030,0.814,-0.530,10.376,-1.404,-1.068,80.000,184215.000,1.000
-33.588,-69.983,-12.424,-15.156,-17.102,-29.922,-18.465,-20.393,-0.032,0.819,-0.530,10.468,-1.526,-1.038,80.000,184216.000,1.000
-34.221,-70.160,-14.990,-16.405,-17.904,-29.470,-16.888,-18.736,-0.034,0.822,-0.529,10.376,-1.709,-1.007,80.000,184217.000,1.000
-36.545,-71.004,-18.079,-19.234,-20.224,-29.412,-16.819,-19.380,-0.034,0.828,-0.526,10.315,-1.984,-0.885,80.000,184218.000,1.000
-39.752,-72.300,-21.121,-23.083,-23.492,-29.886,-18.569,-21.800,-0.032,0.832,-0.523,9.949,-2.228,-0.793,80.000,184219.000,1.000
-42.320,-73.066,-23.144,-26.467,-26.127,-29.939,-20.585,-23.643,-0.036,0.834,-0.521,9.674,-2.411,-0.671,80.000,184220.000,1.000
-42.796,-72.074,-23.302,-27.796,-26.347,-28.058,-20.347,-22.262,-0.036,0.839,-0.525,9.308,-2.655,-0.549,80.000,184221.000,1.000
-40.939,-68.993,-21.691,-26.661,-23.678,-23.684,-16.768,-17.160,-0.034,0.840,-0.522,8.911,-2.899,-0.580,80.000,184222.000,1.000
-37.898,-64.873,-19.210,-24.083,-19.466,-17.930,-11.293,-10.627,-0.035,0.841,-0.522,8.514,-3.174,-0.275,80.000,184223.000,1.000
-35.328,-61.459,-17.355,-21.741,-15.978,-12.870,-6.918,-6.116,-0.037,0.835,-0.517,8.026,-3.387,-0.031,80.000,184224.000,1.000
-34.359,-60.086,-17.061,-20.792,-14.887,-10.433,-5.729,-5.513,-0.037,0.833,-0.517,7.416,-3.632,0.153,80.000,184225.000,1.000
-35.082,-60.893,-18.281,-21.158,-16.131,-11.280,-7.335,-7.538,-0.037,0.828,-0.516,7.050,-3.906,0.336,80.000,184226.000,1.000
-36.692,-62.874,-20.235,-21.901,-18.262,-14.232,-9.558,-9.336,-0.037,0.820,-0.520,6.866,-3.998,0.397,80.000,184227.000,1.000
-38.210,-64.785,-22.002,-22.305,-19.921,-17.176,-10.455,-9.361,-0.036,0.817,-0.520,6.714,-4.242,0.427,80.000,184228.000,1.000
-39.030,-65.833,-23.325,-22.290,-20.511,-18.465,-9.461,-7.862,-0.037,0.817,-0.521,6.683,-4.395,0.366,80.000,184229.000,1.000
-39.024,-65.760,-24.185,-22.101,-20.153,-17.683,-7.278,-6.045,-0.038,0.817,-0.522,6.622,-4.578,0.397,80.000,184230.000,1.000
-38.565,-64.843,-25.009,-22.289,-19.713,-15.761,-5.901,-5.933,-0.036,0.816,-0.525,6.561,-4.761,0.488,80.000,184231.000,1.000
-38.195,-63.565,-26.347,-23.305,-20.139,-14.287,-7.268,-8.981,-0.034,0.816,-0.524,6.378,-4.944,0.519,80.000,184232.000,1.000
-38.159,-62.167,-27.986,-24.955,-21.558,-14.265,-11.401,-14.427,-0.032,0.812,-0.523,6.134,-5.066,0.641,80.000,184233.000,1.000
-38.333,-60.549,-29.478,-26.612,-23.263,-15.286,-16.506,-19.791,-0.032,0.805,-0.523,5.951,-5.249,0.641,80.000,184234.000,1.000
-38.273,-58.233,-30.228,-27.504,-24.091,-15.688,-19.891,-22.270,-0.030,0.798,-0.526,5.737,-5.310,0.580,80.000,184235.000,1.000
-37.448,-54.496,-29.889,-27.006,-22.815,-13.500,-19.206,-19.881,-0.030,0.790,-0.524,5.829,-5.371,0.488,80.000,184236.000,1.000
-35.563,-48.826,-28.522,-24.907,-18.730,-7.608,-13.539,-12.259,-0.031,0.783,-0.526,6.042,-5.371,0.397,80.000,184237.000,1.000
-32.725,-41.460,-26.297,-21.603,-12.375,1.248,-4.121,-1.264,-0.027,0.780,-0.528,6.256,-5.341,0.244,80.000,184238.000,1.000
-29.531,-33.600,-23.904,-18.172,-5.762,10.193,5.406,9.102,-0.027,0.774,-0.534,6.531,-5.280,0.092,80.000,184239.000,1.000
-26.813,-26.853,-22.083,-15.802,-1.388,15.623,10.819,14.686,-0.025,0.772,-0.534,6.958,-5.249,-0.153,80.000,184240.000,1.000
-25.046,-22.158,-21.298,-14.992,-0.484,15.869,10.182,13.809,-0.023,0.771,-0.534,7.416,-5.157,-0.336,80.000,184241.000,1.000
-23.923,-19.148,-21.257,-15.116,-2.030,12.648,5.450,8.402,-0.022,0.771,-0.537,7.874,-5.157,-0.427,80.000,184242.000,1.000
-22.764,-16.754,-20.828,-14.976,-3.700,9.464,0.927,2.522,-0.018,0.770,-0.540,8.209,-5.035,-0.580,80.000,184243.000,1.000
-21.376,-14.447,-19.432,-14.132,-3.991,8.460,-0.514,-0.882,-0.016,0.770,-0.539,8.606,-5.005,-0.671,80.000,184244.000,1.000
-20.164,-12.653,-17.408,-13.267,-3.285,8.926,0.724,-1.698,-0.015,0.770,-0.542,8.942,-4.791,-0.824,80.000,184245.000,1.000
-19.492,-11.999,-15.786,-13.246,-2.789,8.830,2.287,-1.437,-0.014,0.767,-0.541,9.277,-4.456,-1.038,80.000,184246.000,1.000
-19.049,-12.297,-15.195,-13.928,-2.849,7.439,2.597,-0.981,-0.014,0.765,-0.543,9.552,-4.089,-1.160,80.000,184247.000,1.000
-17.873,-12.470,-14.924,-14.140,-2.673,5.948,1.900,-0.150,-0.015,0.763,-0.547,9.827,-3.906,-1.282,80.000,184248.000,1.000
-14.992,-11.331,-13.790,-12.720,-1.296,6.007,1.047,1.221,-0.015,0.765,-0.549,10.162,-3.693,-1.526,80.000,184249.000,1.000
-10.068,-8.230,-10.657,-9.161,1.799,8.441,0.922,3.099,-0.018,0.764,-0.546,10.468,-3.510,-1.556,80.000,184250.000,1.000
-3.792,-3.369,-5.426,-3.930,6.416,12.952,2.164,5.442,-0.019,0.763,-0.552,10.834,-3.326,-1.740,80.000,184251.000,1.000
2.374,2.291,0.658,1.603,11.518,18.318,4.726,7.949,-0.020,0.761,-0.552,11.017,-3.326,-1.984,80.000,184252.000,1.000
7.146,7.686,6.098,5.975,15.793,23.104,8.013,10.208,-0.023,0.761,-0.553,11.261,-3.143,-2.136,80.000,184253.000,1.000
10.237,12.273,9.796,8.538,18.642,26.546,11.334,12.223,-0.023,0.759,-0.556,11.566,-3.113,-2.319,80.000,184254.000,1.000
12.301,16.022,11.655,9.685,20.495,28.877,14.496,14.480,-0.025,0.758,-0.558,11.780,-3.021,-2.411,80.000,184255.000,1.000
14.109,18.964,12.044,10.147,22.179,30.914,17.679,17.290,-0.028,0.755,-0.560,12.146,-3.052,-2.563,80.000,184256.000,1.000
15.965,21.006,11.545,10.412,24.192,33.370,21.172,20.498,-0.031,0.755,-0.564,12.451,-2.991,-2.747,80.000,184257.000,1.000
17.798,22.127,11.162,10.723,26.475,36.297,25.185,23.799,-0.035,0.756,-0.564,12.756,-2.960,-2.960,80.000,184258.000,1.000
19.316,22.425,11.402,11.052,28.482,38.906,29.245,26.810,-0.038,0.760,-0.568,12.970,-2.930,-3.143,80.000,184259.000,1.000
20.010,21.937,12.085,11.146,29.400,39.934,32.317,29.081,-0.041,0.761,-0.573,13.184,-3.052,-3.387,80.000,184260.000,1.000
19.290,20.483,12.219,10.565,28.440,38.250,33.079,29.982,-0.041,0.762,-0.573,13.306,-3.204,-3.571,80.000,184261.000,1.000
16.793,17.706,10.445,8.746,25.031,33.234,30.102,28.364,-0.041,0.764,-0.573,13.428,-3.296,-3.754,80.000,184262.000,1.000
12.666,13.376,6.194,5.362,19.137,25.075,22.665,23.037,-0.042,0.763,-0.573,13.428,-3.357,-3.845,80.000,184263.000,1.000
7.710,7.962,0.088,0.870,11.803,15.223,11.954,14.369,-0.042,0.764,-0.576,13.550,-3.632,-3.906,80.000,184264.000,1.000
3.303,2.925,-5.847,-3.286,5.101,6.238,1.302,4.970,-0.042,0.765,-0.574,13.519,-3.784,-3.876,80.000,184265.000,1.000
0.795,0.103,-9.707,-5.533,1.050,0.549,-5.905,-1.938,-0.045,0.761,-0.574,13.458,-3.998,-3.906,80.000,184266.000,1.000
0.771,0.563,-10.951,-5.196,0.440,-0.941,-8.317,-4.568,-0.050,0.756,-0.579,13.397,-4.059,-3.815,80.000,184267.000,1.000
2.807,3.957,-9.832,-2.770,2.533,0.841,-6.665,-3.231,-0.050,0.753,-0.581,13.428,-4.089,-3.723,80.000,184268.000,1.000
5.922,8.963,-6.753,0.626,5.872,4.242,-2.575,0.440,-0.053,0.752,-0.582,13.550,-4.242,-3.693,80.000,184269.000,1.000
9.296,14.325,-1.780,4.143,9.404,8.271,2.736,4.869,-0.052,0.751,-0.583,13.794,-4.456,-3.723,80.000,184270.000,1.000
12.436,19.287,4.175,7.255,12.682,12.682,8.101,8.832,-0.055,0.753,-0.587,13.916,-4.639,-3.601,80.000,184271.000,1.000
14.973,23.417,9.046,9.491,15.451,16.965,11.831,11.330,-0.059,0.751,-0.585,13.947,-5.005,-3.510,80.000,184272.000,1.000
16.571,26.410,11.398,10.577,17.433,19.807,12.522,11.934,-0.064,0.750,-0.583,14.069,-5.554,-3.448,80.000,184273.000,1.000
16.906,27.952,11.348,10.427,18.266,19.780,9.934,10.723,-0.065,0.748,-0.581,14.099,-5.737,-3.265,80.000,184274.000,1.000
15.771,27.752,10.273,9.084,17.625,16.457,5.162,8.013,-0.067,0.743,-0.580,14.130,-6.195,-3.143,80.000,184275.000,1.000
13.343,25.895,9.010,6.853,15.748,10.997,-0.119,4.634,-0.071,0.740,-0.583,14.252,-6.531,-3.021,80.000,184276.000,1.000
10.444,23.297,7.426,4.680,13.960,5.988,-3.995,2.579,-0.070,0.736,-0.583,14.465,-6.927,-2.899,80.000,184277.000,1.000
8.229,21.388,5.886,3.903,14.023,4.194,-4.494,4.215,-0.068,0.734,-0.587,14.526,-7.324,-2.808,80.000,184278.000,1.000
7.408,21.071,5.520,5.132,16.460,6.559,-1.020,9.795,-0.066,0.731,-0.590,14.709,-7.568,-2.625,80.000,184279.000,1.000
7.996,22.237,7.485,7.779,19.952,11.426,4.850,16.636,-0.064,0.732,-0.596,15.106,-7.782,-2.502,80.000,184280.000,1.000
9.491,24.119,11.057,10.460,22.387,15.812,9.945,21.014,-0.061,0.732,-0.604,15.411,-7.996,-2.167,80.000,184281.000,1.000
11.008,25.727,13.412,11.666,22.100,17.235,11.026,20.324,-0.058,0.733,-0.601,15.686,-8.270,-1.862,80.000,184282.000,1.000
11.686,26.278,12.461,10.662,18.647,14.882,6.888,14.386,-0.057,0.730,-0.602,15.930,-8.484,-1.587,80.000,184283.000,1.000
11.222,25.552,8.921,8.063,13.060,9.845,-0.604,5.738,-0.056,0.725,-0.603,16.022,-8.545,-1.190,80.000,184284.000,1.000
9.876,23.749,5.602,5.310,7.086,4.092,-7.824,-1.913,-0.055,0.720,-0.604,16.266,-8.698,-0.885,80.000,184285.000,1.000
8.073,21.137,4.115,3.444,2.044,-0.847,-12.281,-6.223,-0.053,0.716,-0.607,16.754,-8.606,-0.641,80.000,184286.000,1.000
6.379,18.230,3.805,2.819,-1.431,-4.042,-13.595,-7.004,-0.053,0.715,-0.608,17.242,-8.545,-0.458,80.000,184287.000,1.000
5.496,15.892,3.855,3.526,-3.184,-4.901,-12.291,-5.244,-0.056,0.714,-0.610,17.761,-8.514,-0.305,80.000,184288.000,1.000
5.824,14.803,4.521,5.460,-3.497,-3.408,-8.923,-2.071,-0.057,0.716,-0.612,17.975,-8.575,-0.122,80.000,184289.000,1.000
7.176,14.973,6.769,8.220,-2.949,-0.382,-4.064,1.617,-0.058,0.716,-0.616,18.219,-8.575,0.031,80.000,184290.000,1.000
8.829,15.693,10.181,10.914,-2.251,2.753,0.852,4.633,-0.055,0.719,-0.617,18.463,-8.728,0.122,80.000,184291.000,1.000
9.833,15.865,12.459,12.326,-2.135,4.584,3.661,5.480,-0.054,0.720,-0.618,18.829,-8.698,0.153,80.000,184292.000,1.000
9.532,14.530,11.735,11.675,-3.083,4.329,3.128,3.542,-0.050,0.722,-0.620,19.165,-8.759,0.153,80.000,184293.000,1.000
8.023,11.418,8.260,9.283,-4.886,2.200,0.019,-0.060,-0.048,0.728,-0.622,19.318,-8.606,0.214,80.000,184294.000,1.000
6.202,7.238,4.452,6.660,-6.422,-0.560,-3.082,-2.791,-0.046,0.735,-0.625,19.470,-8.545,0.183,80.000,184295.000,1.000
5.173,3.293,2.525,5.509,-6.246,-2.271,-3.629,-2.283,-0.046,0.740,-0.625,19.531,-8.362,0.122,80.000,184296.000,1.000
5.626,0.775,2.843,6.536,-3.738,-1.849,-1.038,1.844,-0.045,0.746,-0.624,19.440,-8.209,0.153,80.000,184297.000,1.000
7.712,0.306,4.721,9.173,0.312,0.670,3.163,7.326,-0.043,0.750,-0.623,19.135,-8.148,0.183,80.000,184298.000,1.000
11.086,1.835,7.348,12.113,4.256,4.370,6.597,10.641,-0.043,0.751,-0.620,18.768,-7.782,0.214,80.000,184299.000,1.000
14.998,4.788,10.445,14.255,6.769,8.012,7.819,9.787,-0.044,0.750,-0.617,18.524,-7.629,0.183,80.000,184300.000,1.000
18.504,8.303,13.545,15.198,7.594,10.571,6.824,5.644,-0.042,0.752,-0.615,17.944,-7.385,0.122,80.000,184301.000,1.000
20.923,11.505,15.688,15.228,7.405,11.624,4.475,0.870,-0.040,0.747,-0.617,17.365,-7.202,0.031,80.000,184302.000,1.000
22.180,13.797,16.371,15.031,7.203,11.408,1.970,-1.988,-0.037,0.742,-0.619,16.937,-6.805,0.000,80.000,184303.000,1.000
22.728,15.108,15.846,15.254,7.801,10.726,0.459,-1.641,-0.034,0.737,-0.621,16.541,-6.348,0.000,80.000,184304.000,1.000
23.161,15.816,15.091,16.171,9.500,10.606,0.860,1.662,-0.028,0.734,-0.625,16.235,-5.981,-0.122,80.000,184305.000,1.000
23.666,16.122,14.569,17.353,11.809,11.406,2.927,6.170,-0.023,0.734,-0.630,16.205,-5.554,-0.061,80.000,184306.000,1.000
23.805,15.653,13.710,17.864,13.641,12.295,5.021,9.557,-0.020,0.737,-0.634,16.052,-4.913,0.000,80.000,184307.000,1.000
22.958,14.015,11.964,17.117,14.249,12.168,5.657,10.599,-0.018,0.741,-0.639,15.961,-4.333,-0.092,80.000,184308.000,1.000
21.020,11.595,9.401,15.482,14.005,11.077,4.938,9.998,-0.014,0.745,-0.640,15.778,-3.815,-0.031,80.000,184309.000,1.000
18.564,9.350,6.916,13.929,13.873,10.129,4.223,9.294,-0.018,0.750,-0.641,15.411,-3.204,0.061,80.000,184310.000,1.000
16.217,7.678,5.047,12.734,13.857,9.638,3.739,8.424,-0.017,0.753,-0.639,15.076,-2.655,0.000,80.000,184311.000,1.000
14.158,6.099,3.475,11.219,12.814,8.276,1.891,5.665,-0.021,0.755,-0.637,14.465,-2.106,0.000,80.000,184312.000,1.000
12.190,4.093,1.817,8.929,10.115,4.754,-2.331,0.499,-0.023,0.754,-0.629,13.702,-1.526,-0.092,80.000,184313.000,1.000
9.886,1.596,-0.442,6.174,6.560,-0.466,-7.853,-5.094,-0.024,0.752,-0.625,13.000,-0.977,-0.336,80.000,184314.000,1.000
6.917,-1.085,-3.479,3.649,3.618,-5.482,-12.286,-8.261,-0.027,0.749,-0.624,12.390,-0.305,-0.671,80.000,184315.000,1.000
3.522,-3.353,-6.844,1.870,2.373,-8.275,-13.735,-7.653,-0.030,0.747,-0.625,11.780,0.214,-0.885,80.000,184316.000,1.000
0.610,-4.427,-9.409,1.062,3.185,-7.522,-11.698,-4.281,-0.034,0.746,-0.626,11.078,0.793,-1.221,80.000,184317.000,1.000
-0.741,-3.800,-9.825,1.388,5.907,-3.133,-6.902,-0.132,-0.036,0.745,-0.629,10.651,1.068,-1.434,80.000,184318.000,1.000
-0.084,-1.819,-8.020,2.806,9.876,2.980,-1.467,3.223,-0.038,0.746,-0.631,10.162,1.404,-1.709,80.000,184319.000,1.000
1.893,0.281,-5.263,4.665,13.682,7.289,1.546,4.424,-0.038,0.744,-0.632,9.521,1.678,-1.923,80.000,184320.000,1.000
3.510,1.060,-3.394,5.672,15.607,7.024,-0.251,2.111,-0.039,0.743,-0.633,9.033,1.923,-2.197,80.000,184321.000,1.000
3.146,-0.113,-3.551,4.894,14.890,2.343,-6.546,-3.558,-0.042,0.740,-0.639,8.575,2.136,-2.441,80.000,184322.000,1.000
0.382,-2.654,-5.492,2.650,12.347,-4.077,-14.294,-10.060,-0.042,0.736,-0.636,8.301,2.563,-2.716,80.000,184323.000,1.000
-3.868,-5.334,-8.598,0.056,9.493,-9.313,-20.398,-14.467,-0.045,0.733,-0.634,7.935,2.991,-3.082,80.000,184324.000,1.000
-8.020,-7.011,-12.008,-1.810,7.397,-11.891,-23.597,-15.508,-0.047,0.733,-0.636,7.690,3.326,-3.418,80.000,184325.000,1.000
-10.645,-7.067,-14.662,-2.303,6.438,-11.802,-24.105,-13.436,-0.048,0.733,-0.635,7.538,3.540,-3.723,80.000,184326.000,1.000
-10.971,-5.505,-15.557,-1.182,6.694,-9.572,-22.182,-8.751,-0.048,0.733,-0.635,7.263,3.662,-3.967,80.000,184327.000,1.000
-9.170,-3.059,-14.480,1.161,7.829,-5.899,-18.148,-2.452,-0.047,0.730,-0.639,7.141,3.845,-4.150,80.000,184328.000,1.000
-6.553,-1.285,-13.165,3.240,8.527,-2.226,-13.916,2.796,-0.044,0.731,-0.638,6.989,4.089,-4.303,80.000,184329.000,1.000
-4.905,-1.862,-13.877,3.272,7.028,-0.623,-12.331,3.982,-0.042,0.728,-0.634,6.927,4.395,-4.333,80.000,184330.000,1.000
-5.258,-5.451,-17.452,0.532,2.561,-2.546,-14.922,0.119,-0.041,0.727,-0.635,6.897,4.578,-4.272,80.000,184331.000,1.000
-7.318,-11.215,-22.735,-4.258,-4.071,-7.856,-20.939,-7.463,-0.043,0.727,-0.632,6.927,4.822,-4.181,80.000,184332.000,1.000
-9.943,-17.276,-27.622,-9.528,-11.016,-14.832,-28.075,-16.192,-0.044,0.725,-0.634,6.744,5.066,-4.089,80.000,184333.000,1.000
-12.052,-21.678,-31.060,-13.822,-16.373,-20.971,-33.967,-23.384,-0.047,0.723,-0.630,6.592,5.280,-3.967,80.000,184334.000,1.000
-13.201,-23.426,-33.188,-16.445,-19.271,-24.409,-37.226,-27.437,-0.048,0.717,-0.626,6.470,5.463,-3.845,80.000,184335.000,1.000
-13.605,-22.962,-34.642,-17.615,-20.281,-25.127,-37.881,-28.572,-0.052,0.717,-0.623,6.165,5.524,-3.784,80.000,184336.000,1.000
-13.610,-21.475,-35.625,-17.855,-20.617,-24.622,-36.718,-28.080,-0.057,0.714,-0.621,5.951,5.707,-3.723,80.000,184337.000,1.000
-13.101,-19.681,-35.544,-17.345,-20.917,-24.214,-34.269,-27.045,-0.058,0.710,-0.623,5.920,5.798,-3.784,80.000,184338.000,1.000
-11.519,-17.344,-34.133,-16.013,-20.847,-23.872,-30.824,-25.907,-0.063,0.708,-0.619,5.859,5.798,-3.967,80.000,184339.000,1.000
-8.441,-13.819,-31.501,-13.810,-19.652,-22.763,-26.551,-24.392,-0.065,0.710,-0.619,5.676,5.737,-4.028,80.000,184340.000,1.000
-4.166,-8.957,-27.909,-10.929,-17.061,-20.752,-21.855,-21.893,-0.062,0.707,-0.625,5.493,5.646,-4.181,80.000,184341.000,1.000
0.258,-3.538,-23.696,-7.921,-13.803,-19.096,-17.817,-18.390,-0.060,0.709,-0.630,5.554,5.646,-4.059,80.000,184342.000,1.000
3.504,1.066,-19.463,-5.661,-11.284,-19.515,-15.907,-15.055,-0.056,0.713,-0.629,5.737,5.554,-4.089,80.000,184343.000,1.000
4.681,3.772,-16.505,-4.970,-10.565,-22.707,-17.158,-13.589,-0.053,0.716,-0.634,5.859,5.432,-4.120,80.000,184344.000,1.000
4.006,4.677,-15.436,-5.751,-11.367,-27.543,-20.920,-14.524,-0.053,0.722,-0.638,5.981,5.493,-3.998,80.000,184345.000,1.000
2.670,5.092,-15.309,-6.776,-12.054,-31.367,-24.611,-16.182,-0.053,0.724,-0.640,6.073,5.493,-3.906,80.000,184346.000,1.000
1.903,6.503,-14.351,-6.581,-10.876,-31.540,-25.119,-15.716,-0.051,0.727,-0.643,5.951,5.463,-3.784,80.000,184347.000,1.000
2.056,9.323,-11.633,-4.786,-7.593,-27.451,-21.286,-11.923,-0.052,0.731,-0.640,5.798,5.554,-3.601,80.000,184348.000,1.000
2.567,12.698,-8.314,-2.443,-3.651,-20.835,-14.951,-6.544,-0.053,0.736,-0.640,5.676,5.524,-3.479,80.000,184349.000,1.000
2.797,15.457,-6.073,-0.835,-0.741,-14.258,-8.948,-2.203,-0.051,0.740,-0.643,5.524,5.524,-3.296,80.000,184350.000,1.000
2.508,16.789,-5.681,-0.573,0.175,-9.885,-5.330,-0.460,-0.055,0.747,-0.644,5.188,5.615,-3.204,80.000,184351.000,1.000
1.756,16.430,-6.783,-1.600,-1.047,-8.821,-4.813,-1.560,-0.059,0.751,-0.642,5.035,5.585,-3.204,80.000,184352.000,1.000
0.729,14.698,-8.417,-3.463,-3.763,-10.616,-6.661,-4.635,-0.061,0.753,-0.638,4.578,5.493,-3.113,80.000,184353.000,1.000
-0.426,12.243,-10.208,-5.677,-6.889,-13.685,-9.513,-8.255,-0.064,0.754,-0.635,3.876,5.310,-3.113,80.000,184354.000,1.000
-1.562,9.787,-11.862,-7.682,-9.371,-16.262,-11.916,-11.004,-0.064,0.749,-0.631,3.174,5.066,-3.235,80.000,184355.000,1.000
-2.352,8.057,-12.550,-8.756,-10.354,-17.011,-12.566,-11.858,-0.062,0.743,-0.628,2.625,4.913,-3.235,80.000,184356.000,1.000
-2.334,7.668,-11.160,-8.218,-9.294,-15.314,-10.571,-10.312,-0.061,0.736,-0.627,2.258,4.883,-3.326,80.000,184357.000,1.000
-1.323,8.688,-7.340,-5.977,-6.393,-11.731,-6.109,-6.669,-0.062,0.733,-0.627,1.953,4.883,-3.448,80.000,184358.000,1.000
0.132,10.190,-2.832,-3.075,-3.037,-8.192,-1.233,-2.552,-0.061,0.733,-0.626,1.678,4.791,-3.571,80.000,184359.000,1.000
1.047,10.685,-0.052,-1.062,-1.079,-6.698,1.552,-0.023,-0.062,0.733,-0.628,1.495,4.547,-3.784,80.000,184360.000,1.000
0.827,9.238,0.035,-0.725,-1.381,-7.601,1.551,0.190,-0.059,0.732,-0.634,1.190,4.425,-3.845,80.000,184361.000,1.000
-0.255,6.009,-1.566,-1.716,-3.509,-10.023,-0.271,-1.356,-0.058,0.729,-0.632,1.007,4.181,-3.754,80.000,184362.000,1.000
-1.292,1.897,-3.074,-3.233,-6.564,-13.356,-3.103,-4.193,-0.056,0.725,-0.629,0.793,4.059,-3.662,80.000,184363.000,1.000
-1.323,-1.982,-3.570,-4.521,-9.471,-17.088,-6.639,-7.872,-0.054,0.725,-0.629,0.732,4.028,-3.693,80.000,184364.000,1.000
0.163,-4.749,-2.685,-4.834,-10.912,-19.984,-9.838,-11.024,-0.053,0.724,-0.631,0.671,4.028,-3.693,80.000,184365.000,1.000
2.810,-6.232,-0.354,-3.782,-9.956,-20.520,-11.055,-12.002,-0.054,0.725,-0.628,0.488,3.937,-3.632,80.000,184366.000,1.000
5.520,-6.895,3.131,-1.601,-6.661,-17.820,-9.102,-9.945,-0.055,0.724,-0.624,0.275,3.937,-3.510,80.000,184367.000,1.000
7.135,-7.302,7.074,0.999,-2.083,-12.318,-4.171,-5.221,-0.053,0.720,-0.624,0.183,3.815,-3.357,80.000,184368.000,1.000
7.057,-7.723,9.890,2.937,2.060,-5.834,1.617,0.320,-0.049,0.717,-0.624,0.031,3.815,-3.235,80.000,184369.000,1.000
5.588,-7.938,10.369,3.317,4.207,-0.560,5.632,4.298,-0.051,0.716,-0.626,-0.031,3.784,-3.113,80.000,184370.000,1.000
3.728,-7.417,8.727,2.081,3.862,2.205,6.678,5.493,-0.051,0.712,-0.625,-0.031,3.754,-2.991,80.000,184371.000,1.000
2.451,-5.808,6.369,0.056,1.748,2.542,5.468,4.445,-0.051,0.711,-0.623,-0.122,3.784,-2.930,80.000,184372.000,1.000
2.124,-3.176,4.828,-1.623,-0.694,1.663,3.733,2.701,-0.049,0.708,-0.625,-0.092,3.723,-2.716,80.000,184373.000,1.000
2.533,0.187,4.420,-2.233,-2.036,1.174,2.903,1.765,-0.048,0.707,-0.629,-0.092,3.632,-2.441,80.000,184374.000,1.000
3.335,3.985,4.735,-1.689,-1.609,1.966,3.554,2.431,-0.047,0.706,-0.629,0.000,3.479,-2.319,80.000,184375.000,1.000
4.190,7.719,5.181,-0.625,-0.088,3.372,4.929,4.037,-0.046,0.707,-0.630,0.122,3.448,-2.167,80.000,184376.000,1.000
4.719,10.516,5.323,-0.073,0.851,3.569,5.211,4.610,-0.045,0.706,-0.627,0.244,3.601,-2.014,80.000,184377.000,1.000
4.820,11.670,5.367,-0.483,0.001,1.268,3.224,2.745,-0.044,0.706,-0.626,0.305,3.540,-1.831,80.000,184378.000,1.000
5.020,11.533,5.794,-1.137,-2.152,-2.901,-0.408,-0.856,-0.046,0.708,-0.624,0.275,3.571,-1.617,80.000,184379.000,1.000
6.162,11.623,7.380,-0.708,-3.857,-6.803,-3.712,-4.003,-0.049,0.708,-0.619,0.153,3.510,-1.465,80.000,184380.000,1.000
8.604,13.623,10.634,1.496,-3.589,-8.375,-4.878,-4.884,-0.051,0.710,-0.624,0.305,3.265,-1.343,80.000,184381.000,1.000
11.811,18.227,15.316,4.969,-1.111,-6.846,-3.171,-3.118,-0.051,0.713,-0.623,0.397,3.235,-1.404,80.000,184382.000,1.000
14.557,24.624,20.387,8.333,2.335,-3.177,0.691,0.094,-0.049,0.715,-0.625,0.397,2.991,-1.373,80.000,184383.000,1.000
15.566,30.920,23.863,10.036,4.754,0.553,4.535,2.506,-0.051,0.715,-0.625,0.397,2.808,-1.434,80.000,184384.000,1.000
14.377,35.341,24.304,9.426,4.840,2.702,6.358,2.455,-0.050,0.715,-0.624,0.275,2.625,-1.465,80.000,184385.000,1.000
11.648,37.196,21.892,7.201,2.864,3.091,5.838,0.134,-0.048,0.717,-0.628,0.275,2.411,-1.587,80.000,184386.000,1.000
8.643,36.931,18.209,4.843,0.258,2.639,4.349,-2.593,-0.048,0.714,-0.627,0.122,2.075,-1.587,80.000,184387.000,1.000
6.442,35.595,15.140,3.628,-1.460,2.459,3.845,-3.463,-0.049,0.715,-0.627,0.092,1.953,-1.709,80.000,184388.000,1.000
5.445,34.240,13.327,3.898,-1.552,3.253,5.317,-1.451,-0.050,0.713,-0.627,0.031,1.831,-1.801,80.000,184389.000,1.000
5.360,33.517,12.482,5.123,-0.285,5.090,8.414,2.635,-0.049,0.712,-0.628,-0.061,1.556,-1.801,80.000,184390.000,1.000
5.494,33.476,11.991,6.386,1.419,7.440,11.943,6.948,-0.049,0.710,-0.630,0.092,1.373,-1.923,80.000,184391.000,1.000
5.251,33.736,11.388,6.977,2.606,9.423,14.713,9.968,-0.045,0.710,-0.630,0.214,1.129,-1.892,80.000,184392.000,1.000
4.329,33.682,10.542,6.549,2.588,10.032,15.852,10.937,-0.043,0.708,-0.632,0.244,1.038,-1.923,80.000,184393.000,1.000
2.430,32.457,8.883,4.725,0.839,8.320,14.391,9.261,-0.041,0.708,-0.635,0.366,1.007,-1.892,80.000,184394.000,1.000
-0.597,29.517,6.065,1.440,-2.581,4.257,10.178,4.943,-0.042,0.704,-0.635,0.549,0.885,-1.862,80.000,184395.000,1.000
-4.170,25.580,2.832,-2.355,-6.383,-0.394,4.942,-0.419,-0.042,0.702,-0.635,0.702,0.763,-1.740,80.000,184396.000,1.000
-7.000,22.410,0.811,-5.042,-8.741,-3.153,1.248,-4.449,-0.044,0.698,-0.635,0.824,0.793,-1.740,80.000,184397.000,1.000
-8.015,21.322,1.261,-5.582,-8.795,-3.018,0.484,-5.716,-0.050,0.696,-0.637,1.068,0.641,-1.709,80.000,184398.000,1.000
-7.147,22.243,3.721,-4.152,-6.964,-0.891,2.310,-4.109,-0.051,0.696,-0.638,1.495,0.519,-1.770,80.000,184399.000,1.000
-5.163,24.120,6.825,-1.711,-4.342,1.638,5.522,-0.625,-0.058,0.698,-0.638,1.862,0.305,-1.892,80.000,184400.000,1.000
-3.071,25.713,9.183,0.451,-2.315,3.169,8.382,2.478,-0.061,0.704,-0.644,2.136,-0.031,-1.953,80.000,184401.000,1.000
-1.550,26.321,10.091,1.378,-1.839,3.119,9.564,3.135,-0.059,0.705,-0.642,2.411,-0.275,-2.014,80.000,184402.000,1.000
-0.724,26.186,10.035,1.125,-2.599,2.232,9.491,1.573,-0.060,0.708,-0.636,2.441,-0.732,-1.892,80.000,184403.000,1.000
-0.481,26.005,9.608,0.393,-3.480,1.860,9.471,-0.258,-0.060,0.708,-0.636,2.533,-1.190,-1.801,80.000,184404.000,1.000
-0.764,26.111,9.102,-0.214,-3.819,2.463,10.049,-0.865,-0.056,0.705,-0.637,2.563,-1.495,-1.801,80.000,184405.000,1.000
-1.519,26.375,8.640,-0.426,-3.662,3.374,10.773,-0.117,-0.055,0.706,-0.634,2.655,-1.740,-1.648,80.000,184406.000,1.000
-2.425,26.865,8.631,0.025,-2.981,4.105,11.402,1.593,-0.054,0.705,-0.634,2.838,-2.045,-1.587,80.000,184407.000,1.000
-2.911,28.126,9.845,1.439,-1.377,5.137,12.512,4.065,-0.053,0.705,-0.639,2.899,-2.258,-1.556,80.000,184408.000,1.000
-2.566,30.562,12.307,3.641,1.264,7.109,14.497,7.057,-0.053,0.702,-0.639,2.930,-2.441,-1.465,80.000,184409.000,1.000
-1.426,33.722,15.332,5.952,4.323,9.826,17.072,10.220,-0.055,0.700,-0.641,3.021,-2.655,-1.251,80.000,184410.000,1.000
0.070,36.308,17.840,7.637,6.775,12.311,19.494,13.214,-0.052,0.698,-0.640,3.265,-2.869,-1.190,80.000,184411.000,1.000
1.308,36.904,18.810,8.202,7.657,13.426,20.851,15.449,-0.050,0.697,-0.643,3.540,-3.021,-0.916,80.000,184412.000,1.000
1.765,34.897,17.920,7.456,6.428,12.481,20.461,16.040,-0.045,0.696,-0.646,3.754,-3.143,-0.732,80.000,184413.000,1.000
1.336,30.970,15.440,5.592,3.342,9.709,18.199,14.403,-0.043,0.694,-0.646,3.906,-3.235,-0.641,80.000,184414.000,1.000
0.433,26.750,12.425,3.268,-0.585,6.167,14.746,10.893,-0.045,0.692,-0.645,4.028,-3.265,-0.336,80.000,184415.000,1.000
-0.464,23.801,9.979,1.178,-4.222,3.104,11.165,6.702,-0.043,0.690,-0.647,4.333,-3.235,-0.122,80.000,184416.000,1.000
-1.163,22.813,8.575,-0.391,-6.871,1.426,8.464,3.251,-0.041,0.691,-0.651,4.517,-3.326,0.122,80.000,184417.000,1.000
-1.721,23.383,8.098,-1.615,-8.494,1.378,7.189,1.261,-0.042,0.693,-0.652,4.608,-3.296,0.153,80.000,184418.000,1.000
-2.384,24.342,7.572,-2.985,-9.604,2.331,6.841,0.259,-0.040,0.696,-0.651,4.761,-3.387,0.336,80.000,184419.000,1.000
-3.343,24.604,6.093,-4.744,-10.700,3.145,6.441,-0.636,-0.038,0.698,-0.652,5.005,-3.265,0.580,80.000,184420.000,1.000
-4.432,23.985,3.622,-6.569,-11.746,3.039,5.368,-1.854,-0.039,0.700,-0.649,5.127,-3.265,0.793,80.000,184421.000,1.000
-5.103,23.325,1.268,-7.706,-12.115,2.300,3.935,-3.047,-0.040,0.703,-0.647,5.157,-3.143,0.977,80.000,184422.000,1.000
-4.851,23.768,0.775,-7.392,-11.034,2.161,3.454,-3.182,-0.044,0.705,-0.646,5.219,-3.143,1.038,80.000,184423.000,1.000
-3.819,25.675,2.622,-5.568,-8.430,3.573,4.911,-1.471,-0.047,0.708,-0.644,5.157,-3.296,1.312,80.000,184424.000,1.000
-2.917,28.124,5.629,-3.131,-5.398,5.994,7.786,1.715,-0.052,0.714,-0.645,5.096,-3.448,1.404,80.000,184425.000,1.000
-3.203,29.527,7.857,-1.429,-3.478,7.833,10.356,5.009,-0.057,0.716,-0.645,4.913,-3.540,1.526,80.000,184426.000,1.000
-5.017,28.864,8.097,-1.278,-3.388,8.091,11.284,7.116,-0.060,0.720,-0.645,4.761,-3.662,1.617,80.000,184427.000,1.000
-7.799,26.254,6.642,-2.492,-4.639,7.052,10.554,7.562,-0.066,0.725,-0.645,4.486,-3.906,1.709,80.000,184428.000,1.000
-10.588,22.625,4.378,-4.254,-6.105,5.647,8.850,6.669,-0.072,0.728,-0.642,4.120,-4.242,1.770,80.000,184429.000,1.000
-12.385,19.176,2.477,-5.536,-6.670,4.750,7.045,5.313,-0.075,0.727,-0.641,3.693,-4.608,1.770,80.000,184430.000,1.000
-12.572,16.732,1.708,-5.647,-5.830,4.770,5.759,4.319,-0.077,0.725,-0.641,3.265,-4.944,1.770,80.000,184431.000,1.000
-11.224,15.341,1.978,-4.587,-3.982,5.449,5.077,3.921,-0.080,0.724,-0.642,2.869,-5.341,1.678,80.000,184432.000,1.000
-8.842,14.550,2.946,-2.773,-1.919,6.307,5.004,3.971,-0.083,0.725,-0.643,2.594,-5.768,1.617,80.000,184433.000,1.000
-5.919,13.985,4.241,-0.663,-0.039,7.362,5.762,4.342,-0.085,0.725,-0.642,2.258,-6.287,1.648,80.000,184434.000,1.000
-2.963,13.373,5.738,1.293,1.605,8.684,7.352,4.802,-0.085,0.724,-0.642,1.923,-6.744,1.556,80.000,184435.000,1.000
-0.820,12.082,6.972,2.354,2.603,9.246,8.608,4.618,-0.085,0.719,-0.640,1.434,-7.263,1.587,80.000,184436.000,1.000
-0.317,9.394,7.276,1.876,2.332,7.527,7.889,3.108,-0.087,0.714,-0.641,1.068,-7.721,1.556,80.000,184437.000,1.000
-1.427,5.398,6.842,0.162,0.850,3.415,4.939,0.608,-0.087,0.709,-0.637,1.068,-8.179,1.556,80.000,184438.000,1.000
-3.154,1.218,6.414,-1.609,-0.897,-1.189,1.183,-1.703,-0.086,0.708,-0.636,0.946,-8.362,1.617,80.000,184439.000,1.000
-4.163,-1.591,6.957,-2.114,-1.557,-3.389,-0.994,-2.441,-0.082,0.707,-0.643,0.824,-8.698,1.740,80.000,184440.000,1.000
-3.578,-1.991,8.887,-0.722,-0.107,-1.203,0.334,-0.605,-0.077,0.705,-0.643,0.641,-9.033,1.892,80.000,184441.000,1.000
