EEG 1,EEG 2,EEG 3,EEG 4,EEG 5,EEG 6,EEG 7,EEG 8,Accelerometer X,Accelerometer Y,Accelerometer Z,Gyroscope X,Gyroscope Y,Gyroscope Z,Battery Level,Counter,Validation Indicator
0.624,-0.024,12.211,10.365,18.471,24.704,26.633,20.170,-0.049,0.989,-0.072,-0.763,-1.068,0.183,73.333,857289.000,1.000
1.558,-0.614,12.179,10.140,18.738,24.956,27.943,21.274,-0.051,0.990,-0.071,-0.763,-1.068,0.214,73.333,857290.000,1.000
1.063,-4.065,9.244,7.237,14.432,18.664,20.889,16.423,-0.051,0.990,-0.067,-0.702,-1.129,0.336,73.333,857291.000,1.000
-0.482,-9.381,4.559,2.894,7.230,7.862,8.329,8.057,-0.051,0.991,-0.068,-0.702,-1.038,0.366,73.333,857292.000,1.000
-2.112,-14.599,0.089,-1.017,0.239,-3.392,-3.580,0.699,-0.051,0.990,-0.069,-0.519,-1.129,0.305,73.333,857293.000,1.000
-2.681,-17.638,-2.190,-2.903,-3.499,-10.644,-8.911,-1.756,-0.049,0.993,-0.066,-0.580,-1.007,0.336,73.333,857294.000,1.000
-1.555,-17.418,-1.411,-2.469,-2.880,-11.218,-5.562,1.021,-0.051,0.994,-0.070,-0.610,-1.099,0.336,73.333,857295.000,1.000
0.800,-14.676,1.453,-1.043,0.396,-5.894,3.297,5.273,-0.053,0.994,-0.068,-0.610,-1.129,0.366,73.333,857296.000,1.000
3.205,-11.366,4.436,-0.362,3.302,1.631,11.644,6.629,-0.053,0.994,-0.070,-0.763,-1.129,0.488,73.333,857297.000,1.000
4.688,-9.181,5.978,-1.075,3.823,7.102,14.821,3.852,-0.054,0.996,-0.071,-0.732,-1.221,0.580,73.333,857298.000,1.000
4.826,-8.677,5.565,-2.659,1.826,7.772,11.672,-1.087,-0.052,0.995,-0.069,-0.824,-1.312,0.610,73.333,857299.000,1.000
3.539,-9.430,3.607,-4.222,-1.470,3.545,4.236,-5.200,-0.054,0.995,-0.071,-0.885,-1.343,0.488,73.333,857300.000,1.000
1.016,-10.542,1.026,-4.989,-4.173,-2.581,-3.166,-6.030,-0.052,0.995,-0.070,-0.946,-1.465,0.519,73.333,857301.000,1.000
-2.153,-11.046,-1.122,-4.474,-4.526,-6.004,-5.989,-2.474,-0.052,0.994,-0.069,-0.946,-1.434,0.580,73.333,857302.000,1.000
-5.116,-10.394,-2.219,-2.826,-2.157,-4.106,-3.043,4.264,-0.055,0.994,-0.071,-1.129,-1.526,0.549,73.333,857303.000,1.000
-7.173,-8.878,-2.412,-0.941,1.333,1.371,2.217,10.710,-0.052,0.994,-0.069,-1.190,-1.495,0.610,73.333,857304.000,1.000
-8.043,-7.439,-2.310,0.173,3.515,5.910,4.872,13.207,-0.052,0.994,-0.071,-1.221,-1.526,0.610,73.333,857305.000,1.000
-7.879,-6.881,-2.429,0.187,3.071,6.134,2.722,10.540,-0.051,0.994,-0.072,-1.251,-1.587,0.671,73.333,857306.000,1.000
-7.111,-7.271,-2.753,-0.344,0.693,2.300,-2.415,4.657,-0.052,0.998,-0.068,-1.221,-1.648,0.671,73.333,857307.000,1.000
-6.109,-7.903,-2.775,-0.367,-1.589,-2.358,-6.583,-0.871,-0.051,0.997,-0.071,-1.404,-1.678,0.641,73.333,857308.000,1.000
-4.891,-7.756,-1.809,1.068,-1.860,-4.318,-6.550,-3.071,-0.050,0.996,-0.069,-1.495,-1.648,0.671,73.333,857309.000,1.000
-3.209,-6.087,0.616,4.290,0.604,-2.097,-1.636,-0.920,-0.051,0.997,-0.072,-1.587,-1.709,0.641,73.333,857310.000,1.000
-0.957,-2.794,4.361,8.815,5.256,3.465,6.507,4.659,-0.049,0.996,-0.072,-1.587,-1.678,0.763,73.333,857311.000,1.000
1.551,1.556,8.678,13.566,10.787,10.446,15.255,11.562,-0.047,0.997,-0.069,-1.648,-1.678,0.580,73.333,857312.000,1.000
3.754,5.988,12.499,17.397,15.639,16.903,21.762,17.440,-0.048,0.997,-0.063,-1.770,-1.648,0.641,73.333,857313.000,1.000
5.164,9.496,14.889,19.591,18.451,21.040,23.533,20.670,-0.047,0.996,-0.065,-1.923,-1.495,0.702,73.333,857314.000,1.000
5.431,11.197,15.218,19.821,18.248,20.978,19.289,20.592,-0.047,0.996,-0.069,-2.014,-1.343,0.732,73.333,857315.000,1.000
4.283,10.420,13.079,17.814,14.521,15.222,9.579,17.002,-0.045,0.993,-0.068,-2.045,-1.465,0.671,73.333,857316.000,1.000
1.750,7.173,8.680,13.625,7.783,4.297,-2.786,10.406,-0.048,0.994,-0.069,-2.136,-1.373,0.671,73.333,857317.000,1.000
-1.645,2.443,3.048,8.028,-0.198,-8.487,-13.561,2.457,-0.047,0.991,-0.067,-2.075,-1.312,0.702,73.333,857318.000,1.000
-5.168,-2.401,-2.519,2.121,-7.422,-18.899,-19.495,-4.923,-0.046,0.992,-0.065,-1.984,-1.129,0.641,73.333,857319.000,1.000
-8.192,-6.306,-7.073,-3.175,-12.612,-24.301,-19.951,-10.352,-0.048,0.995,-0.068,-2.045,-1.099,0.641,73.333,857320.000,1.000
-10.264,-8.598,-10.155,-7.099,-15.177,-24.346,-16.491,-12.802,-0.047,0.994,-0.068,-1.953,-1.038,0.610,73.333,857321.000,1.000
-11.242,-9.013,-11.715,-9.210,-15.164,-20.371,-11.711,-11.904,-0.046,0.993,-0.065,-1.953,-0.977,0.610,73.333,857322.000,1.000
-11.450,-7.817,-12.154,-9.735,-13.312,-14.424,-7.973,-8.661,-0.047,0.992,-0.066,-1.953,-0.916,0.641,73.333,857323.000,1.000
-11.369,-5.497,-11.957,-9.355,-10.516,-8.081,-5.939,-4.932,-0.048,0.992,-0.067,-1.892,-0.885,0.702,73.333,857324.000,1.000
-11.138,-2.306,-11.189,-8.535,-7.169,-1.927,-4.358,-1.935,-0.049,0.991,-0.063,-1.831,-0.824,0.671,73.333,857325.000,1.000
-10.446,1.697,-9.529,-7.255,-3.251,3.702,-1.948,0.449,-0.050,0.991,-0.064,-1.831,-0.885,0.793,73.333,857326.000,1.000
-8.854,6.259,-6.656,-5.264,1.092,8.043,1.102,2.993,-0.049,0.991,-0.063,-1.801,-0.885,0.763,73.333,857327.000,1.000
-6.227,10.758,-2.751,-2.511,5.328,10.382,3.844,6.090,-0.049,0.991,-0.066,-1.740,-0.824,0.641,73.333,857328.000,1.000
-2.907,14.385,1.509,0.670,8.880,10.725,5.925,9.421,-0.049,0.993,-0.069,-1.648,-0.702,0.793,73.333,857329.000,1.000
0.488,16.543,5.434,3.819,11.531,9.783,7.829,12.418,-0.049,0.991,-0.066,-1.617,-0.793,0.671,73.333,857330.000,1.000
3.442,17.161,8.673,6.711,13.519,8.688,10.340,14.844,-0.050,0.992,-0.066,-1.434,-0.763,0.702,73.333,857331.000,1.000
5.686,16.612,11.131,9.256,15.067,8.462,13.702,16.509,-0.050,0.992,-0.066,-1.434,-0.702,0.671,73.333,857332.000,1.000
7.033,15.268,12.502,11.036,15.824,9.227,16.937,16.501,-0.049,0.993,-0.067,-1.312,-0.854,0.671,73.333,857333.000,1.000
7.340,13.279,12.322,11.399,15.109,10.221,18.625,13.649,-0.050,0.993,-0.066,-1.251,-0.854,0.610,73.333,857334.000,1.000
6.758,10.780,10.523,10.188,12.737,10.628,18.166,8.012,-0.050,0.993,-0.065,-1.160,-0.793,0.610,73.333,857335.000,1.000
5.912,8.167,7.731,8.158,9.381,9.972,15.672,1.478,-0.049,0.993,-0.061,-1.190,-0.885,0.610,73.333,857336.000,1.000
5.615,6.068,5.056,6.561,6.172,7.987,11.540,-3.314,-0.048,0.994,-0.063,-1.221,-0.824,0.641,73.333,857337.000,1.000
6.282,5.036,3.406,6.306,4.047,4.619,6.511,-4.624,-0.048,0.995,-0.062,-1.221,-0.824,0.732,73.333,857338.000,1.000
7.629,5.273,2.955,7.459,3.379,0.387,1.638,-2.335,-0.050,0.994,-0.062,-1.160,-0.793,0.702,73.333,857339.000,1.000
8.846,6.523,3.108,9.247,3.945,-3.318,-1.921,2.301,-0.049,0.995,-0.064,-1.221,-0.854,0.824,73.333,857340.000,1.000
9.084,8.201,2.916,10.493,5.122,-4.743,-3.106,7.243,-0.051,0.994,-0.067,-1.099,-0.885,0.793,73.333,857341.000,1.000
8.085,9.778,1.930,10.417,6.332,-3.095,-1.339,10.723,-0.049,0.994,-0.066,-1.007,-0.885,0.824,73.333,857342.000,1.000
6.453,11.075,0.592,9.190,7.415,0.701,2.925,12.276,-0.049,0.994,-0.067,-0.916,-0.854,0.763,73.333,857343.000,1.000
5.135,12.140,-0.199,7.659,8.597,4.899,8.443,12.814,-0.050,0.994,-0.064,-0.916,-0.824,0.854,73.333,857344.000,1.000
4.570,12.913,0.091,6.554,10.051,8.299,14.031,13.517,-0.052,0.995,-0.067,-0.916,-0.824,0.793,73.333,857345.000,1.000
4.355,13.101,1.063,5.848,11.321,10.261,18.584,14.307,-0.048,0.995,-0.064,-0.977,-0.885,0.732,73.333,857346.000,1.000
3.721,12.434,1.735,4.780,11.314,10.162,20.733,13.515,-0.049,0.995,-0.066,-0.916,-0.885,0.671,73.333,857347.000,1.000
2.238,11.033,1.295,2.559,9.172,7.867,19.340,9.465,-0.049,0.994,-0.065,-0.916,-0.885,0.702,73.333,857348.000,1.000
0.142,9.479,-0.279,-0.720,5.226,4.312,14.596,2.551,-0.049,0.993,-0.063,-0.916,-0.732,0.702,73.333,857349.000,1.000
-1.953,8.447,-2.221,-3.908,0.978,0.851,8.260,-4.471,-0.050,0.993,-0.065,-0.977,-0.763,0.671,73.333,857350.000,1.000
-3.775,8.133,-3.750,-5.738,-2.003,-1.899,2.414,-8.495,-0.051,0.995,-0.066,-0.885,-0.854,0.763,73.333,857351.000,1.000
-5.721,8.026,-4.631,-5.803,-3.124,-4.217,-1.707,-8.171,-0.052,0.995,-0.064,-0.763,-0.854,0.671,73.333,857352.000,1.000
-8.269,7.530,-5.008,-4.508,-2.701,-6.076,-3.397,-4.347,-0.052,0.993,-0.067,-0.763,-0.885,0.732,73.333,857353.000,1.000
-11.129,6.789,-4.852,-2.462,-1.323,-6.372,-2.198,0.608,-0.052,0.993,-0.066,-0.702,-1.038,0.732,73.333,857354.000,1.000
-13.272,6.523,-3.919,-0.239,0.317,-4.281,0.960,3.934,-0.050,0.994,-0.065,-0.702,-0.977,0.763,73.333,857355.000,1.000
-13.729,7.142,-2.188,1.554,1.395,-0.873,3.533,3.925,-0.051,0.993,-0.066,-0.671,-1.068,0.610,73.333,857356.000,1.000
-12.306,8.242,-0.027,2.355,1.293,1.691,3.557,0.726,-0.050,0.991,-0.063,-0.610,-1.038,0.641,73.333,857357.000,1.000
-9.665,8.979,1.893,1.905,0.059,2.271,1.361,-3.974,-0.052,0.992,-0.065,-0.519,-1.068,0.610,73.333,857358.000,1.000
-6.845,8.796,2.981,0.533,-1.545,1.251,-1.290,-7.763,-0.051,0.992,-0.066,-0.427,-1.099,0.580,73.333,857359.000,1.000
-4.736,7.611,2.952,-1.036,-2.736,-0.831,-3.173,-8.834,-0.051,0.990,-0.067,-0.458,-1.068,0.549,73.333,857360.000,1.000
-3.879,5.550,1.567,-2.391,-3.417,-3.835,-4.395,-7.384,-0.049,0.990,-0.066,-0.366,-1.099,0.580,73.333,857361.000,1.000
-4.381,2.910,-1.229,-3.655,-3.909,-6.988,-5.284,-5.144,-0.050,0.990,-0.067,-0.275,-1.190,0.610,73.333,857362.000,1.000
-5.837,0.248,-4.921,-4.995,-4.181,-8.749,-5.319,-3.227,-0.049,0.989,-0.063,-0.061,-1.190,0.488,73.333,857363.000,1.000
-7.543,-1.854,-8.499,-6.332,-3.847,-8.091,-3.533,-1.295,-0.051,0.991,-0.066,-0.122,-1.099,0.580,73.333,857364.000,1.000
-8.862,-3.122,-11.036,-7.573,-2.841,-5.224,0.253,1.048,-0.050,0.991,-0.063,-0.061,-1.221,0.458,73.333,857365.000,1.000
-9.353,-3.585,-12.178,-8.729,-1.764,-1.459,4.493,3.109,-0.048,0.991,-0.065,0.031,-1.251,0.458,73.333,857366.000,1.000
-8.785,-3.443,-12.079,-9.784,-1.557,1.196,6.274,3.609,-0.051,0.993,-0.067,0.122,-1.251,0.458,73.333,857367.000,1.000
-7.357,-3.070,-11.300,-10.749,-2.962,0.908,3.107,1.652,-0.050,0.992,-0.063,0.153,-1.282,0.519,73.333,857368.000,1.000
-5.699,-2.789,-10.447,-11.632,-5.972,-2.685,-4.898,-2.570,-0.049,0.993,-0.067,0.153,-1.312,0.458,73.333,857369.000,1.000
-4.288,-2.382,-9.529,-12.132,-9.476,-7.700,-14.364,-7.485,-0.049,0.992,-0.068,0.183,-1.404,0.519,73.333,857370.000,1.000
-2.973,-1.050,-7.894,-11.631,-11.665,-10.794,-20.326,-10.798,-0.050,0.992,-0.066,0.336,-1.373,0.458,73.333,857371.000,1.000
-1.191,1.949,-4.788,-9.593,-11.072,-9.201,-19.052,-10.693,-0.047,0.995,-0.066,0.336,-1.343,0.488,73.333,857372.000,1.000
1.339,6.506,-0.229,-6.042,-7.613,-2.763,-10.542,-6.880,-0.049,0.996,-0.067,0.275,-1.404,0.488,73.333,857373.000,1.000
4.097,11.379,4.665,-1.862,-2.968,5.529,1.008,-1.143,-0.048,0.996,-0.065,0.244,-1.434,0.549,73.333,857374.000,1.000
6.068,14.884,8.333,1.590,0.417,11.504,9.955,3.397,-0.048,0.998,-0.065,0.122,-1.465,0.549,73.333,857375.000,1.000
6.564,16.053,9.796,3.455,1.105,12.924,13.157,4.347,-0.050,0.996,-0.065,0.244,-1.465,0.580,73.333,857376.000,1.000
5.595,14.933,9.110,3.835,-0.691,10.343,10.930,1.386,-0.048,0.993,-0.067,0.244,-1.465,0.549,73.333,857377.000,1.000
3.570,11.904,6.866,3.274,-4.026,5.258,4.768,-4.207,-0.049,0.995,-0.067,0.183,-1.434,0.519,73.333,857378.000,1.000
1.031,7.362,3.760,2.216,-7.929,-1.013,-3.647,-10.405,-0.048,0.994,-0.067,0.153,-1.465,0.519,73.333,857379.000,1.000
-1.384,2.062,0.596,1.016,-11.263,-6.623,-11.371,-14.846,-0.048,0.995,-0.070,0.061,-1.465,0.458,73.333,857380.000,1.000
-3.050,-2.793,-1.849,0.084,-12.777,-9.374,-14.754,-15.347,-0.050,0.996,-0.068,0.061,-1.465,0.549,73.333,857381.000,1.000
-3.561,-6.015,-3.057,-0.231,-11.761,-8.435,-12.009,-10.952,-0.051,0.997,-0.069,0.000,-1.495,0.458,73.333,857382.000,1.000
-2.909,-7.012,-3.110,0.024,-8.693,-5.027,-4.806,-3.188,-0.050,0.997,-0.064,-0.122,-1.495,0.458,73.333,857383.000,1.000
-1.544,-6.056,-2.646,0.336,-5.078,-1.274,2.838,4.264,-0.052,0.998,-0.070,-0.061,-1.587,0.549,73.333,857384.000,1.000
-0.213,-4.135,-2.383,0.157,-2.513,0.928,7.088,8.146,-0.050,0.996,-0.066,-0.183,-1.587,0.610,73.333,857385.000,1.000
0.344,-2.507,-2.846,-0.727,-1.934,0.308,6.043,7.577,-0.051,0.992,-0.068,-0.366,-1.617,0.488,73.333,857386.000,1.000
-0.290,-2.119,-4.182,-2.237,-3.502,-3.304,0.122,3.360,-0.050,0.994,-0.068,-0.275,-1.617,0.427,73.333,857387.000,1.000
-1.951,-3.097,-6.028,-4.082,-6.574,-8.418,-8.098,-3.152,-0.050,0.993,-0.067,-0.244,-1.740,0.427,73.333,857388.000,1.000
-3.962,-4.709,-7.538,-5.728,-9.709,-12.209,-14.648,-9.947,-0.049,0.992,-0.065,-0.275,-1.678,0.397,73.333,857389.000,1.000
-5.554,-5.961,-7.873,-6.645,-11.421,-12.224,-16.546,-14.718,-0.050,0.992,-0.069,-0.214,-1.709,0.458,73.333,857390.000,1.000
-6.317,-6.262,-6.886,-6.736,-11.169,-8.238,-13.981,-16.147,-0.051,0.995,-0.070,-0.244,-1.617,0.427,73.333,857391.000,1.000
-6.253,-5.466,-4.964,-6.262,-9.290,-2.110,-9.190,-14.238,-0.049,0.994,-0.069,-0.275,-1.709,0.336,73.333,857392.000,1.000
-5.495,-3.565,-2.503,-5.357,-6.246,3.937,-3.912,-9.641,-0.048,0.994,-0.070,-0.336,-1.740,0.336,73.333,857393.000,1.000
-4.165,-0.744,0.206,-3.991,-2.519,8.311,1.156,-3.455,-0.049,0.995,-0.072,-0.397,-1.648,0.275,73.333,857394.000,1.000
-2.498,2.382,2.775,-2.359,1.110,10.246,5.655,2.662,-0.051,0.995,-0.068,-0.397,-1.648,0.244,73.333,857395.000,1.000
-0.819,5.016,4.752,-0.887,3.897,10.073,9.566,7.149,-0.050,0.995,-0.068,-0.519,-1.617,0.366,73.333,857396.000,1.000
0.667,6.683,6.001,0.194,5.615,9.016,13.226,9.395,-0.049,0.995,-0.070,-0.549,-1.556,0.397,73.333,857397.000,1.000
1.840,7.252,6.568,0.898,6.314,8.156,16.263,9.515,-0.050,0.995,-0.066,-0.610,-1.495,0.366,73.333,857398.000,1.000
2.501,6.599,6.338,1.153,5.754,7.354,16.803,7.531,-0.050,0.994,-0.070,-0.763,-1.434,0.458,73.333,857399.000,1.000
2.448,4.608,5.122,0.733,3.451,5.275,12.427,3.346,-0.047,0.993,-0.069,-0.702,-1.343,0.397,73.333,857400.000,1.000
1.743,1.595,3.018,-0.399,-0.537,0.876,2.591,-2.434,-0.045,0.993,-0.073,-0.763,-1.282,0.427,73.333,857401.000,1.000
0.796,-1.539,0.645,-1.800,-5.067,-5.246,-9.733,-7.989,-0.045,0.993,-0.071,-0.793,-1.251,0.427,73.333,857402.000,1.000
0.105,-3.797,-1.236,-2.761,-8.437,-11.165,-19.631,-11.043,-0.049,0.993,-0.072,-0.824,-1.251,0.488,73.333,857403.000,1.000
-0.080,-4.676,-2.234,-2.858,-9.511,-14.823,-23.531,-10.407,-0.049,0.991,-0.070,-0.793,-1.099,0.580,73.333,857404.000,1.000
0.155,-4.362,-2.518,-2.270,-8.419,-15.068,-21.102,-7.089,-0.050,0.994,-0.073,-0.732,-1.068,0.610,73.333,857405.000,1.000
0.597,-3.499,-2.620,-1.540,-6.285,-12.179,-14.966,-3.768,-0.050,0.991,-0.071,-0.732,-1.129,0.641,73.333,857406.000,1.000
1.130,-2.759,-2.859,-1.050,-4.379,-7.614,-8.770,-2.801,-0.051,0.993,-0.069,-0.610,-1.099,0.641,73.333,857407.000,1.000
1.699,-2.541,-3.248,-0.890,-3.462,-3.336,-5.093,-4.687,-0.051,0.995,-0.070,-0.641,-1.038,0.671,73.333,857408.000,1.000
2.269,-2.783,-3.646,-0.901,-3.475,-0.741,-4.101,-7.923,-0.051,0.993,-0.070,-0.732,-1.007,0.671,73.333,857409.000,1.000
2.868,-2.990,-3.744,-0.701,-3.605,0.263,-4.038,-10.077,-0.052,0.993,-0.070,-0.641,-1.099,0.610,73.333,857410.000,1.000
3.410,-2.775,-3.444,-0.119,-3.208,0.513,-3.872,-9.684,-0.052,0.992,-0.067,-0.641,-1.160,0.549,73.333,857411.000,1.000
3.441,-2.380,-3.173,0.302,-2.701,0.069,-4.780,-7.533,-0.051,0.994,-0.067,-0.610,-1.099,0.488,73.333,857412.000,1.000
2.453,-2.305,-3.542,-0.279,-3.047,-1.656,-8.308,-5.868,-0.052,0.993,-0.068,-0.671,-1.068,0.397,73.333,857413.000,1.000
0.552,-2.520,-4.490,-1.952,-4.367,-4.505,-13.765,-6.149,-0.051,0.995,-0.069,-0.580,-1.007,0.427,73.333,857414.000,1.000
-1.412,-2.367,-5.097,-3.755,-5.539,-7.007,-18.170,-7.804,-0.051,0.994,-0.069,-0.610,-0.977,0.427,73.333,857415.000,1.000
-2.495,-1.242,-4.465,-4.470,-5.158,-7.173,-18.409,-8.926,-0.053,0.994,-0.068,-0.610,-1.038,0.366,73.333,857416.000,1.000
-2.276,0.886,-2.381,-3.438,-2.506,-3.647,-12.880,-7.593,-0.051,0.997,-0.068,-0.732,-1.007,0.366,73.333,857417.000,1.000
-0.876,3.572,0.666,-0.735,2.210,3.535,-1.994,-2.964,-0.051,0.997,-0.065,-0.824,-1.099,0.336,73.333,857418.000,1.000
1.327,6.196,3.867,2.936,7.869,12.493,11.215,3.937,-0.051,0.997,-0.067,-0.854,-1.190,0.427,73.333,857419.000,1.000
3.768,8.015,6.353,6.399,12.507,19.472,20.984,10.348,-0.049,0.998,-0.068,-0.977,-1.160,0.427,73.333,857420.000,1.000
5.747,8.323,7.292,8.471,14.137,20.430,21.776,13.373,-0.050,0.997,-0.066,-1.068,-1.068,0.427,73.333,857421.000,1.000
6.833,6.988,6.416,8.670,12.067,13.985,12.639,11.908,-0.049,0.997,-0.067,-1.068,-1.007,0.427,73.333,857422.000,1.000
7.179,4.651,4.219,7.391,7.318,2.601,-2.264,7.111,-0.050,0.996,-0.070,-1.190,-1.038,0.580,73.333,857423.000,1.000
7.211,2.202,1.553,5.381,1.816,-9.243,-16.752,1.365,-0.050,0.995,-0.066,-1.160,-1.007,0.641,73.333,857424.000,1.000
7.106,0.212,-0.855,3.216,-2.570,-17.294,-25.302,-3.096,-0.049,0.996,-0.066,-1.282,-1.038,0.610,73.333,857425.000,1.000
6.675,-1.199,-2.679,1.186,-4.666,-18.883,-24.827,-5.118,-0.050,0.997,-0.065,-1.221,-1.099,0.610,73.333,857426.000,1.000
5.721,-2.346,-3.902,-0.590,-4.559,-14.419,-16.584,-4.831,-0.048,0.996,-0.065,-1.282,-1.068,0.671,73.333,857427.000,1.000
4.387,-3.826,-4.811,-2.100,-3.628,-7.711,-6.274,-3.322,-0.049,0.996,-0.069,-1.312,-1.007,0.732,73.333,857428.000,1.000
3.083,-6.012,-5.821,-3.421,-3.522,-3.144,-0.199,-2.070,-0.050,0.997,-0.068,-1.434,-1.038,0.763,73.333,857429.000,1.000
2.212,-8.551,-7.023,-4.563,-4.778,-2.108,-0.460,-2.112,-0.051,0.995,-0.066,-1.373,-1.068,0.824,73.333,857430.000,1.000
2.085,-10.390,-7.993,-5.233,-6.366,-2.532,-4.068,-3.201,-0.052,0.994,-0.067,-1.373,-1.038,0.885,73.333,857431.000,1.000
2.885,-10.482,-8.047,-4.959,-6.702,-1.770,-6.470,-3.968,-0.052,0.995,-0.070,-1.495,-1.099,0.854,73.333,857432.000,1.000
4.330,-8.678,-6.998,-3.727,-5.237,0.444,-5.608,-3.350,-0.052,0.995,-0.067,-1.526,-1.068,0.916,73.333,857433.000,1.000
5.577,-5.775,-5.407,-2.265,-2.816,2.339,-2.419,-1.632,-0.050,0.993,-0.067,-1.465,-1.007,0.885,73.333,857434.000,1.000
5.818,-2.624,-3.941,-1.462,-0.555,2.904,1.596,0.113,-0.051,0.995,-0.066,-1.312,-1.038,0.885,73.333,857435.000,1.000
4.863,0.421,-2.867,-1.762,1.120,3.225,5.955,1.094,-0.053,0.993,-0.066,-1.404,-1.038,0.916,73.333,857436.000,1.000
2.937,3.086,-2.112,-3.169,2.186,4.737,10.361,1.120,-0.054,0.993,-0.065,-1.373,-1.129,0.946,73.333,857437.000,1.000
0.191,4.696,-1.772,-5.455,2.417,7.041,13.507,0.439,-0.053,0.992,-0.065,-1.373,-1.099,0.854,73.333,857438.000,1.000
-3.239,4.612,-2.083,-8.094,1.574,8.321,13.911,-0.514,-0.053,0.992,-0.064,-1.221,-1.099,0.916,73.333,857439.000,1.000
-6.841,2.929,-2.976,-10.292,-0.239,7.195,11.085,-1.735,-0.053,0.991,-0.065,-1.312,-1.129,0.916,73.333,857440.000,1.000
-9.777,0.433,-4.083,-11.382,-2.758,3.322,5.088,-3.826,-0.055,0.988,-0.065,-1.282,-1.190,0.946,73.333,857441.000,1.000
-11.324,-1.958,-4.934,-11.115,-5.723,-2.831,-3.792,-7.174,-0.053,0.987,-0.066,-1.221,-1.190,1.007,73.333,857442.000,1.000
-11.173,-3.582,-5.233,-9.649,-8.733,-9.926,-14.481,-11.358,-0.054,0.984,-0.067,-1.068,-1.282,0.977,73.333,857443.000,1.000
-9.352,-4.050,-4.862,-7.324,-11.113,-15.988,-24.765,-15.249,-0.052,0.988,-0.069,-0.946,-1.221,1.038,73.333,857444.000,1.000
-6.043,-3.134,-3.720,-4.443,-12.087,-19.276,-31.979,-17.464,-0.052,0.989,-0.071,-0.854,-1.221,1.007,73.333,857445.000,1.000
-1.615,-0.871,-1.869,-1.300,-11.218,-19.057,-34.260,-17.055,-0.051,0.990,-0.069,-0.702,-1.221,1.068,73.333,857446.000,1.000
3.292,2.320,0.469,1.733,-8.663,-15.573,-31.081,-14.031,-0.052,0.992,-0.068,-0.702,-1.190,1.007,73.333,857447.000,1.000
7.878,5.708,2.911,4.210,-5.112,-9.705,-23.375,-9.407,-0.052,0.993,-0.068,-0.641,-1.190,1.007,73.333,857448.000,1.000
11.410,8.360,4.898,5.744,-1.641,-3.091,-13.635,-4.743,-0.053,0.995,-0.066,-0.702,-1.251,0.946,73.333,857449.000,1.000
13.346,9.262,5.823,6.140,0.555,1.934,-5.133,-1.405,-0.053,1.000,-0.068,-0.793,-1.251,0.793,73.333,857450.000,1.000
13.482,7.747,5.234,5.496,0.757,3.404,-0.314,0.027,-0.055,1.000,-0.070,-0.977,-1.282,0.732,73.333,857451.000,1.000
12.186,4.135,3.358,4.309,-0.716,1.095,0.358,-0.014,-0.053,1.000,-0.068,-1.038,-1.282,0.610,73.333,857452.000,1.000
10.303,-0.231,1.058,3.229,-2.723,-3.230,-1.756,-0.572,-0.051,0.999,-0.067,-1.160,-1.251,0.671,73.333,857453.000,1.000
8.533,-3.887,-0.820,2.521,-4.179,-7.073,-4.505,-0.999,-0.048,0.998,-0.067,-1.373,-1.190,0.610,73.333,857454.000,1.000
7.050,-6.017,-1.864,2.005,-4.559,-8.703,-5.952,-1.064,-0.045,0.994,-0.069,-1.495,-1.160,0.702,73.333,857455.000,1.000
5.651,-6.532,-2.143,1.397,-3.869,-7.782,-5.165,-0.686,-0.041,0.992,-0.069,-1.587,-1.038,0.641,73.333,857456.000,1.000
3.992,-5.953,-2.050,0.429,-2.667,-5.231,-2.642,-0.193,-0.042,0.992,-0.071,-1.526,-0.946,0.824,73.333,857457.000,1.000
1.868,-5.096,-2.083,-1.002,-1.723,-2.465,0.341,-0.239,-0.043,0.993,-0.070,-1.526,-0.854,0.885,73.333,857458.000,1.000
-0.471,-4.437,-2.338,-2.517,-1.187,-0.185,3.368,-0.764,-0.044,0.991,-0.067,-1.465,-0.610,0.916,73.333,857459.000,1.000
-2.450,-3.900,-2.346,-3.342,-0.449,1.860,7.064,-0.640,-0.044,0.994,-0.067,-1.404,-0.488,0.916,73.333,857460.000,1.000
-3.755,-3.363,-1.761,-3.015,0.892,3.608,11.049,1.000,-0.044,0.995,-0.069,-1.526,-0.336,1.099,73.333,857461.000,1.000
-4.648,-3.062,-0.813,-1.932,2.248,4.019,12.963,3.245,-0.043,0.998,-0.068,-1.556,-0.336,1.129,73.333,857462.000,1.000
-5.663,-3.340,-0.179,-1.063,2.532,2.193,10.213,3.813,-0.045,0.999,-0.069,-1.740,-0.305,1.282,73.333,857463.000,1.000
-7.115,-4.329,-0.459,-1.113,1.090,-1.811,2.114,1.147,-0.046,0.998,-0.072,-1.801,-0.214,1.495,73.333,857464.000,1.000
-8.883,-6.006,-1.782,-2.046,-1.943,-7.305,-9.514,-4.260,-0.047,0.997,-0.072,-1.862,-0.214,1.556,73.333,857465.000,1.000
-10.486,-8.187,-3.762,-3.245,-5.604,-12.857,-20.746,-10.264,-0.048,0.995,-0.076,-1.801,-0.244,1.495,73.333,857466.000,1.000
-11.315,-10.457,-5.540,-3.931,-8.318,-16.073,-26.720,-14.248,-0.051,0.995,-0.072,-1.740,-0.305,1.495,73.333,857467.000,1.000
-11.010,-12.416,-6.314,-3.659,-8.745,-14.854,-24.229,-14.384,-0.056,0.997,-0.069,-1.770,-0.275,1.617,73.333,857468.000,1.000
-9.694,-13.916,-5.869,-2.617,-6.760,-9.158,-14.234,-10.603,-0.059,0.997,-0.067,-1.831,-0.336,1.465,73.333,857469.000,1.000
-7.881,-14.999,-4.678,-1.583,-3.691,-1.212,-1.799,-4.937,-0.059,0.996,-0.068,-1.862,-0.488,1.190,73.333,857470.000,1.000
-6.163,-15.772,-3.652,-1.470,-1.478,5.687,7.110,-0.475,-0.062,0.994,-0.070,-1.831,-0.763,0.946,73.333,857471.000,1.000
-4.914,-16.351,-3.458,-2.682,-1.405,8.578,9.403,0.764,-0.063,0.996,-0.066,-1.892,-1.068,0.763,73.333,857472.000,1.000
-4.272,-16.897,-4.276,-4.972,-3.561,6.108,5.605,-1.193,-0.062,0.996,-0.062,-1.862,-1.190,0.488,73.333,857473.000,1.000
-4.290,-17.622,-5.893,-7.757,-7.090,-0.647,-1.599,-4.909,-0.059,0.995,-0.066,-1.831,-1.404,0.305,73.333,857474.000,1.000
-4.913,-18.606,-7.796,-10.357,-10.606,-8.626,-8.579,-8.453,-0.059,0.994,-0.065,-1.953,-1.587,0.122,73.333,857475.000,1.000
-5.849,-19.620,-9.442,-12.132,-12.750,-14.596,-12.269,-10.275,-0.058,0.997,-0.065,-1.984,-1.617,0.000,73.333,857476.000,1.000
-6.563,-20.144,-10.347,-12.628,-12.775,-16.786,-11.686,-9.933,-0.054,0.997,-0.064,-1.984,-1.801,-0.092,73.333,857477.000,1.000
-6.492,-19.573,-10.161,-11.699,-10.684,-15.041,-7.926,-8.038,-0.049,0.998,-0.064,-2.075,-1.770,-0.122,73.333,857478.000,1.000
-5.485,-17.650,-8.836,-9.638,-7.124,-10.413,-3.023,-5.580,-0.048,0.999,-0.066,-2.045,-1.740,-0.153,73.333,857479.000,1.000
-4.024,-14.742,-6.667,-7.154,-3.142,-4.854,1.211,-3.387,-0.044,1.000,-0.066,-2.045,-1.770,-0.092,73.333,857480.000,1.000
-2.836,-11.372,-4.041,-4.910,0.604,0.136,4.644,-1.541,-0.042,1.002,-0.066,-2.228,-1.617,0.031,73.333,857481.000,1.000
-2.259,-7.531,-1.016,-3.029,4.495,5.241,9.510,0.835,-0.043,0.998,-0.068,-2.167,-1.556,0.031,73.333,857482.000,1.000
-2.084,-2.843,2.356,-1.307,9.145,12.265,17.725,4.414,-0.044,0.998,-0.066,-2.136,-1.404,0.244,73.333,857483.000,1.000
-2.044,2.390,5.425,0.162,13.774,20.383,26.870,8.311,-0.042,0.998,-0.065,-2.106,-1.373,0.305,73.333,857484.000,1.000
-2.238,6.698,7.066,0.891,16.130,25.047,30.676,10.453,-0.045,0.995,-0.065,-2.106,-1.099,0.488,73.333,857485.000,1.000
-2.863,8.560,6.592,0.663,14.603,22.254,24.904,9.450,-0.044,0.996,-0.063,-2.197,-0.916,0.641,73.333,857486.000,1.000
-3.704,7.861,4.645,0.090,10.108,13.014,12.164,6.091,-0.044,0.994,-0.062,-2.136,-0.885,0.824,73.333,857487.000,1.000
-4.192,5.892,2.702,0.257,5.498,2.687,0.051,2.895,-0.046,0.994,-0.063,-2.075,-0.732,0.946,73.333,857488.000,1.000
-3.839,4.219,1.960,1.856,3.385,-3.163,-4.831,2.074,-0.048,0.994,-0.064,-2.014,-0.732,1.007,73.333,857489.000,1.000
-2.469,3.861,2.819,4.752,4.652,-1.941,-0.821,4.009,-0.050,0.993,-0.064,-1.984,-0.732,0.946,73.333,857490.000,1.000
-0.211,4.992,4.842,8.142,8.288,4.883,8.518,7.324,-0.051,0.993,-0.061,-1.862,-0.671,1.007,73.333,857491.000,1.000
2.436,6.850,7.042,10.946,11.984,12.450,16.503,9.989,-0.053,0.991,-0.063,-1.923,-0.671,0.977,73.333,857492.000,1.000
4.754,8.331,8.396,12.479,13.675,15.781,17.848,10.859,-0.052,0.989,-0.063,-1.770,-0.641,1.007,73.333,857493.000,1.000
6.337,9.002,8.597,13.030,13.177,13.617,12.957,10.685,-0.053,0.987,-0.063,-1.648,-0.610,0.916,73.333,857494.000,1.000
7.235,9.075,8.010,13.324,11.724,8.369,6.452,10.908,-0.052,0.987,-0.062,-1.587,-0.641,0.916,73.333,857495.000,1.000
7.425,8.498,6.639,13.260,9.919,2.732,1.500,11.169,-0.051,0.988,-0.063,-1.465,-0.641,0.977,73.333,857496.000,1.000
6.603,6.898,4.013,11.872,7.192,-2.078,-2.272,9.261,-0.051,0.985,-0.064,-1.404,-0.641,0.977,73.333,857497.000,1.000
4.729,4.580,0.161,8.670,3.418,-5.216,-5.770,4.064,-0.050,0.986,-0.064,-1.221,-0.641,0.854,73.333,857498.000,1.000
2.494,2.883,-3.698,4.557,-0.047,-5.504,-7.916,-2.542,-0.049,0.986,-0.063,-1.190,-0.671,0.824,73.333,857499.000,1.000
0.980,3.246,-5.773,1.301,-1.348,-2.561,-6.762,-7.057,-0.052,0.986,-0.060,-1.007,-0.641,0.763,73.333,857500.000,1.000
0.933,6.152,-4.999,0.389,0.427,2.437,-1.648,-6.795,-0.053,0.988,-0.062,-1.038,-0.671,0.763,73.333,857501.000,1.000
2.273,10.847,-1.614,2.118,4.679,7.562,6.218,-1.471,-0.051,0.988,-0.062,-0.977,-0.610,0.702,73.333,857502.000,1.000
4.117,15.696,2.967,5.327,9.545,11.081,14.125,6.363,-0.050,0.990,-0.062,-0.854,-0.671,0.610,73.333,857503.000,1.000
5.357,19.032,6.952,8.096,12.873,11.884,18.947,12.765,-0.050,0.992,-0.062,-0.916,-0.671,0.671,73.333,857504.000,1.000
5.411,20.144,9.228,9.032,13.522,10.074,18.975,15.053,-0.050,0.993,-0.061,-0.885,-0.702,0.702,73.333,857505.000,1.000
4.458,19.542,9.683,8.049,11.886,6.997,14.861,13.311,-0.050,0.994,-0.059,-0.946,-0.671,0.885,73.333,857506.000,1.000
3.107,18.281,8.993,6.164,9.255,3.973,8.939,9.716,-0.049,0.995,-0.062,-0.916,-0.641,0.885,73.333,857507.000,1.000
2.001,17.194,8.070,4.718,6.951,1.602,4.001,6.747,-0.047,0.995,-0.064,-0.977,-0.610,0.916,73.333,857508.000,1.000
1.541,16.535,7.588,4.568,5.745,0.158,1.911,5.702,-0.049,0.995,-0.065,-0.885,-0.671,0.946,73.333,857509.000,1.000
1.698,15.949,7.697,5.651,5.559,-0.471,2.422,6.340,-0.049,0.997,-0.062,-0.916,-0.702,1.068,73.333,857510.000,1.000
2.147,14.885,8.033,7.196,5.846,-0.560,3.990,7.603,-0.047,0.998,-0.064,-0.977,-0.732,1.129,73.333,857511.000,1.000
2.625,13.113,8.205,8.302,6.118,-0.124,5.246,8.410,-0.048,0.998,-0.065,-1.129,-0.580,1.190,73.333,857512.000,1.000
3.041,10.674,7.844,8.317,5.826,0.254,4.735,7.860,-0.046,0.999,-0.063,-1.190,-0.580,1.190,73.333,857513.000,1.000
3.357,7.680,6.600,7.018,4.434,-0.711,1.607,5.655,-0.047,0.999,-0.066,-1.251,-0.610,1.190,73.333,857514.000,1.000
3.547,4.386,4.451,4.688,2.005,-3.373,-2.777,2.498,-0.046,0.997,-0.065,-1.434,-0.580,1.190,73.333,857515.000,1.000
3.603,1.150,1.726,1.865,-0.839,-6.626,-6.254,-0.533,-0.046,0.997,-0.064,-1.373,-0.519,1.282,73.333,857516.000,1.000
3.575,-1.737,-0.948,-0.888,-3.486,-9.065,-8.221,-2.852,-0.048,0.997,-0.063,-1.587,-0.549,1.312,73.333,857517.000,1.000
3.572,-4.056,-2.882,-3.040,-5.479,-9.826,-9.172,-4.309,-0.048,0.997,-0.063,-1.556,-0.610,1.312,73.333,857518.000,1.000
3.708,-5.610,-3.624,-4.213,-6.449,-8.718,-9.094,-4.861,-0.048,0.996,-0.062,-1.678,-0.610,1.312,73.333,857519.000,1.000
3.994,-6.282,-3.202,-4.439,-6.346,-6.197,-7.586,-4.821,-0.049,0.997,-0.063,-1.709,-0.610,1.251,73.333,857520.000,1.000
4.254,-6.152,-2.239,-4.161,-5.625,-3.344,-4.939,-4.803,-0.050,0.999,-0.064,-1.801,-0.641,1.251,73.333,857521.000,1.000
4.250,-5.464,-1.446,-3.815,-4.856,-1.383,-2.037,-4.906,-0.052,0.999,-0.063,-1.770,-0.732,1.129,73.333,857522.000,1.000
3.842,-4.528,-1.190,-3.569,-4.290,-0.881,0.325,-4.623,-0.051,1.000,-0.060,-1.953,-0.732,0.946,73.333,857523.000,1.000
3.036,-3.798,-1.499,-3.532,-4.105,-1.903,1.237,-3.976,-0.052,0.999,-0.062,-1.984,-0.763,0.916,73.333,857524.000,1.000
1.981,-3.839,-2.224,-3.857,-4.658,-4.605,-0.273,-3.840,-0.052,0.995,-0.062,-1.862,-0.793,0.763,73.333,857525.000,1.000
0.903,-4.897,-3.191,-4.554,-6.003,-8.626,-3.863,-4.764,-0.052,0.994,-0.061,-2.045,-0.885,0.793,73.333,857526.000,1.000
-0.070,-6.579,-4.132,-5.486,-7.641,-12.455,-7.541,-6.390,-0.051,0.992,-0.061,-2.075,-1.038,0.641,73.333,857527.000,1.000
-1.014,-8.042,-4.901,-6.624,-8.972,-14.244,-9.509,-8.219,-0.049,0.990,-0.060,-2.014,-1.068,0.610,73.333,857528.000,1.000
-2.109,-8.389,-5.500,-7.925,-9.492,-12.746,-8.990,-9.876,-0.046,0.988,-0.062,-2.045,-1.160,0.580,73.333,857529.000,1.000
-3.390,-7.029,-5.776,-8.953,-8.699,-7.805,-5.742,-10.595,-0.046,0.988,-0.063,-1.984,-1.190,0.580,73.333,857530.000,1.000
-4.617,-4.047,-5.446,-8.948,-6.450,-0.972,-0.499,-9.383,-0.048,0.989,-0.062,-1.862,-1.129,0.671,73.333,857531.000,1.000
-5.377,-0.286,-4.304,-7.333,-3.305,4.975,4.878,-5.822,-0.046,0.991,-0.062,-1.801,-1.099,0.702,73.333,857532.000,1.000
-5.400,2.990,-2.624,-4.283,-0.381,7.667,8.194,-0.776,-0.044,0.993,-0.061,-1.648,-1.038,0.702,73.333,857533.000,1.000
-4.896,4.508,-1.249,-0.956,0.892,5.906,7.419,3.485,-0.045,0.992,-0.061,-1.617,-0.977,0.793,73.333,857534.000,1.000
-4.477,3.547,-1.029,1.103,-0.542,-0.087,1.699,4.499,-0.045,0.992,-0.061,-1.495,-0.977,0.916,73.333,857535.000,1.000
-4.634,0.585,-2.152,1.144,-4.171,-7.807,-6.726,1.803,-0.045,0.989,-0.061,-1.526,-0.854,0.916,73.333,857536.000,1.000
-5.352,-2.785,-3.866,-0.251,-7.839,-12.967,-12.908,-2.370,-0.047,0.987,-0.060,-1.404,-0.854,1.007,73.333,857537.000,1.000
-6.294,-4.925,-5.160,-1.858,-9.449,-12.633,-13.315,-4.965,-0.048,0.987,-0.062,-1.312,-0.885,1.068,73.333,857538.000,1.000
-7.140,-5.099,-5.464,-2.710,-8.436,-7.589,-8.572,-4.209,-0.052,0.989,-0.065,-1.129,-0.793,1.099,73.333,857539.000,1.000
-7.623,-3.441,-4.640,-2.353,-5.453,-0.672,-1.364,-0.079,-0.057,0.992,-0.062,-1.068,-0.916,0.977,73.333,857540.000,1.000
-7.503,-0.480,-2.893,-0.840,-1.422,6.289,6.430,5.987,-0.057,0.993,-0.059,-0.977,-1.038,0.916,73.333,857541.000,1.000
-6.752,2.893,-0.755,1.178,2.550,12.533,13.435,11.389,-0.056,0.996,-0.060,-0.977,-1.129,0.732,73.333,857542.000,1.000
-5.720,5.384,0.909,2.608,5.045,16.579,17.546,13.461,-0.056,0.997,-0.060,-1.099,-1.312,0.641,73.333,857543.000,1.000
-4.925,5.913,1.420,2.614,5.041,16.545,17.016,11.253,-0.053,0.998,-0.063,-1.251,-1.526,0.427,73.333,857544.000,1.000
-4.713,4.380,0.838,1.145,2.677,12.147,12.078,6.141,-0.051,0.999,-0.064,-1.282,-1.648,0.458,73.333,857545.000,1.000
-5.184,1.600,-0.327,-1.247,-0.983,4.968,4.500,0.674,-0.052,1.000,-0.062,-1.434,-1.770,0.488,73.333,857546.000,1.000
-6.148,-1.334,-1.445,-3.751,-4.618,-2.906,-3.548,-2.846,-0.052,1.000,-0.059,-1.465,-1.831,0.397,73.333,857547.000,1.000
-6.961,-3.363,-1.811,-5.404,-6.783,-9.152,-9.393,-2.873,-0.050,1.000,-0.062,-1.465,-1.831,0.305,73.333,857548.000,1.000
-6.655,-3.480,-0.650,-5.279,-5.947,-10.893,-9.786,1.283,-0.050,0.999,-0.059,-1.678,-1.770,0.305,73.333,857549.000,1.000
-4.695,-1.215,2.341,-3.189,-1.582,-6.401,-3.330,8.634,-0.049,0.999,-0.063,-1.709,-1.923,0.336,73.333,857550.000,1.000
-1.716,2.629,6.171,-0.266,4.658,2.558,6.952,15.839,-0.049,0.997,-0.062,-1.801,-1.801,0.397,73.333,857551.000,1.000
0.736,6.166,8.997,1.678,9.639,11.193,15.006,18.871,-0.048,0.997,-0.064,-1.770,-1.801,0.366,73.333,857552.000,1.000
1.311,7.612,9.357,1.507,10.868,14.670,15.670,15.855,-0.048,0.996,-0.063,-1.709,-1.892,0.519,73.333,857553.000,1.000
-0.250,6.422,7.082,-0.541,8.017,11.080,7.982,8.156,-0.047,0.996,-0.065,-1.740,-1.923,0.519,73.333,857554.000,1.000
-3.036,3.548,3.363,-3.098,3.032,2.849,-3.852,-0.594,-0.048,0.995,-0.066,-1.648,-1.831,0.580,73.333,857555.000,1.000
-5.534,0.825,-0.046,-4.495,-1.027,-4.328,-12.692,-6.436,-0.049,0.996,-0.064,-1.587,-1.831,0.641,73.333,857556.000,1.000
-6.530,-0.327,-1.803,-3.848,-1.975,-5.515,-13.072,-7.344,-0.050,0.997,-0.063,-1.495,-1.770,0.732,73.333,857557.000,1.000
-5.981,-0.183,-2.026,-1.834,-0.238,-1.116,-5.685,-4.488,-0.051,0.997,-0.062,-1.556,-1.831,0.671,73.333,857558.000,1.000
-5.023,-0.597,-2.231,-0.270,1.439,3.146,2.701,-1.168,-0.051,0.994,-0.063,-1.465,-1.770,0.732,73.333,857559.000,1.000
-4.882,-3.219,-3.836,-0.584,0.496,1.870,5.204,-0.158,-0.049,0.993,-0.064,-1.556,-1.801,0.763,73.333,857560.000,1.000
-5.744,-7.806,-6.815,-2.562,-3.010,-4.806,0.989,-1.550,-0.049,0.994,-0.064,-1.495,-1.892,0.732,73.333,857561.000,1.000
-6.662,-12.163,-9.473,-4.450,-6.272,-11.263,-4.034,-2.786,-0.048,0.993,-0.063,-1.404,-1.831,0.763,73.333,857562.000,1.000
-6.490,-13.783,-9.808,-4.366,-6.069,-10.935,-2.613,-1.094,-0.049,0.993,-0.062,-1.312,-1.831,0.732,73.333,857563.000,1.000
-5.031,-12.059,-7.366,-1.942,-1.772,-2.089,6.628,3.803,-0.048,0.995,-0.057,-1.190,-1.831,0.763,73.333,857564.000,1.000
-3.308,-9.019,-3.799,1.278,3.844,10.076,17.223,9.334,-0.049,0.996,-0.062,-1.160,-1.892,0.732,73.333,857565.000,1.000
-2.650,-7.646,-1.594,3.141,6.983,17.649,20.560,12.269,-0.049,0.995,-0.062,-1.160,-1.892,0.702,73.333,857566.000,1.000
-3.620,-9.594,-2.102,2.585,5.803,16.083,13.142,11.216,-0.051,0.994,-0.059,-1.038,-1.862,0.702,73.333,857567.000,1.000
-5.751,-14.336,-4.878,0.124,1.362,6.758,-1.163,7.406,-0.052,0.994,-0.058,-1.068,-1.984,0.580,73.333,857568.000,1.000
-7.917,-19.666,-8.218,-2.789,-3.269,-4.236,-13.806,3.753,-0.050,0.992,-0.059,-1.099,-1.953,0.580,73.333,857569.000,1.000
-8.911,-22.941,-10.117,-4.611,-4.809,-9.748,-16.746,3.063,-0.051,0.993,-0.059,-1.038,-1.984,0.580,73.333,857570.000,1.000
-8.134,-22.635,-9.462,-4.507,-1.844,-6.102,-7.681,6.215,-0.051,0.993,-0.058,-0.946,-2.075,0.519,73.333,857571.000,1.000
-6.058,-19.261,-6.574,-2.842,4.083,4.452,8.222,11.325,-0.050,0.992,-0.056,-0.854,-2.014,0.458,73.333,857572.000,1.000
-4.037,-14.959,-3.029,-0.906,9.491,15.473,21.802,14.926,-0.051,0.991,-0.058,-0.885,-2.045,0.519,73.333,857573.000,1.000
-3.443,-12.013,-0.629,0.098,11.472,21.098,26.324,14.636,-0.050,0.991,-0.060,-0.854,-2.167,0.427,73.333,857574.000,1.000
-4.754,-11.554,-0.245,-0.179,9.388,19.565,20.945,10.582,-0.049,0.991,-0.063,-0.854,-2.045,0.397,73.333,857575.000,1.000
-7.306,-13.293,-1.569,-1.261,4.607,12.756,9.051,4.664,-0.050,0.991,-0.059,-0.824,-2.045,0.275,73.333,857576.000,1.000
-9.763,-15.823,-3.335,-2.151,-0.489,4.172,-4.218,-0.452,-0.049,0.990,-0.063,-0.702,-2.075,0.336,73.333,857577.000,1.000
-10.992,-17.416,-4.213,-1.911,-3.615,-2.432,-13.584,-2.553,-0.050,0.991,-0.063,-0.641,-2.014,0.305,73.333,857578.000,1.000
-10.743,-17.166,-3.818,-0.414,-3.892,-4.589,-15.830,-1.513,-0.047,0.990,-0.061,-0.580,-1.953,0.336,73.333,857579.000,1.000
-9.580,-15.418,-2.713,1.631,-2.175,-2.547,-11.407,0.773,-0.049,0.991,-0.060,-0.549,-1.984,0.183,73.333,857580.000,1.000
-8.231,-13.136,-1.700,3.373,0.014,1.234,-3.582,2.417,-0.050,0.992,-0.059,-0.519,-2.075,0.153,73.333,857581.000,1.000
-7.027,-11.076,-1.070,4.406,1.727,4.462,4.385,2.955,-0.051,0.993,-0.060,-0.549,-2.106,0.214,73.333,857582.000,1.000
-5.782,-9.359,-0.556,4.877,3.012,6.927,11.219,3.019,-0.050,0.994,-0.061,-0.641,-2.075,0.214,73.333,857583.000,1.000
-4.120,-7.624,0.309,5.289,4.398,9.709,17.032,3.396,-0.049,0.996,-0.062,-0.671,-2.014,0.244,73.333,857584.000,1.000
-1.961,-5.676,1.682,6.008,5.896,12.514,21.179,4.283,-0.048,0.996,-0.063,-0.702,-2.075,0.275,73.333,857585.000,1.000
0.252,-3.964,2.944,6.854,6.596,12.863,21.480,5.073,-0.050,0.997,-0.062,-0.824,-2.045,0.305,73.333,857586.000,1.000
1.889,-3.217,3.215,7.262,5.465,8.688,16.223,4.839,-0.048,0.999,-0.060,-1.129,-1.984,0.305,73.333,857587.000,1.000
2.699,-3.581,2.187,6.830,2.469,1.094,6.594,3.078,-0.049,0.997,-0.060,-1.099,-1.923,0.214,73.333,857588.000,1.000
3.083,-4.260,0.527,5.762,-1.086,-6.015,-3.096,0.431,-0.049,0.997,-0.062,-1.251,-1.923,0.397,73.333,857589.000,1.000
3.823,-4.031,-0.460,4.822,-3.246,-8.815,-7.915,-1.353,-0.050,0.998,-0.064,-1.251,-1.953,0.458,73.333,857590.000,1.000
5.412,-2.192,0.070,4.619,-2.767,-6.212,-5.823,-0.863,-0.049,0.999,-0.068,-1.312,-1.953,0.488,73.333,857591.000,1.000
7.628,0.942,1.925,4.991,-0.002,-0.092,1.148,1.575,-0.048,0.997,-0.065,-1.526,-1.892,0.488,73.333,857592.000,1.000
9.830,4.452,4.187,5.306,3.614,6.670,9.012,4.361,-0.049,0.999,-0.063,-1.617,-1.953,0.519,73.333,857593.000,1.000
11.517,7.473,5.968,5.212,6.676,11.888,14.629,6.160,-0.048,0.998,-0.063,-1.770,-1.984,0.519,73.333,857594.000,1.000
12.350,9.265,6.709,4.645,8.098,13.844,16.429,6.326,-0.049,0.998,-0.061,-1.923,-1.801,0.580,73.333,857595.000,1.000
11.914,9.069,5.899,3.287,6.917,10.949,13.766,4.253,-0.048,0.997,-0.061,-2.106,-1.801,0.488,73.333,857596.000,1.000
9.957,6.563,3.375,0.744,2.780,3.024,6.970,-0.471,-0.048,0.997,-0.059,-2.319,-1.770,0.549,73.333,857597.000,1.000
6.997,2.634,-0.116,-2.574,-3.136,-7.142,-2.130,-6.901,-0.049,0.995,-0.059,-2.258,-1.740,0.519,73.333,857598.000,1.000
4.293,-0.818,-2.912,-5.222,-8.272,-14.889,-10.357,-12.345,-0.050,0.996,-0.059,-2.319,-1.617,0.519,73.333,857599.000,1.000
2.892,-2.325,-3.500,-5.769,-10.373,-17.306,-14.756,-13.920,-0.049,0.996,-0.062,-2.258,-1.495,0.519,73.333,857600.000,1.000
2.817,-1.936,-1.838,-4.014,-9.086,-15.264,-14.545,-10.718,-0.049,0.993,-0.061,-2.502,-1.404,0.641,73.333,857601.000,1.000
3.274,-0.859,0.745,-1.106,-5.960,-11.686,-11.164,-4.490,-0.050,0.995,-0.058,-2.380,-1.373,0.580,73.333,857602.000,1.000
3.392,-0.360,2.564,1.247,-3.166,-8.628,-6.670,1.395,-0.048,0.993,-0.060,-2.502,-1.282,0.610,73.333,857603.000,1.000
2.784,-0.865,2.662,1.793,-2.052,-5.925,-2.149,3.793,-0.050,0.992,-0.059,-2.441,-1.251,0.610,73.333,857604.000,1.000
1.621,-1.866,1.223,0.341,-2.658,-2.449,2.005,1.511,-0.048,0.993,-0.059,-2.441,-1.221,0.610,73.333,857605.000,1.000
0.365,-2.679,-0.996,-2.315,-4.316,1.281,4.545,-3.962,-0.048,0.992,-0.058,-2.350,-1.068,0.610,73.333,857606.000,1.000
-0.516,-3.064,-3.115,-4.908,-6.230,2.828,4.033,-9.326,-0.050,0.995,-0.058,-2.319,-1.038,0.610,73.333,857607.000,1.000
-0.776,-3.089,-4.446,-6.392,-7.587,0.670,1.024,-11.722,-0.051,0.993,-0.058,-2.319,-1.068,0.610,73.333,857608.000,1.000
-0.480,-2.676,-4.624,-6.390,-7.619,-3.606,-1.840,-10.379,-0.051,0.994,-0.060,-2.289,-1.068,0.732,73.333,857609.000,1.000
0.099,-1.559,-3.657,-5.244,-6.017,-6.296,-2.128,-6.675,-0.051,0.993,-0.057,-2.228,-1.007,0.732,73.333,857610.000,1.000
0.620,0.209,-2.144,-3.914,-3.515,-4.815,0.156,-3.352,-0.052,0.992,-0.055,-2.136,-1.007,0.671,73.333,857611.000,1.000
0.858,2.034,-0.866,-3.405,-1.593,0.027,2.835,-2.749,-0.054,0.993,-0.056,-2.136,-0.854,0.671,73.333,857612.000,1.000
0.820,3.245,-0.206,-3.948,-1.165,5.207,4.056,-4.862,-0.053,0.993,-0.056,-1.953,-0.885,0.763,73.333,857613.000,1.000
0.674,3.690,0.042,-4.840,-1.723,8.636,4.262,-7.366,-0.052,0.995,-0.054,-2.075,-0.916,0.793,73.333,857614.000,1.000
0.603,3.774,0.375,-5.055,-1.908,10.497,5.253,-7.680,-0.051,0.994,-0.055,-1.984,-0.916,0.732,73.333,857615.000,1.000
0.643,3.959,0.947,-4.072,-0.917,11.641,7.444,-5.115,-0.052,0.993,-0.055,-1.923,-0.946,0.793,73.333,857616.000,1.000
0.651,4.349,1.534,-2.190,0.711,11.683,8.885,-1.236,-0.052,0.994,-0.054,-1.831,-0.885,0.854,73.333,857617.000,1.000
0.608,4.872,1.912,-0.058,1.854,9.360,7.209,1.837,-0.052,0.994,-0.055,-2.014,-1.068,0.793,73.333,857618.000,1.000
0.843,5.617,2.215,1.943,2.061,4.538,2.317,3.259,-0.051,0.997,-0.054,-1.984,-1.129,0.824,73.333,857619.000,1.000
1.691,6.644,2.742,3.582,1.624,-0.791,-3.495,3.160,-0.052,0.995,-0.053,-1.923,-1.190,0.854,73.333,857620.000,1.000
3.061,7.702,3.442,4.461,0.978,-3.702,-7.441,1.573,-0.053,0.995,-0.055,-1.862,-1.343,0.977,73.333,857621.000,1.000
4.575,8.517,4.184,4.414,0.671,-2.331,-7.424,-1.091,-0.054,0.993,-0.054,-1.770,-1.343,0.977,73.333,857622.000,1.000
5.862,8.974,4.863,3.750,1.081,2.395,-3.611,-3.619,-0.052,0.996,-0.055,-1.801,-1.373,0.977,73.333,857623.000,1.000
6.623,8.826,5.137,2.795,1.645,6.556,0.378,-5.046,-0.051,0.996,-0.059,-1.770,-1.465,1.007,73.333,857624.000,1.000
6.814,7.908,4.775,1.740,1.355,6.464,0.499,-5.364,-0.051,0.996,-0.055,-1.740,-1.526,0.946,73.333,857625.000,1.000
6.876,6.782,4.183,0.983,0.201,2.551,-3.326,-4.977,-0.051,0.996,-0.056,-1.526,-1.404,1.007,73.333,857626.000,1.000
7.483,6.418,4.272,1.130,-0.678,-1.316,-7.472,-4.041,-0.053,0.995,-0.052,-1.587,-1.404,0.916,73.333,857627.000,1.000
8.978,7.105,5.479,2.431,-0.242,-2.070,-8.577,-2.512,-0.054,0.997,-0.055,-1.495,-1.373,0.885,73.333,857628.000,1.000
11.217,8.205,7.480,4.574,1.654,0.242,-5.872,-0.391,-0.052,0.997,-0.057,-1.343,-1.465,0.916,73.333,857629.000,1.000
13.868,8.989,9.896,7.168,4.662,3.899,-0.242,2.548,-0.052,0.997,-0.055,-1.373,-1.495,0.977,73.333,857630.000,1.000
16.550,9.147,12.494,9.960,8.400,7.717,7.184,6.696,-0.053,0.997,-0.056,-1.343,-1.526,0.977,73.333,857631.000,1.000
18.656,8.407,14.789,12.347,12.002,10.937,14.584,11.365,-0.052,0.997,-0.056,-1.312,-1.526,1.068,73.333,857632.000,1.000
19.407,6.287,15.798,13.159,13.797,11.993,18.644,14.059,-0.052,0.997,-0.055,-1.282,-1.526,1.038,73.333,857633.000,1.000
18.404,2.634,14.683,11.432,12.259,9.147,16.129,11.898,-0.051,0.995,-0.055,-1.190,-1.556,1.068,73.333,857634.000,1.000
16.068,-1.861,11.598,7.381,7.400,2.506,6.760,4.075,-0.051,0.996,-0.056,-1.251,-1.617,1.099,73.333,857635.000,1.000
13.436,-5.858,7.661,2.565,1.245,-5.154,-5.448,-6.701,-0.051,0.997,-0.057,-1.160,-1.617,1.099,73.333,857636.000,1.000
11.534,-8.070,4.414,-0.935,-3.238,-9.817,-14.214,-15.312,-0.049,0.995,-0.053,-1.038,-1.526,1.099,73.333,857637.000,1.000
10.795,-8.028,2.827,-1.837,-4.174,-9.149,-15.812,-17.774,-0.049,0.995,-0.055,-0.977,-1.556,1.068,73.333,857638.000,1.000
10.980,-6.292,2.822,-0.361,-1.917,-4.205,-11.713,-13.984,-0.050,0.995,-0.056,-1.007,-1.617,1.099,73.333,857639.000,1.000
11.550,-3.948,3.712,2.270,1.659,1.703,-6.360,-7.054,-0.049,0.995,-0.056,-1.007,-1.740,1.068,73.333,857640.000,1.000
12.025,-1.991,4.643,4.795,4.611,5.388,-3.332,-0.605,-0.050,0.995,-0.055,-0.946,-1.617,1.068,73.333,857641.000,1.000
12.114,-0.854,5.078,6.543,5.966,5.574,-3.159,3.312,-0.049,0.995,-0.053,-0.946,-1.648,0.946,73.333,857642.000,1.000
11.748,-0.249,4.922,7.494,5.901,3.277,-4.079,4.687,-0.047,0.994,-0.058,-0.885,-1.617,0.977,73.333,857643.000,1.000
11.020,0.488,4.393,7.917,5.200,0.676,-4.325,4.762,-0.051,0.993,-0.056,-0.885,-1.648,1.007,73.333,857644.000,1.000
10.127,1.954,3.887,7.996,4.606,-0.413,-3.331,4.638,-0.050,0.993,-0.058,-0.702,-1.709,0.977,73.333,857645.000,1.000
9.251,4.339,3.613,7.683,4.455,0.446,-1.617,4.418,-0.050,0.993,-0.056,-0.702,-1.740,0.793,73.333,857646.000,1.000
8.387,7.142,3.482,6.875,4.567,2.031,-0.317,3.723,-0.050,0.990,-0.060,-0.641,-1.648,0.854,73.333,857647.000,1.000
7.306,9.208,3.089,5.612,4.414,2.187,-0.631,2.606,-0.052,0.992,-0.057,-0.610,-1.709,0.824,73.333,857648.000,1.000
5.723,9.399,1.954,4.025,3.510,-0.693,-3.016,1.578,-0.051,0.995,-0.055,-0.549,-1.678,0.763,73.333,857649.000,1.000
3.600,7.566,0.055,2.271,1.890,-6.152,-6.475,1.028,-0.049,0.994,-0.056,-0.580,-1.678,0.763,73.333,857650.000,1.000
1.377,5.033,-1.955,0.749,0.405,-11.357,-8.900,1.088,-0.048,0.995,-0.057,-0.458,-1.678,0.732,73.333,857651.000,1.000
-0.076,3.995,-2.874,0.235,0.397,-12.748,-8.235,2.049,-0.049,0.995,-0.059,-0.336,-1.648,0.793,73.333,857652.000,1.000
-0.004,6.044,-1.843,1.343,2.744,-8.406,-3.610,4.286,-0.051,0.996,-0.060,-0.458,-1.617,0.702,73.333,857653.000,1.000
1.605,10.953,0.859,3.779,6.942,0.514,3.976,7.501,-0.050,0.996,-0.059,-0.488,-1.678,0.671,73.333,857654.000,1.000
3.891,16.685,3.898,6.274,11.008,9.916,11.457,10.241,-0.052,0.997,-0.055,-0.305,-1.709,0.641,73.333,857655.000,1.000
5.557,20.647,5.537,7.241,12.565,14.864,14.775,10.587,-0.051,0.995,-0.054,-0.580,-1.740,0.610,73.333,857656.000,1.000
5.545,21.327,4.760,5.727,10.499,12.990,11.640,7.661,-0.051,0.998,-0.054,-0.580,-1.770,0.641,73.333,857657.000,1.000
3.607,19.079,1.819,1.986,5.713,6.190,3.536,2.301,-0.050,0.997,-0.058,-0.641,-1.923,0.580,73.333,857658.000,1.000
0.371,15.533,-2.030,-2.654,0.397,-1.309,-5.093,-3.418,-0.051,0.996,-0.060,-0.580,-1.892,0.641,73.333,857659.000,1.000
-3.038,12.416,-5.256,-6.451,-3.323,-6.120,-9.733,-7.059,-0.049,0.996,-0.059,-0.671,-1.831,0.549,73.333,857660.000,1.000
-5.520,10.706,-6.954,-8.160,-4.464,-7.181,-8.763,-7.201,-0.049,0.996,-0.058,-0.702,-1.831,0.610,73.333,857661.000,1.000
-6.501,10.379,-7.182,-7.727,-3.627,-5.559,-4.389,-4.682,-0.051,0.995,-0.058,-0.702,-1.801,0.580,73.333,857662.000,1.000
-6.209,10.690,-6.887,-6.278,-2.487,-3.457,-1.011,-2.176,-0.052,0.995,-0.059,-0.824,-1.801,0.458,73.333,857663.000,1.000
-5.457,10.756,-7.278,-5.317,-2.643,-3.034,-2.287,-2.141,-0.051,0.993,-0.057,-0.885,-1.801,0.397,73.333,857664.000,1.000
-5.019,10.126,-8.871,-5.688,-4.570,-5.328,-8.733,-4.965,-0.051,0.993,-0.059,-0.946,-1.862,0.397,73.333,857665.000,1.000
-4.977,9.187,-10.947,-6.939,-7.149,-9.320,-17.109,-8.663,-0.052,0.993,-0.056,-0.885,-1.801,0.488,73.333,857666.000,1.000
-4.669,9.018,-11.764,-7.610,-8.340,-12.321,-22.513,-10.443,-0.051,0.992,-0.056,-0.946,-1.892,0.458,73.333,857667.000,1.000
-3.543,10.401,-10.039,-6.504,-6.814,-12.057,-22.132,-8.987,-0.052,0.994,-0.060,-0.977,-1.831,0.488,73.333,857668.000,1.000
-1.986,12.961,-6.167,-3.725,-2.926,-8.176,-16.515,-5.062,-0.051,0.994,-0.059,-1.038,-1.923,0.427,73.333,857669.000,1.000
-1.076,15.466,-1.804,-0.460,1.872,-1.909,-7.704,-0.243,-0.051,0.994,-0.061,-0.946,-1.862,0.488,73.333,857670.000,1.000
-1.628,16.770,1.282,1.950,6.071,4.816,2.197,4.067,-0.050,0.994,-0.060,-0.946,-1.862,0.458,73.333,857671.000,1.000
-3.602,16.341,2.179,2.677,8.558,10.027,10.943,6.587,-0.051,0.993,-0.063,-1.007,-1.862,0.488,73.333,857672.000,1.000
-6.274,14.163,0.908,1.571,8.697,12.155,15.958,6.357,-0.049,0.995,-0.056,-1.038,-1.953,0.458,73.333,857673.000,1.000
-8.804,10.534,-1.874,-0.899,6.482,10.309,15.281,3.607,-0.050,0.995,-0.056,-1.068,-1.831,0.488,73.333,857674.000,1.000
-10.680,6.010,-5.163,-3.894,2.626,4.726,9.095,-0.187,-0.052,0.995,-0.057,-1.129,-1.770,0.427,73.333,857675.000,1.000
-11.850,1.281,-8.148,-6.737,-1.813,-2.946,-0.247,-3.612,-0.049,0.995,-0.058,-1.190,-1.770,0.336,73.333,857676.000,1.000
-12.636,-3.154,-10.467,-9.284,-6.053,-10.518,-9.774,-6.250,-0.051,0.994,-0.059,-1.251,-1.892,0.458,73.333,857677.000,1.000
-13.528,-7.073,-12.251,-11.760,-9.753,-16.443,-17.158,-8.326,-0.049,0.996,-0.058,-1.312,-1.831,0.458,73.333,857678.000,1.000
-14.746,-10.144,-13.657,-14.182,-12.552,-19.732,-20.716,-9.965,-0.051,0.995,-0.057,-1.282,-1.862,0.458,73.333,857679.000,1.000
-16.029,-11.862,-14.487,-16.145,-13.939,-19.564,-19.694,-11.104,-0.049,0.997,-0.056,-1.343,-1.801,0.458,73.333,857680.000,1.000
-16.976,-12.106,-14.598,-17.203,-13.712,-15.916,-14.951,-11.710,-0.049,0.999,-0.056,-1.434,-1.709,0.488,73.333,857681.000,1.000
-17.370,-11.332,-14.001,-17.048,-12.157,-10.216,-8.397,-11.508,-0.050,0.996,-0.056,-1.526,-1.617,0.671,73.333,857682.000,1.000
-17.134,-10.117,-12.740,-15.425,-9.792,-4.923,-2.161,-9.924,-0.050,0.997,-0.057,-1.495,-1.678,0.641,73.333,857683.000,1.000
-16.341,-8.946,-10.985,-12.396,-7.405,-2.730,1.355,-6.917,-0.051,0.999,-0.057,-1.617,-1.617,0.671,73.333,857684.000,1.000
-15.298,-8.298,-9.175,-8.693,-6.087,-5.580,-0.143,-3.652,-0.050,0.997,-0.058,-1.648,-1.617,0.732,73.333,857685.000,1.000
-14.345,-8.376,-7.877,-5.474,-6.555,-13.011,-7.045,-1.824,-0.051,0.995,-0.058,-1.648,-1.617,0.793,73.333,857686.000,1.000
-13.494,-8.740,-7.171,-3.533,-8.326,-21.300,-16.148,-2.333,-0.048,0.995,-0.054,-1.648,-1.587,0.793,73.333,857687.000,1.000
-12.414,-8.506,-6.586,-2.842,-9.761,-25.076,-21.580,-4.660,-0.052,0.996,-0.055,-1.709,-1.587,0.824,73.333,857688.000,1.000
-10.676,-6.926,-5.452,-2.663,-9.011,-20.513,-18.540,-7.082,-0.052,0.997,-0.052,-1.831,-1.465,0.854,73.333,857689.000,1.000
-8.112,-4.036,-3.370,-2.155,-5.483,-8.507,-7.606,-7.709,-0.053,0.997,-0.052,-1.831,-1.617,0.793,73.333,857690.000,1.000
-5.126,-0.921,-0.790,-1.113,-0.676,4.786,4.777,-5.949,-0.054,0.996,-0.055,-1.923,-1.648,0.732,73.333,857691.000,1.000
-2.485,1.058,1.390,0.012,2.909,12.059,11.421,-2.874,-0.054,0.996,-0.053,-1.831,-1.709,0.702,73.333,857692.000,1.000
-0.727,1.310,2.565,0.684,3.703,10.103,9.416,-0.303,-0.055,0.999,-0.056,-1.801,-1.648,0.763,73.333,857693.000,1.000
0.161,0.248,2.727,0.686,1.842,1.249,0.730,0.255,-0.055,0.999,-0.057,-1.984,-1.709,0.671,73.333,857694.000,1.000
0.650,-1.094,2.455,0.265,-1.184,-8.767,-9.666,-1.580,-0.053,0.997,-0.057,-2.045,-1.740,0.702,73.333,857695.000,1.000
1.412,-1.540,2.566,0.031,-3.363,-14.262,-16.449,-4.746,-0.054,0.997,-0.055,-2.014,-1.678,0.671,73.333,857696.000,1.000
2.946,-0.389,3.727,0.478,-3.328,-12.953,-16.796,-7.380,-0.052,0.996,-0.055,-1.862,-1.678,0.763,73.333,857697.000,1.000
5.155,2.086,5.840,1.413,-1.210,-7.021,-11.707,-8.160,-0.052,0.997,-0.055,-1.953,-1.740,0.793,73.333,857698.000,1.000
7.384,4.974,8.106,2.100,1.811,-0.436,-4.085,-6.937,-0.050,1.000,-0.054,-2.014,-1.831,0.732,73.333,857699.000,1.000
8.997,7.636,9.893,2.108,4.766,4.671,3.981,-4.118,-0.050,1.000,-0.053,-1.862,-1.740,0.732,73.333,857700.000,1.000
9.686,9.902,10.991,1.607,7.249,8.336,11.125,-0.162,-0.049,0.996,-0.053,-1.923,-1.648,0.824,73.333,857701.000,1.000
9.254,11.485,11.278,0.836,8.728,10.533,15.367,4.024,-0.049,0.996,-0.054,-1.953,-1.648,0.824,73.333,857702.000,1.000
7.554,11.811,10.454,-0.308,8.385,10.436,14.754,6.853,-0.050,0.997,-0.055,-1.923,-1.740,0.885,73.333,857703.000,1.000
4.843,10.659,8.503,-1.861,5.963,7.861,9.566,7.051,-0.049,0.997,-0.055,-1.770,-1.648,0.824,73.333,857704.000,1.000
1.896,8.618,6.132,-3.274,2.324,4.053,2.766,4.860,-0.050,0.995,-0.051,-1.770,-1.495,0.916,73.333,857705.000,1.000
-0.435,6.720,4.263,-3.600,-1.076,0.655,-2.281,1.957,-0.049,0.996,-0.052,-1.740,-1.465,0.824,73.333,857706.000,1.000
-1.640,5.819,3.588,-2.061,-2.975,-1.232,-3.671,0.454,-0.051,0.997,-0.053,-1.740,-1.495,0.885,73.333,857707.000,1.000
-1.495,6.410,4.431,1.593,-2.596,-0.821,-0.845,1.851,-0.050,0.996,-0.054,-1.770,-1.526,0.854,73.333,857708.000,1.000
0.117,8.599,6.815,7.005,0.245,2.511,6.085,6.361,-0.051,0.996,-0.052,-1.740,-1.343,0.793,73.333,857709.000,1.000
2.986,11.845,10.375,13.154,4.831,8.445,15.844,12.659,-0.051,0.999,-0.054,-1.770,-1.343,0.763,73.333,857710.000,1.000
6.279,14.928,14.116,18.455,9.529,15.270,25.471,18.338,-0.051,0.997,-0.055,-1.678,-1.312,0.732,73.333,857711.000,1.000
8.856,16.613,16.998,21.463,12.654,20.732,31.877,21.280,-0.051,0.997,-0.054,-1.770,-1.282,0.824,73.333,857712.000,1.000
9.869,16.293,18.412,21.602,13.345,22.946,33.361,20.856,-0.051,0.996,-0.054,-1.740,-1.190,0.732,73.333,857713.000,1.000
9.021,14.056,18.136,19.235,11.584,20.707,29.330,17.860,-0.051,0.996,-0.049,-1.709,-1.251,0.763,73.333,857714.000,1.000
6.633,10.561,16.323,15.287,7.877,14.020,20.112,13.470,-0.053,0.995,-0.052,-1.770,-1.160,0.793,73.333,857715.000,1.000
3.634,6.838,13.484,10.857,3.075,4.464,7.447,8.426,-0.055,0.991,-0.051,-1.648,-1.129,0.732,73.333,857716.000,1.000
1.249,3.906,10.523,6.962,-1.770,-5.449,-5.581,3.209,-0.056,0.990,-0.051,-1.556,-1.190,0.702,73.333,857717.000,1.000
0.461,2.424,8.385,4.345,-5.593,-13.125,-15.573,-1.444,-0.053,0.989,-0.053,-1.495,-1.129,0.671,73.333,857718.000,1.000
1.668,2.677,7.740,3.367,-7.455,-16.432,-19.952,-4.506,-0.053,0.989,-0.051,-1.343,-1.221,0.763,73.333,857719.000,1.000
4.615,4.519,8.806,3.933,-6.881,-14.624,-18.121,-5.211,-0.053,0.989,-0.050,-1.190,-1.343,0.763,73.333,857720.000,1.000
8.385,7.139,11.013,5.410,-4.259,-8.943,-11.983,-3.666,-0.051,0.990,-0.052,-1.099,-1.312,0.793,73.333,857721.000,1.000
11.671,9.234,13.310,6.864,-0.738,-1.833,-4.718,-0.846,-0.052,0.992,-0.052,-1.038,-1.312,0.824,73.333,857722.000,1.000
13.388,9.623,14.668,7.423,2.253,4.035,0.624,1.765,-0.052,0.993,-0.054,-1.007,-1.251,0.885,73.333,857723.000,1.000
13.164,7.809,14.558,6.608,3.602,6.556,2.262,2.810,-0.054,0.993,-0.052,-0.946,-1.251,0.793,73.333,857724.000,1.000
11.436,4.249,13.311,4.628,3.170,5.565,0.954,1.999,-0.055,0.996,-0.052,-0.946,-1.251,0.793,73.333,857725.000,1.000
9.094,0.081,11.720,2.236,1.770,2.973,-0.808,0.209,-0.056,0.997,-0.055,-0.885,-1.160,0.793,73.333,857726.000,1.000
6.947,-3.569,10.472,0.225,0.333,0.908,-1.409,-1.509,-0.055,0.997,-0.056,-0.916,-1.160,0.702,73.333,857727.000,1.000
5.398,-6.050,9.772,-0.837,-0.566,0.402,-0.992,-2.582,-0.055,0.998,-0.054,-0.885,-1.282,0.793,73.333,857728.000,1.000
4.409,-7.267,9.442,-0.560,-0.592,1.412,-0.194,-2.670,-0.054,0.997,-0.056,-0.946,-1.312,0.671,73.333,857729.000,1.000
3.587,-7.696,9.079,1.054,0.225,2.905,0.410,-1.774,-0.053,0.996,-0.054,-1.068,-1.373,0.580,73.333,857730.000,1.000
2.453,-8.107,8.147,3.340,1.290,3.294,-0.025,-0.688,-0.050,0.996,-0.053,-1.251,-1.465,0.580,73.333,857731.000,1.000
0.974,-8.812,6.667,5.431,1.990,1.957,-1.742,-0.304,-0.047,0.995,-0.053,-1.221,-1.312,0.732,73.333,857732.000,1.000
-0.268,-9.274,5.387,6.916,2.411,0.307,-3.317,-0.374,-0.047,0.993,-0.053,-1.251,-1.343,0.854,73.333,857733.000,1.000
-0.614,-8.760,5.048,7.838,3.086,0.442,-2.767,0.377,-0.046,0.993,-0.052,-1.221,-1.221,0.854,73.333,857734.000,1.000
0.030,-7.384,5.578,8.190,3.964,2.510,-0.163,2.551,-0.045,0.992,-0.052,-1.190,-1.221,1.007,73.333,857735.000,1.000
1.110,-6.277,5.953,7.631,4.091,4.227,1.911,4.878,-0.044,0.990,-0.052,-1.129,-1.129,1.007,73.333,857736.000,1.000
1.921,-6.648,5.170,5.887,2.580,3.359,1.155,5.317,-0.047,0.989,-0.052,-1.129,-0.946,1.099,73.333,857737.000,1.000
2.126,-8.877,3.008,3.220,-0.496,-0.340,-2.518,2.995,-0.046,0.992,-0.054,-0.916,-0.793,1.282,73.333,857738.000,1.000
1.903,-12.327,0.070,0.334,-4.279,-5.728,-7.780,-1.285,-0.047,0.995,-0.055,-0.946,-0.854,1.373,73.333,857739.000,1.000
1.786,-15.632,-2.532,-2.024,-7.576,-11.007,-12.598,-5.760,-0.048,0.997,-0.056,-1.099,-0.732,1.648,73.333,857740.000,1.000
2.373,-17.267,-3.818,-3.266,-8.987,-13.396,-13.979,-8.463,-0.047,0.997,-0.056,-1.099,-0.763,1.740,73.333,857741.000,1.000
4.003,-16.357,-3.349,-3.037,-7.447,-10.286,-9.378,-7.917,-0.046,0.997,-0.056,-1.038,-0.671,1.801,73.333,857742.000,1.000
6.470,-13.404,-1.584,-1.559,-3.426,-2.426,-0.200,-4.263,-0.046,0.997,-0.058,-1.099,-0.549,1.984,73.333,857743.000,1.000
9.078,-10.130,0.344,0.177,0.767,5.408,7.815,0.184,-0.048,0.997,-0.056,-1.221,-0.610,1.953,73.333,857744.000,1.000
11.124,-8.209,1.554,1.011,2.679,8.547,9.555,2.319,-0.052,0.997,-0.053,-1.129,-0.610,1.953,73.333,857745.000,1.000
12.276,-8.108,1.916,0.457,1.638,6.398,4.921,0.594,-0.057,0.998,-0.051,-1.129,-0.610,1.831,73.333,857746.000,1.000
12.512,-9.117,1.944,-1.058,-1.094,1.779,-2.012,-3.888,-0.061,0.999,-0.049,-1.221,-0.671,1.648,73.333,857747.000,1.000
11.980,-10.123,2.157,-2.663,-3.594,-1.935,-6.713,-8.559,-0.060,0.997,-0.051,-1.343,-0.885,1.465,73.333,857748.000,1.000
10.980,-10.235,2.770,-3.637,-4.484,-2.448,-6.651,-11.374,-0.062,0.998,-0.047,-1.465,-1.068,1.190,73.333,857749.000,1.000
9.904,-9.114,3.841,-3.661,-3.417,0.602,-1.989,-11.506,-0.060,0.999,-0.051,-1.526,-1.343,0.824,73.333,857750.000,1.000
8.999,-7.106,5.100,-2.822,-0.987,5.190,4.707,-8.911,-0.058,0.999,-0.051,-1.617,-1.465,0.610,73.333,857751.000,1.000
8.209,-4.999,6.003,-1.504,1.712,8.323,10.004,-4.289,-0.057,1.002,-0.050,-1.617,-1.526,0.549,73.333,857752.000,1.000
7.275,-3.509,6.023,-0.193,3.637,8.492,11.528,0.567,-0.055,1.000,-0.052,-1.770,-1.617,0.397,73.333,857753.000,1.000
5.922,-2.993,5.044,0.773,4.278,6.430,9.192,3.590,-0.053,1.002,-0.052,-1.862,-1.648,0.183,73.333,857754.000,1.000
3.977,-3.534,3.466,1.330,3.832,3.891,5.054,4.127,-0.052,1.005,-0.054,-1.892,-1.740,0.092,73.333,857755.000,1.000
1.481,-5.052,1.781,1.560,2.879,2.181,1.674,3.210,-0.048,1.005,-0.052,-2.014,-1.770,0.031,73.333,857756.000,1.000
-1.218,-7.244,0.379,1.480,1.798,1.517,0.253,2.017,-0.046,1.004,-0.052,-2.014,-1.770,0.061,73.333,857757.000,1.000
-3.624,-9.675,-0.653,0.942,0.458,1.105,-0.096,0.605,-0.043,1.001,-0.050,-2.045,-1.678,0.153,73.333,857758.000,1.000
-5.352,-12.039,-1.531,-0.193,-1.495,-0.340,-1.210,-1.593,-0.044,0.999,-0.049,-2.045,-1.556,0.244,73.333,857759.000,1.000
-6.091,-14.053,-2.357,-1.665,-3.908,-3.331,-3.778,-4.417,-0.045,0.997,-0.049,-2.167,-1.404,0.427,73.333,857760.000,1.000
-5.467,-15.117,-2.869,-2.675,-5.718,-6.443,-6.278,-6.579,-0.042,0.996,-0.053,-2.045,-1.251,0.519,73.333,857761.000,1.000
-3.323,-14.564,-2.575,-2.392,-5.624,-7.281,-6.197,-6.681,-0.043,0.995,-0.052,-1.923,-1.007,0.641,73.333,857762.000,1.000
-0.185,-12.459,-1.432,-0.750,-3.431,-5.159,-2.845,-4.685,-0.044,0.994,-0.050,-1.923,-1.099,0.885,73.333,857763.000,1.000
2.797,-9.807,-0.131,1.364,-0.458,-1.943,1.591,-2.163,-0.047,0.991,-0.049,-1.923,-0.977,1.007,73.333,857764.000,1.000
4.516,-7.726,0.461,2.770,1.635,0.157,4.207,-0.881,-0.047,0.991,-0.050,-1.678,-0.824,1.007,73.333,857765.000,1.000
4.581,-6.581,-0.107,2.792,2.169,0.620,3.807,-1.291,-0.051,0.992,-0.049,-1.556,-0.732,0.977,73.333,857766.000,1.000
3.435,-5.982,-1.502,1.588,1.580,0.068,1.197,-2.357,-0.052,0.993,-0.053,-1.617,-0.763,1.068,73.333,857767.000,1.000
1.904,-5.388,-2.972,-0.158,0.766,-0.906,-1.772,-2.576,-0.054,0.991,-0.046,-1.648,-0.885,1.221,73.333,857768.000,1.000
0.687,-4.475,-3.852,-1.729,0.525,-1.664,-3.086,-1.176,-0.052,0.993,-0.045,-1.465,-0.854,1.190,73.333,857769.000,1.000
0.148,-3.111,-3.756,-2.608,1.187,-1.602,-1.743,1.427,-0.053,0.992,-0.048,-1.251,-0.916,1.160,73.333,857770.000,1.000
0.303,-1.317,-2.796,-2.583,2.440,-0.958,1.319,4.005,-0.054,0.991,-0.045,-1.190,-1.068,1.068,73.333,857771.000,1.000
0.828,0.667,-1.443,-1.902,3.561,-0.620,4.106,5.196,-0.054,0.989,-0.046,-1.099,-1.099,1.099,73.333,857772.000,1.000
1.267,2.568,-0.257,-1.139,4.134,-0.497,5.674,4.390,-0.055,0.989,-0.047,-1.068,-1.160,1.099,73.333,857773.000,1.000
1.361,4.329,0.489,-0.672,4.550,1.205,7.216,2.377,-0.055,0.990,-0.045,-0.916,-1.251,1.038,73.333,857774.000,1.000
1.112,5.848,0.847,-0.493,5.329,5.770,10.011,0.563,-0.054,0.990,-0.045,-0.885,-1.312,0.916,73.333,857775.000,1.000
0.598,6.630,0.764,-0.470,6.170,11.613,12.769,-0.326,-0.056,0.992,-0.044,-0.763,-1.312,0.824,73.333,857776.000,1.000
-0.034,6.195,0.314,-0.334,6.476,15.719,13.138,-0.108,-0.052,0.994,-0.045,-0.732,-1.312,0.824,73.333,857777.000,1.000
-0.592,4.626,-0.153,0.379,6.408,16.726,11.068,1.523,-0.050,0.995,-0.047,-0.702,-1.404,0.732,73.333,857778.000,1.000
-1.138,2.344,-0.454,1.917,6.549,15.283,8.839,4.688,-0.049,0.993,-0.049,-0.702,-1.404,0.732,73.333,857779.000,1.000
-2.148,-0.418,-0.913,3.843,6.862,12.540,8.281,8.512,-0.050,0.994,-0.047,-0.732,-1.343,0.702,73.333,857780.000,1.000
-4.080,-3.511,-2.092,5.243,6.710,9.646,9.370,11.177,-0.049,0.994,-0.047,-0.732,-1.312,0.793,73.333,857781.000,1.000
-6.754,-6.406,-3.944,5.483,5.768,8.013,11.427,11.160,-0.048,0.992,-0.048,-0.580,-1.343,0.671,73.333,857782.000,1.000
-9.370,-8.316,-5.833,4.562,4.246,8.354,13.488,8.183,-0.048,0.994,-0.048,-0.549,-1.282,0.732,73.333,857783.000,1.000
-11.165,-9.020,-7.327,2.754,2.164,9.076,13.326,3.045,-0.048,0.995,-0.049,-0.397,-1.373,0.824,73.333,857784.000,1.000
-12.004,-9.309,-8.618,0.205,-0.877,7.086,8.647,-2.974,-0.045,0.993,-0.052,-0.458,-1.251,0.854,73.333,857785.000,1.000
-12.299,-10.261,-10.219,-2.965,-4.868,1.112,0.305,-8.364,-0.046,0.992,-0.053,-0.488,-1.129,0.916,73.333,857786.000,1.000
-12.421,-12.121,-12.144,-6.269,-8.855,-6.880,-7.599,-11.470,-0.044,0.994,-0.052,-0.305,-1.160,0.977,73.333,857787.000,1.000
-12.325,-14.058,-13.868,-8.935,-11.613,-13.848,-11.960,-11.275,-0.043,0.995,-0.049,-0.366,-1.038,1.099,73.333,857788.000,1.000
-11.744,-14.751,-14.805,-10.362,-12.429,-17.718,-13.017,-8.183,-0.043,0.995,-0.053,-0.275,-1.038,1.160,73.333,857789.000,1.000
-10.580,-13.102,-14.567,-10.384,-11.160,-17.500,-12.220,-3.606,-0.044,0.994,-0.052,-0.366,-0.885,1.190,73.333,857790.000,1.000
-9.135,-8.953,-13.318,-9.339,-8.295,-13.630,-10.355,0.948,-0.043,0.996,-0.050,-0.275,-0.732,1.251,73.333,857791.000,1.000
-7.995,-3.439,-11.744,-8.021,-5.166,-8.486,-8.078,4.040,-0.044,0.994,-0.053,-0.275,-0.732,1.190,73.333,857792.000,1.000
-7.610,1.605,-10.652,-7.320,-3.393,-4.963,-6.472,4.207,-0.046,0.996,-0.054,-0.305,-0.702,1.190,73.333,857793.000,1.000
-7.935,4.798,-10.315,-7.564,-3.666,-4.218,-6.226,0.884,-0.044,0.997,-0.051,-0.427,-0.519,1.251,73.333,857794.000,1.000
-8.425,5.970,-10.147,-8.119,-5.136,-5.149,-6.738,-4.501,-0.046,0.999,-0.051,-0.427,-0.519,1.190,73.333,857795.000,1.000
-8.362,6.090,-9.249,-7.782,-5.928,-5.342,-6.114,-8.893,-0.045,1.000,-0.053,-0.519,-0.427,1.190,73.333,857796.000,1.000
-7.309,6.515,-6.973,-5.670,-4.231,-2.130,-1.768,-9.165,-0.049,1.001,-0.054,-0.641,-0.397,1.068,73.333,857797.000,1.000
-5.394,8.031,-3.518,-2.055,0.448,5.799,7.526,-4.027,-0.049,1.001,-0.051,-0.732,-0.427,1.038,73.333,857798.000,1.000
-3.270,10.268,-0.088,1.510,6.388,16.201,18.972,4.580,-0.051,1.003,-0.054,-0.885,-0.458,0.916,73.333,857799.000,1.000
-1.808,11.944,1.724,3.061,10.267,23.388,26.298,12.044,-0.051,1.002,-0.053,-0.854,-0.610,0.763,73.333,857800.000,1.000
-1.706,11.760,0.745,1.461,9.318,22.154,24.025,13.791,-0.052,1.002,-0.049,-0.946,-0.671,0.854,73.333,857801.000,1.000
-3.261,9.206,-3.135,-2.958,3.156,11.797,11.392,8.199,-0.052,1.000,-0.051,-1.129,-0.671,0.702,73.333,857802.000,1.000
-6.209,4.925,-8.877,-8.498,-5.863,-3.179,-6.569,-2.092,-0.052,0.999,-0.050,-1.251,-0.671,0.610,73.333,857803.000,1.000
-9.579,0.665,-14.438,-12.642,-13.540,-15.408,-20.928,-11.302,-0.050,0.995,-0.049,-1.312,-0.671,0.580,73.333,857804.000,1.000
-12.074,-1.581,-17.536,-13.263,-16.113,-19.014,-24.271,-14.138,-0.048,0.993,-0.050,-1.282,-0.732,0.519,73.333,857805.000,1.000
-12.933,-0.973,-17.247,-10.091,-12.795,-13.459,-16.314,-9.478,-0.046,0.993,-0.046,-1.312,-0.763,0.549,73.333,857806.000,1.000
-12.353,1.668,-14.506,-4.863,-6.091,-3.256,-3.400,-0.666,-0.043,0.995,-0.050,-1.221,-0.702,0.641,73.333,857807.000,1.000
-11.064,4.722,-11.243,0.060,0.408,5.985,7.285,7.491,-0.043,0.995,-0.050,-1.190,-0.671,0.641,73.333,857808.000,1.000
-9.791,6.813,-9.129,3.029,4.206,10.518,11.877,11.822,-0.045,0.994,-0.054,-1.038,-0.641,0.702,73.333,857809.000,1.000
-9.065,7.177,-8.895,3.469,4.482,8.824,9.804,11.772,-0.047,0.995,-0.056,-1.007,-0.671,0.854,73.333,857810.000,1.000
-9.071,5.792,-10.347,1.731,1.862,1.734,2.712,8.678,-0.048,0.990,-0.053,-1.038,-0.610,0.824,73.333,857811.000,1.000
-9.562,3.376,-12.514,-1.152,-2.062,-7.645,-6.082,4.564,-0.046,0.990,-0.047,-0.946,-0.580,0.977,73.333,857812.000,1.000
-10.046,1.063,-14.250,-3.942,-5.476,-15.429,-12.837,1.197,-0.048,0.989,-0.047,-0.824,-0.610,1.129,73.333,857813.000,1.000
-10.017,0.012,-14.749,-5.677,-6.986,-18.464,-14.792,-0.448,-0.049,0.989,-0.051,-0.793,-0.671,1.190,73.333,857814.000,1.000
-9.141,0.969,-13.707,-6.015,-6.142,-15.184,-11.260,-0.653,-0.053,0.990,-0.051,-0.702,-0.702,1.099,73.333,857815.000,1.000
-7.479,3.823,-11.512,-5.329,-3.690,-6.718,-4.333,-0.668,-0.056,0.991,-0.050,-0.671,-0.702,1.007,73.333,857816.000,1.000
-5.527,7.519,-8.921,-4.345,-1.123,2.874,2.129,-1.356,-0.059,0.993,-0.048,-0.641,-0.885,0.793,73.333,857817.000,1.000
-4.001,10.534,-6.755,-3.705,0.206,8.874,5.048,-2.521,-0.060,0.994,-0.049,-0.580,-1.068,0.610,73.333,857818.000,1.000
-3.457,11.816,-5.565,-3.674,-0.035,9.486,4.475,-3.309,-0.060,0.997,-0.048,-0.671,-1.221,0.427,73.333,857819.000,1.000
-3.938,11.498,-5.247,-3.947,-0.837,7.215,3.557,-2.671,-0.058,0.997,-0.048,-0.732,-1.373,0.336,73.333,857820.000,1.000
-4.940,10.656,-5.281,-3.886,-0.683,6.388,5.633,0.022,-0.055,1.003,-0.049,-0.793,-1.648,0.366,73.333,857821.000,1.000
-5.726,10.321,-5.149,-3.075,1.056,9.001,11.067,4.391,-0.053,1.003,-0.052,-0.824,-1.648,0.122,73.333,857822.000,1.000
-5.783,10.601,-4.856,-1.758,3.386,12.602,16.223,8.889,-0.053,1.003,-0.051,-0.916,-1.709,0.122,73.333,857823.000,1.000
-5.160,10.717,-4.942,-0.807,4.321,12.453,15.876,11.289,-0.050,1.002,-0.050,-1.068,-1.831,0.061,73.333,857824.000,1.000
-4.362,9.948,-5.789,-1.036,2.567,6.134,7.740,10.027,-0.049,1.002,-0.047,-1.099,-1.862,0.061,73.333,857825.000,1.000
-3.840,8.522,-7.119,-2.396,-1.280,-4.328,-5.405,5.516,-0.047,1.000,-0.049,-1.251,-1.831,0.183,73.333,857826.000,1.000
-3.586,7.485,-8.008,-3.916,-5.228,-14.452,-17.904,-0.064,-0.044,1.000,-0.050,-1.343,-1.740,0.214,73.333,857827.000,1.000
-3.230,7.891,-7.602,-4.394,-7.195,-20.088,-24.639,-4.057,-0.045,1.000,-0.051,-1.282,-1.770,0.183,73.333,857828.000,1.000
-2.414,10.137,-5.684,-3.104,-5.890,-18.776,-22.822,-4.389,-0.046,1.001,-0.056,-1.373,-1.617,0.305,73.333,857829.000,1.000
-1.151,13.652,-2.783,-0.217,-1.396,-10.568,-12.881,-0.671,-0.047,0.997,-0.052,-1.251,-1.648,0.488,73.333,857830.000,1.000
0.070,17.015,-0.093,3.157,4.610,1.511,1.161,5.188,-0.047,0.996,-0.053,-1.129,-1.648,0.610,73.333,857831.000,1.000
0.549,18.622,1.285,5.599,9.599,12.297,13.111,10.159,-0.046,0.999,-0.051,-1.129,-1.526,0.641,73.333,857832.000,1.000
-0.248,17.500,0.935,6.164,11.557,17.041,17.800,11.919,-0.047,0.999,-0.049,-1.099,-1.617,0.732,73.333,857833.000,1.000
-2.304,13.949,-0.673,4.831,10.164,14.456,14.431,9.993,-0.046,0.998,-0.052,-1.038,-1.526,0.824,73.333,857834.000,1.000
-4.820,9.509,-2.371,2.514,6.889,7.300,6.773,5.985,-0.047,0.997,-0.055,-1.007,-1.556,0.946,73.333,857835.000,1.000
-6.661,5.921,-3.213,0.372,3.683,-0.253,-0.384,2.292,-0.051,0.998,-0.052,-1.007,-1.495,0.916,73.333,857836.000,1.000
-7.264,3.973,-3.110,-1.081,1.567,-5.111,-4.187,0.086,-0.052,0.998,-0.052,-1.038,-1.434,1.007,73.333,857837.000,1.000
-6.985,3.356,-2.742,-2.100,0.467,-5.737,-3.936,-1.177,-0.051,0.995,-0.051,-0.977,-1.495,0.854,73.333,857838.000,1.000
-6.560,3.324,-2.811,-3.085,-0.136,-2.335,-0.502,-2.484,-0.052,0.994,-0.052,-0.946,-1.465,0.885,73.333,857839.000,1.000
-6.526,3.164,-3.492,-4.183,-0.911,2.397,3.591,-4.160,-0.052,0.994,-0.050,-0.824,-1.526,0.763,73.333,857840.000,1.000
-7.057,2.363,-4.647,-5.338,-2.516,4.254,4.875,-5.835,-0.051,0.994,-0.049,-0.824,-1.587,0.793,73.333,857841.000,1.000
-7.972,0.865,-5.891,-6.272,-5.042,0.806,1.423,-6.828,-0.053,0.995,-0.053,-0.854,-1.648,0.732,73.333,857842.000,1.000
-8.937,-0.918,-6.794,-6.573,-7.766,-6.531,-5.529,-6.644,-0.053,0.996,-0.053,-0.916,-1.740,0.702,73.333,857843.000,1.000
-9.651,-2.375,-7.026,-5.871,-9.473,-13.765,-12.385,-5.110,-0.051,0.996,-0.050,-0.946,-1.709,0.610,73.333,857844.000,1.000
-9.809,-2.970,-6.276,-3.913,-9.022,-17.223,-15.348,-2.100,-0.049,0.992,-0.049,-0.824,-1.801,0.549,73.333,857845.000,1.000
-9.182,-2.493,-4.545,-0.799,-6.030,-15.588,-12.541,2.262,-0.050,0.993,-0.050,-0.854,-1.801,0.580,73.333,857846.000,1.000
-7.823,-1.136,-2.241,2.787,-1.281,-9.978,-4.899,6.987,-0.051,0.993,-0.051,-0.793,-1.831,0.610,73.333,857847.000,1.000
-6.089,0.609,-0.113,5.667,3.494,-2.887,4.015,10.189,-0.049,0.996,-0.049,-0.732,-1.831,0.458,73.333,857848.000,1.000
-4.440,2.064,1.103,6.714,6.443,2.856,9.576,10.257,-0.050,0.993,-0.051,-0.854,-1.801,0.519,73.333,857849.000,1.000
-3.127,2.704,1.232,5.586,6.696,5.258,9.137,7.278,-0.050,0.992,-0.049,-0.732,-1.709,0.580,73.333,857850.000,1.000
-2.044,2.595,0.644,2.949,4.898,4.384,4.111,3.043,-0.049,0.992,-0.051,-0.793,-1.740,0.549,73.333,857851.000,1.000
-0.823,2.419,0.056,0.086,2.659,2.214,-1.214,-0.179,-0.050,0.992,-0.051,-0.824,-1.709,0.458,73.333,857852.000,1.000
0.949,2.958,0.101,-1.722,1.383,0.749,-3.342,-0.953,-0.050,0.994,-0.051,-0.732,-1.709,0.397,73.333,857853.000,1.000
3.377,4.447,0.902,-1.899,1.313,0.492,-2.042,0.405,-0.051,0.994,-0.050,-0.702,-1.678,0.427,73.333,857854.000,1.000
5.940,6.278,1.896,-1.010,1.510,0.806,0.332,1.860,-0.049,0.995,-0.045,-0.671,-1.587,0.366,73.333,857855.000,1.000
7.662,7.371,2.061,-0.315,0.881,1.131,1.418,1.251,-0.051,0.994,-0.049,-0.671,-1.587,0.397,73.333,857856.000,1.000
7.875,7.040,0.974,-0.542,-0.571,1.658,1.135,-1.556,-0.049,0.995,-0.051,-0.702,-1.617,0.366,73.333,857857.000,1.000
6.810,5.504,-0.677,-1.226,-1.566,3.192,1.690,-4.303,-0.050,0.995,-0.051,-0.671,-1.617,0.336,73.333,857858.000,1.000
5.384,3.489,-1.670,-1.380,-0.761,6.448,5.289,-4.492,-0.050,0.995,-0.050,-0.549,-1.648,0.397,73.333,857859.000,1.000
4.401,1.289,-1.367,-0.672,1.732,10.940,11.426,-1.973,-0.051,0.994,-0.048,-0.671,-1.587,0.397,73.333,857860.000,1.000
3.925,-1.631,-0.414,0.213,4.167,14.421,16.511,0.914,-0.052,0.994,-0.049,-0.793,-1.587,0.397,73.333,857861.000,1.000
3.472,-5.815,0.093,0.434,4.804,14.423,17.109,1.927,-0.052,0.995,-0.050,-0.854,-1.648,0.458,73.333,857862.000,1.000
2.650,-10.848,-0.321,-0.109,3.423,10.161,12.742,0.993,-0.050,0.995,-0.052,-0.885,-1.556,0.488,73.333,857863.000,1.000
1.349,-15.721,-1.454,-0.930,0.936,2.241,5.145,-0.314,-0.051,0.997,-0.048,-0.885,-1.556,0.366,73.333,857864.000,1.000
-0.499,-19.798,-2.911,-1.622,-1.635,-7.891,-3.179,-0.492,-0.051,0.995,-0.049,-0.916,-1.587,0.458,73.333,857865.000,1.000
-2.928,-23.044,-4.425,-2.180,-3.528,-17.377,-9.469,0.693,-0.053,0.995,-0.052,-0.885,-1.617,0.519,73.333,857866.000,1.000
-5.803,-25.808,-5.860,-2.982,-4.555,-22.900,-12.048,1.880,-0.050,0.997,-0.051,-0.916,-1.617,0.549,73.333,857867.000,1.000
-8.762,-28.540,-7.359,-4.482,-5.214,-23.061,-11.621,1.101,-0.053,1.000,-0.053,-0.854,-1.556,0.519,73.333,857868.000,1.000
-11.077,-31.171,-8.995,-6.524,-5.921,-18.995,-10.026,-2.166,-0.054,0.998,-0.053,-0.977,-1.556,0.519,73.333,857869.000,1.000
-11.738,-32.746,-10.195,-8.061,-6.304,-12.790,-7.977,-6.157,-0.052,0.999,-0.051,-0.977,-1.556,0.519,73.333,857870.000,1.000
-10.050,-32.040,-10.098,-7.886,-5.533,-5.955,-4.794,-8.306,-0.052,0.997,-0.049,-1.007,-1.495,0.458,73.333,857871.000,1.000
-6.243,-28.617,-8.224,-5.591,-3.201,0.730,0.107,-7.331,-0.051,0.997,-0.051,-1.129,-1.526,0.610,73.333,857872.000,1.000
-1.561,-23.418,-5.083,-1.921,0.092,6.336,5.695,-4.040,-0.051,0.997,-0.049,-1.099,-1.495,0.610,73.333,857873.000,1.000
2.316,-18.371,-1.958,1.767,3.026,9.348,9.629,-0.284,-0.051,0.997,-0.053,-1.129,-1.587,0.641,73.333,857874.000,1.000
4.288,-15.192,0.150,4.506,4.625,8.757,10.310,2.732,-0.051,0.997,-0.050,-1.221,-1.465,0.580,73.333,857875.000,1.000
4.453,-14.425,1.079,6.132,4.887,5.312,8.114,4.803,-0.051,0.999,-0.053,-1.312,-1.526,0.610,73.333,857876.000,1.000
3.781,-15.583,1.327,6.830,4.237,0.886,4.511,5.747,-0.051,0.999,-0.052,-1.343,-1.587,0.641,73.333,857877.000,1.000
3.399,-17.684,1.487,6.714,2.985,-2.726,1.052,5.011,-0.050,0.999,-0.049,-1.495,-1.404,0.641,73.333,857878.000,1.000
4.180,-19.418,2.135,6.021,1.692,-3.732,-0.322,2.557,-0.049,0.998,-0.047,-1.526,-1.434,0.641,73.333,857879.000,1.000
6.480,-19.542,3.766,5.213,1.171,-0.808,1.742,-0.667,-0.049,0.998,-0.048,-1.465,-1.343,0.702,73.333,857880.000,1.000
9.925,-17.682,6.276,4.677,1.676,4.974,5.827,-3.323,-0.049,0.997,-0.047,-1.587,-1.282,0.732,73.333,857881.000,1.000
13.618,-14.503,9.095,4.626,2.733,10.131,8.795,-4.152,-0.049,0.998,-0.048,-1.678,-1.221,0.763,73.333,857882.000,1.000
16.610,-11.097,11.627,5.122,3.829,11.635,8.897,-2.424,-0.049,0.998,-0.049,-1.709,-1.160,0.732,73.333,857883.000,1.000
18.176,-8.519,13.405,5.871,4.577,8.797,6.238,1.205,-0.049,0.997,-0.048,-1.648,-1.129,0.793,73.333,857884.000,1.000
17.946,-7.602,14.117,6.199,4.413,2.550,1.185,4.550,-0.051,0.996,-0.047,-1.740,-1.160,0.824,73.333,857885.000,1.000
16.155,-8.400,13.781,5.694,3.133,-5.123,-5.409,5.562,-0.050,0.994,-0.047,-1.740,-1.007,0.763,73.333,857886.000,1.000
13.754,-9.793,13.166,4.839,1.777,-10.884,-10.657,4.376,-0.050,0.996,-0.047,-1.587,-1.007,0.885,73.333,857887.000,1.000
11.919,-10.199,13.297,4.612,2.037,-11.300,-10.816,2.997,-0.050,0.996,-0.049,-1.556,-0.946,0.885,73.333,857888.000,1.000
11.299,-8.910,14.488,5.470,4.535,-5.748,-4.892,3.042,-0.049,0.997,-0.049,-1.617,-0.977,0.946,73.333,857889.000,1.000
11.742,-6.605,16.136,7.039,8.083,2.443,3.682,4.437,-0.050,0.996,-0.046,-1.495,-0.854,0.916,73.333,857890.000,1.000
12.729,-4.499,17.352,8.746,10.893,8.681,9.857,6.305,-0.052,0.996,-0.048,-1.495,-0.946,0.946,73.333,857891.000,1.000
13.925,-3.181,17.863,10.378,12.086,10.655,11.020,8.169,-0.053,0.995,-0.048,-1.495,-0.916,1.007,73.333,857892.000,1.000
15.095,-2.593,17.701,11.617,11.501,8.623,7.176,9.375,-0.051,0.993,-0.048,-1.404,-0.946,1.007,73.333,857893.000,1.000
15.803,-2.618,16.553,11.588,8.875,3.758,-0.706,8.303,-0.054,0.994,-0.046,-1.404,-0.916,1.038,73.333,857894.000,1.000
15.669,-3.046,14.199,9.556,4.335,-2.179,-10.254,3.666,-0.052,0.994,-0.048,-1.465,-0.916,1.038,73.333,857895.000,1.000
14.739,-3.426,11.001,5.808,-0.909,-6.810,-17.651,-3.681,-0.049,0.993,-0.048,-1.373,-0.885,0.977,73.333,857896.000,1.000
13.358,-3.571,7.712,1.443,-5.345,-8.651,-20.331,-11.108,-0.052,0.993,-0.048,-1.312,-0.854,0.977,73.333,857897.000,1.000
11.800,-3.861,4.829,-2.430,-8.285,-8.233,-18.882,-16.098,-0.051,0.994,-0.047,-1.221,-0.885,0.946,73.333,857898.000,1.000
10.313,-4.516,2.662,-4.927,-9.548,-6.678,-14.903,-17.137,-0.051,0.996,-0.049,-1.282,-0.885,1.038,73.333,857899.000,1.000
9.274,-4.951,1.702,-5.426,-8.745,-3.799,-8.359,-13.788,-0.051,0.997,-0.048,-1.221,-0.763,0.916,73.333,857900.000,1.000
8.917,-4.350,2.145,-4.111,-5.826,1.164,1.110,-7.335,-0.051,0.999,-0.049,-1.160,-0.732,0.885,73.333,857901.000,1.000
9.103,-2.661,3.574,-2.115,-1.955,7.109,11.132,-0.705,-0.048,1.000,-0.047,-1.129,-0.732,0.916,73.333,857902.000,1.000
9.521,-0.660,5.215,-0.704,0.996,10.808,16.928,3.338,-0.051,1.000,-0.047,-1.160,-0.885,0.885,73.333,857903.000,1.000
9.933,0.838,6.506,-0.384,1.977,9.903,15.635,3.988,-0.052,1.000,-0.046,-1.221,-0.854,0.793,73.333,857904.000,1.000
10.176,1.632,7.382,-0.816,1.518,5.508,9.388,2.434,-0.053,1.000,-0.046,-1.190,-0.885,0.885,73.333,857905.000,1.000
10.122,2.077,7.958,-1.339,0.972,1.216,3.238,0.467,-0.052,1.000,-0.047,-1.282,-0.916,0.854,73.333,857906.000,1.000
9.705,2.489,8.320,-1.505,1.088,-0.393,0.276,-0.940,-0.052,1.000,-0.050,-1.343,-1.038,0.885,73.333,857907.000,1.000
8.932,2.707,8.349,-1.342,1.378,0.105,-0.681,-2.032,-0.052,0.998,-0.047,-1.343,-0.977,0.824,73.333,857908.000,1.000
7.955,2.401,7.923,-1.136,0.938,0.484,-2.406,-3.339,-0.052,0.996,-0.046,-1.434,-0.916,0.793,73.333,857909.000,1.000
7.089,1.612,7.295,-0.993,-0.313,-0.166,-5.443,-4.526,-0.052,0.996,-0.046,-1.404,-0.916,0.793,73.333,857910.000,1.000
6.664,0.817,6.924,-0.697,-1.372,-0.623,-7.550,-4.338,-0.051,0.996,-0.046,-1.373,-1.129,0.854,73.333,857911.000,1.000
6.792,0.492,7.178,0.029,-1.049,0.853,-5.913,-1.731,-0.053,0.995,-0.047,-1.343,-1.038,0.916,73.333,857912.000,1.000
7.076,0.545,7.802,0.991,0.750,4.541,0.025,2.618,-0.053,0.997,-0.047,-1.343,-1.099,0.854,73.333,857913.000,1.000
6.648,0.270,7.905,1.428,2.626,8.616,7.270,6.164,-0.053,0.997,-0.048,-1.312,-1.282,0.763,73.333,857914.000,1.000
4.732,-1.067,6.684,0.666,2.643,9.989,10.857,6.366,-0.052,0.998,-0.046,-1.373,-1.312,0.793,73.333,857915.000,1.000
1.186,-3.632,3.911,-1.349,-0.263,6.229,7.594,2.669,-0.052,0.997,-0.047,-1.221,-1.312,0.824,73.333,857916.000,1.000
-3.262,-6.703,0.264,-3.965,-5.415,-2.277,-1.214,-3.158,-0.050,0.995,-0.046,-1.221,-1.282,0.732,73.333,857917.000,1.000
-7.158,-8.872,-2.906,-6.049,-10.649,-11.966,-10.933,-8.178,-0.052,0.995,-0.048,-1.282,-1.282,0.702,73.333,857918.000,1.000
-9.056,-8.935,-4.352,-6.531,-13.639,-18.494,-17.067,-9.949,-0.052,0.995,-0.048,-1.282,-1.312,0.702,73.333,857919.000,1.000
-8.493,-6.937,-3.805,-5.221,-13.581,-20.002,-18.246,-8.181,-0.051,0.995,-0.049,-1.099,-1.282,0.763,73.333,857920.000,1.000
-6.378,-4.335,-2.442,-3.233,-11.895,-18.376,-17.023,-5.346,-0.050,0.994,-0.048,-1.068,-1.404,0.763,73.333,857921.000,1.000
-4.288,-2.757,-1.824,-2.079,-10.700,-16.725,-16.505,-4.591,-0.050,0.995,-0.050,-0.946,-1.434,0.732,73.333,857922.000,1.000
-3.220,-2.360,-2.368,-2.087,-10.281,-15.470,-15.853,-6.415,-0.050,0.993,-0.048,-0.916,-1.434,0.732,73.333,857923.000,1.000
-3.040,-1.800,-3.114,-2.183,-8.980,-12.293,-11.369,-8.406,-0.049,0.993,-0.050,-0.885,-1.526,0.732,73.333,857924.000,1.000
-3.011,0.101,-2.964,-1.349,-5.738,-6.116,-2.374,-8.445,-0.051,0.993,-0.049,-0.824,-1.495,0.702,73.333,857925.000,1.000
-2.565,3.241,-1.799,0.313,-1.535,0.800,6.781,-6.705,-0.048,0.996,-0.048,-0.763,-1.373,0.671,73.333,857926.000,1.000
-1.596,6.802,-0.105,2.078,1.929,5.173,11.309,-4.270,-0.049,0.996,-0.051,-0.763,-1.434,0.671,73.333,857927.000,1.000
-0.394,10.122,1.587,3.391,3.751,5.573,10.095,-1.810,-0.049,0.995,-0.050,-0.824,-1.465,0.702,73.333,857928.000,1.000
0.552,12.783,2.787,3.940,3.792,2.669,4.933,-0.160,-0.050,0.995,-0.052,-0.763,-1.434,0.702,73.333,857929.000,1.000
0.902,14.482,3.183,3.614,2.214,-2.040,-2.004,-0.510,-0.049,0.995,-0.048,-0.885,-1.465,0.793,73.333,857930.000,1.000
0.780,15.287,2.818,2.647,-0.358,-6.951,-8.892,-3.218,-0.048,0.995,-0.048,-0.793,-1.434,0.763,73.333,857931.000,1.000
0.692,15.812,2.276,1.579,-2.718,-10.443,-13.843,-7.192,-0.048,0.994,-0.049,-0.732,-1.373,0.793,73.333,857932.000,1.000
1.069,16.915,2.259,0.887,-3.637,-11.226,-15.465,-10.721,-0.050,0.996,-0.050,-0.763,-1.312,0.824,73.333,857933.000,1.000
1.920,19.183,3.105,0.823,-2.465,-8.880,-13.542,-12.195,-0.050,0.993,-0.049,-0.793,-1.221,0.763,73.333,857934.000,1.000
2.906,22.672,4.806,1.582,0.825,-3.918,-8.592,-10.159,-0.049,0.994,-0.045,-0.732,-1.190,0.793,73.333,857935.000,1.000
3.632,26.986,7.007,3.319,5.788,2.680,-1.203,-3.913,-0.050,0.997,-0.046,-0.580,-1.129,0.702,73.333,857936.000,1.000
3.776,31.452,9.117,5.770,11.417,9.957,7.843,5.104,-0.051,0.997,-0.047,-0.671,-1.038,0.702,73.333,857937.000,1.000
3.060,35.240,10.315,8.026,16.140,16.907,16.720,13.179,-0.050,0.996,-0.048,-0.641,-1.190,0.671,73.333,857938.000,1.000
1.444,37.648,9.944,9.125,18.504,22.095,22.691,16.908,-0.052,0.996,-0.047,-0.671,-1.129,0.671,73.333,857939.000,1.000
-0.639,38.439,8.059,8.863,18.023,23.811,23.749,15.791,-0.052,0.996,-0.046,-0.671,-1.129,0.671,73.333,857940.000,1.000
-2.482,37.856,5.228,7.797,15.362,21.201,19.985,11.866,-0.052,0.996,-0.046,-0.793,-1.190,0.702,73.333,857941.000,1.000
-3.545,36.454,2.233,6.742,11.956,15.550,13.631,7.838,-0.052,0.994,-0.047,-0.854,-1.251,0.671,73.333,857942.000,1.000
-3.716,34.964,-0.227,6.366,9.500,10.004,8.059,5.987,-0.052,0.996,-0.049,-0.793,-1.129,0.610,73.333,857943.000,1.000
-3.240,34.102,-1.648,6.943,9.306,7.654,6.486,7.644,-0.051,0.997,-0.047,-0.732,-1.221,0.549,73.333,857944.000,1.000
-2.458,34.194,-1.796,8.192,11.475,9.535,9.846,12.389,-0.050,0.997,-0.049,-0.763,-1.251,0.519,73.333,857945.000,1.000
-1.764,34.726,-1.223,9.141,14.227,13.597,14.687,17.357,-0.052,0.996,-0.049,-0.793,-1.312,0.488,73.333,857946.000,1.000
-1.685,34.384,-1.184,8.473,14.579,15.639,14.989,18.362,-0.051,0.995,-0.048,-0.854,-1.312,0.488,73.333,857947.000,1.000
-2.536,32.079,-2.675,5.597,10.617,12.358,7.434,13.013,-0.050,0.994,-0.050,-0.793,-1.434,0.458,73.333,857948.000,1.000
-3.896,28.071,-5.319,1.474,3.308,4.061,-5.471,3.073,-0.052,0.994,-0.050,-0.824,-1.373,0.427,73.333,857949.000,1.000
-4.776,23.850,-7.428,-1.904,-4.066,-5.587,-17.276,-6.493,-0.050,0.992,-0.050,-0.793,-1.373,0.397,73.333,857950.000,1.000
-4.382,20.924,-7.358,-2.895,-8.179,-12.380,-22.208,-10.763,-0.051,0.994,-0.051,-0.793,-1.343,0.397,73.333,857951.000,1.000
-2.576,19.839,-4.473,-1.157,-7.624,-14.233,-18.638,-7.781,-0.050,0.994,-0.050,-0.732,-1.434,0.427,73.333,857952.000,1.000
0.203,20.123,0.519,2.270,-3.444,-11.724,-9.604,0.317,-0.049,0.994,-0.051,-0.824,-1.526,0.519,73.333,857953.000,1.000
3.189,20.856,5.952,5.581,1.797,-6.818,-0.344,8.692,-0.052,0.996,-0.050,-0.854,-1.434,0.427,73.333,857954.000,1.000
5.537,21.318,10.161,7.216,5.622,-1.343,5.251,12.857,-0.050,0.996,-0.049,-0.854,-1.312,0.458,73.333,857955.000,1.000
6.724,21.356,12.274,6.718,6.938,3.716,6.533,11.166,-0.051,0.996,-0.047,-0.916,-1.282,0.427,73.333,857956.000,1.000
6.943,21.427,12.700,5.046,6.510,8.403,5.924,5.630,-0.050,0.995,-0.050,-0.824,-1.282,0.488,73.333,857957.000,1.000
6.896,22.054,12.512,3.840,6.094,13.211,6.785,0.414,-0.049,0.997,-0.051,-0.854,-1.282,0.519,73.333,857958.000,1.000
6.960,22.833,12.142,3.933,6.472,17.130,9.873,-1.535,-0.051,0.998,-0.053,-0.854,-1.282,0.519,73.333,857959.000,1.000
6.713,22.234,10.930,4.657,6.550,17.133,12.244,-0.537,-0.049,0.998,-0.051,-0.793,-1.190,0.458,73.333,857960.000,1.000
5.471,18.959,8.047,4.815,4.916,11.428,10.774,1.287,-0.052,0.998,-0.049,-0.885,-1.160,0.397,73.333,857961.000,1.000
3.085,13.274,3.784,3.945,1.594,2.228,5.742,2.441,-0.051,0.999,-0.048,-0.885,-1.251,0.458,73.333,857962.000,1.000
0.003,6.686,-0.670,2.331,-2.262,-6.114,-0.014,2.491,-0.051,0.999,-0.048,-0.885,-1.251,0.580,73.333,857963.000,1.000
-3.156,0.796,-4.255,0.375,-5.587,-10.603,-3.901,1.488,-0.051,0.999,-0.049,-0.885,-1.190,0.458,73.333,857964.000,1.000
-5.845,-3.251,-6.471,-1.592,-7.822,-10.730,-5.001,-0.265,-0.051,0.997,-0.047,-0.916,-1.221,0.488,73.333,857965.000,1.000
-7.663,-4.879,-7.392,-3.256,-8.847,-7.815,-4.227,-2.406,-0.052,0.997,-0.048,-1.129,-1.129,0.427,73.333,857966.000,1.000
-8.483,-4.329,-7.393,-4.364,-9.019,-4.349,-3.591,-4.595,-0.052,0.999,-0.050,-1.160,-1.038,0.427,73.333,857967.000,1.000
-8.485,-2.667,-7.023,-4.821,-9.045,-2.988,-4.833,-6.343,-0.052,0.999,-0.051,-1.190,-0.977,0.549,73.333,857968.000,1.000
-7.928,-0.997,-6.646,-4.597,-9.308,-4.603,-7.880,-6.972,-0.052,0.997,-0.052,-1.221,-1.007,0.549,73.333,857969.000,1.000
-6.914,0.322,-6.036,-3.612,-9.387,-7.285,-10.609,-5.966,-0.049,0.998,-0.047,-1.251,-1.038,0.580,73.333,857970.000,1.000
-5.571,1.343,-4.903,-2.084,-8.805,-8.527,-11.290,-3.820,-0.050,0.997,-0.048,-1.221,-1.007,0.610,73.333,857971.000,1.000
-4.322,1.803,-3.433,-0.838,-8.073,-8.289,-10.989,-2.392,-0.050,0.997,-0.046,-1.251,-0.946,0.610,73.333,857972.000,1.000
-3.688,1.312,-2.145,-0.784,-8.200,-8.507,-12.250,-3.552,-0.051,0.996,-0.048,-1.343,-0.854,0.610,73.333,857973.000,1.000
-3.774,0.136,-1.209,-2.008,-9.169,-9.685,-15.254,-7.143,-0.051,0.996,-0.047,-1.190,-0.885,0.641,73.333,857974.000,1.000
-4.025,-0.691,-0.129,-3.544,-9.501,-9.630,-16.685,-10.626,-0.049,0.996,-0.048,-1.282,-0.793,0.519,73.333,857975.000,1.000
-3.551,-0.092,1.717,-4.059,-7.546,-6.020,-13.114,-11.001,-0.050,0.997,-0.049,-1.312,-0.732,0.519,73.333,857976.000,1.000
-1.665,2.326,4.669,-2.776,-3.021,0.902,-4.625,-7.233,-0.050,0.996,-0.049,-1.160,-0.793,0.671,73.333,857977.000,1.000
1.758,6.070,8.531,0.009,2.635,8.453,4.712,-1.249,-0.052,0.996,-0.047,-1.221,-0.732,0.732,73.333,857978.000,1.000
6.178,10.018,12.616,3.154,7.169,13.314,9.421,3.355,-0.050,0.999,-0.044,-1.251,-0.702,0.702,73.333,857979.000,1.000
10.643,13.110,16.271,5.586,9.176,13.741,6.848,4.181,-0.052,0.996,-0.044,-1.221,-0.671,0.702,73.333,857980.000,1.000
14.293,15.104,19.254,7.151,9.271,11.380,-0.156,1.868,-0.050,0.995,-0.047,-1.160,-0.641,0.702,73.333,857981.000,1.000
16.674,16.444,21.695,8.529,9.359,10.227,-5.392,-0.842,-0.049,0.996,-0.048,-1.038,-0.610,0.610,73.333,857982.000,1.000
17.660,17.244,23.456,10.320,10.587,12.430,-4.869,-1.625,-0.049,0.994,-0.046,-1.007,-0.610,0.641,73.333,857983.000,1.000
17.256,16.735,23.837,12.244,12.171,15.765,0.079,-0.330,-0.050,0.992,-0.046,-0.916,-0.641,0.610,73.333,857984.000,1.000
15.547,13.951,22.074,13.174,12.250,16.194,5.031,1.263,-0.050,0.993,-0.046,-0.824,-0.641,0.671,73.333,857985.000,1.000
12.719,8.762,17.897,11.976,9.678,11.990,6.759,1.386,-0.052,0.992,-0.045,-0.641,-0.671,0.641,73.333,857986.000,1.000
8.994,2.021,11.850,8.384,4.838,4.553,4.978,-0.064,-0.052,0.993,-0.045,-0.549,-0.732,0.702,73.333,857987.000,1.000
4.546,-5.059,4.914,3.156,-0.872,-3.485,1.157,-1.767,-0.052,0.992,-0.045,-0.671,-0.732,0.763,73.333,857988.000,1.000
-0.237,-11.281,-1.808,-2.231,-5.758,-9.546,-2.539,-2.344,-0.053,0.990,-0.046,-0.519,-0.763,0.793,73.333,857989.000,1.000
-4.449,-15.614,-7.132,-6.105,-8.395,-11.504,-3.803,-1.392,-0.052,0.992,-0.047,-0.427,-0.732,0.824,73.333,857990.000,1.000
-7.070,-17.729,-10.357,-7.450,-8.326,-8.792,-1.548,0.458,-0.052,0.990,-0.046,-0.214,-0.916,0.732,73.333,857991.000,1.000
-7.693,-18.351,-11.575,-6.454,-6.294,-3.269,3.278,2.409,-0.052,0.993,-0.047,-0.244,-1.007,0.763,73.333,857992.000,1.000
-6.712,-18.652,-11.435,-4.233,-3.603,1.999,8.502,4.108,-0.052,0.996,-0.047,-0.153,-1.007,0.702,73.333,857993.000,1.000
-5.008,-19.308,-10.619,-2.112,-1.373,4.956,12.046,5.274,-0.053,0.999,-0.045,-0.214,-0.916,0.763,73.333,857994.000,1.000
-3.501,-20.163,-9.491,-0.977,-0.210,5.253,12.473,5.470,-0.054,0.997,-0.045,-0.244,-1.038,0.885,73.333,857995.000,1.000
-2.693,-20.539,-8.191,-0.958,-0.122,3.428,9.245,4.522,-0.054,0.998,-0.046,-0.275,-1.068,0.946,73.333,857996.000,1.000
-2.509,-19.779,-6.722,-1.647,-0.602,0.537,3.626,2.705,-0.057,0.999,-0.047,-0.397,-1.129,0.763,73.333,857997.000,1.000
-2.464,-17.630,-5.107,-2.525,-0.827,-1.535,-1.185,0.625,-0.056,1.000,-0.048,-0.397,-1.129,0.763,73.333,857998.000,1.000
-2.014,-14.404,-3.406,-3.166,-0.069,-0.947,-2.164,-0.749,-0.054,1.001,-0.043,-0.427,-1.221,0.641,73.333,857999.000,1.000
-1.029,-11.033,-1.722,-3.388,1.655,2.165,0.818,-0.591,-0.054,1.001,-0.050,-0.458,-1.282,0.519,73.333,858000.000,1.000
0.017,-8.718,-0.373,-3.320,3.491,5.513,4.871,0.968,-0.052,1.002,-0.051,-0.580,-1.221,0.519,73.333,858001.000,1.000
0.376,-8.207,0.300,-3.215,4.408,6.727,6.663,2.756,-0.051,1.000,-0.047,-0.702,-1.282,0.580,73.333,858002.000,1.000
-0.490,-9.361,-0.018,-3.244,3.906,5.180,4.783,3.404,-0.047,0.999,-0.045,-0.977,-1.221,0.580,73.333,858003.000,1.000
-2.549,-11.231,-1.439,-3.312,2.362,2.219,0.747,2.527,-0.043,0.997,-0.047,-0.946,-1.221,0.549,73.333,858004.000,1.000
-5.163,-12.566,-3.548,-3.076,0.826,0.218,-1.660,1.005,-0.042,0.995,-0.045,-1.038,-1.160,0.610,73.333,858005.000,1.000
-7.473,-12.603,-5.660,-2.349,0.118,0.748,0.355,-0.037,-0.042,0.991,-0.048,-0.885,-0.916,0.671,73.333,858006.000,1.000
-8.891,-11.644,-7.253,-1.427,-0.084,2.604,5.028,-0.227,-0.042,0.988,-0.048,-0.854,-0.702,0.824,73.333,858007.000,1.000
-9.288,-10.744,-8.294,-0.916,-0.999,2.567,7.200,-0.143,-0.045,0.991,-0.048,-0.732,-0.519,0.793,73.333,858008.000,1.000
-8.751,-10.581,-8.909,-1.165,-3.281,-0.898,3.964,-0.702,-0.046,0.990,-0.048,-0.671,-0.427,0.732,73.333,858009.000,1.000
-7.385,-10.976,-8.976,-1.986,-6.300,-6.250,-2.908,-2.280,-0.045,0.993,-0.048,-0.488,-0.397,0.763,73.333,858010.000,1.000
-5.565,-11.637,-8.641,-3.121,-9.159,-11.338,-10.158,-4.609,-0.048,0.994,-0.048,-0.366,-0.366,0.793,73.333,858011.000,1.000
-4.077,-12.617,-8.497,-4.530,-11.488,-15.031,-15.566,-6.931,-0.047,0.996,-0.050,-0.366,-0.244,0.763,73.333,858012.000,1.000
-3.630,-13.884,-9.037,-6.036,-13.034,-16.611,-17.679,-7.960,-0.047,0.999,-0.048,-0.336,-0.214,0.885,73.333,858013.000,1.000
-4.397,-15.066,-10.184,-7.237,-13.424,-15.410,-15.705,-6.669,-0.050,1.000,-0.050,-0.366,-0.214,1.007,73.333,858014.000,1.000
-6.061,-15.753,-11.451,-7.978,-12.653,-11.291,-10.178,-3.597,-0.049,0.998,-0.050,-0.305,-0.122,1.007,73.333,858015.000,1.000
-8.027,-15.667,-12.395,-8.463,-11.187,-4.962,-2.762,-0.667,-0.050,0.998,-0.050,-0.305,-0.031,1.007,73.333,858016.000,1.000
-9.557,-14.555,-12.545,-8.792,-9.422,2.144,4.684,0.630,-0.053,0.999,-0.045,-0.336,-0.122,0.977,73.333,858017.000,1.000
-10.057,-12.330,-11.536,-8.791,-7.518,7.830,10.025,0.402,-0.056,1.000,-0.047,-0.397,-0.183,0.885,73.333,858018.000,1.000
-9.485,-9.431,-9.522,-8.375,-5.839,9.482,10.828,-0.326,-0.059,0.998,-0.046,-0.397,-0.092,0.824,73.333,858019.000,1.000
-8.400,-6.689,-7.158,-7.744,-4.914,6.031,6.354,-0.874,-0.059,1.000,-0.047,-0.427,-0.244,0.671,73.333,858020.000,1.000
-7.453,-4.587,-5.153,-7.115,-4.734,-0.227,-0.669,-1.204,-0.061,1.001,-0.045,-0.427,-0.397,0.488,73.333,858021.000,1.000
-6.860,-2.916,-3.742,-6.439,-4.644,-5.257,-5.668,-1.386,-0.060,1.001,-0.046,-0.488,-0.549,0.305,73.333,858022.000,1.000
-6.463,-1.351,-2.865,-5.529,-4.099,-6.884,-6.071,-1.320,-0.060,1.002,-0.044,-0.580,-0.702,0.183,73.333,858023.000,1.000
-6.135,-0.084,-2.531,-4.342,-3.281,-6.130,-3.374,-0.980,-0.059,1.005,-0.044,-0.671,-0.885,0.061,73.333,858024.000,1.000
-6.047,0.211,-2.853,-3.081,-2.974,-5.791,-1.624,-0.571,-0.055,1.007,-0.048,-0.793,-1.007,-0.031,73.333,858025.000,1.000
-6.407,-0.851,-3.848,-1.930,-3.598,-7.712,-3.230,0.061,-0.053,1.008,-0.047,-0.977,-1.038,0.031,73.333,858026.000,1.000
-7.011,-2.706,-5.045,-0.811,-4.431,-10.762,-6.142,1.645,-0.048,1.009,-0.048,-1.038,-1.038,0.061,73.333,858027.000,1.000
-7.446,-4.483,-5.992,0.100,-4.565,-12.228,-6.610,3.914,-0.045,1.008,-0.047,-1.099,-1.160,0.214,73.333,858028.000,1.000
-7.675,-6.178,-6.938,0.040,-4.287,-11.219,-3.846,4.920,-0.047,1.007,-0.046,-1.099,-1.099,0.214,73.333,858029.000,1.000
-7.998,-8.554,-8.410,-1.547,-4.705,-9.458,-0.489,3.113,-0.046,1.006,-0.049,-1.129,-1.129,0.366,73.333,858030.000,1.000
-8.644,-12.150,-10.653,-4.328,-6.552,-9.097,0.229,-1.152,-0.044,1.002,-0.047,-1.221,-0.885,0.427,73.333,858031.000,1.000
-9.636,-16.782,-13.427,-7.398,-9.786,-11.005,-3.100,-6.372,-0.044,1.000,-0.047,-1.312,-0.885,0.641,73.333,858032.000,1.000
-10.779,-21.643,-16.106,-9.838,-13.620,-14.649,-9.320,-10.829,-0.045,0.997,-0.049,-1.190,-0.854,0.671,73.333,858033.000,1.000
-11.707,-25.620,-17.926,-11.077,-16.755,-18.406,-15.468,-13.125,-0.045,0.996,-0.049,-1.251,-0.763,0.824,73.333,858034.000,1.000
-12.109,-27.843,-18.410,-11.145,-18.164,-20.436,-18.954,-13.089,-0.048,0.995,-0.046,-1.160,-0.610,0.824,73.333,858035.000,1.000
-11.816,-28.083,-17.696,-10.520,-17.706,-19.990,-19.396,-11.900,-0.049,0.994,-0.047,-0.977,-0.549,0.916,73.333,858036.000,1.000
-10.693,-26.575,-16.082,-9.635,-15.820,-17.432,-17.939,-10.808,-0.051,0.991,-0.044,-0.793,-0.519,1.007,73.333,858037.000,1.000
-8.703,-23.686,-13.742,-8.707,-12.961,-13.119,-15.487,-10.204,-0.051,0.991,-0.046,-0.732,-0.427,1.007,73.333,858038.000,1.000
-6.099,-19.769,-10.776,-7.812,-9.469,-7.235,-12.153,-9.755,-0.052,0.991,-0.044,-0.671,-0.397,1.068,73.333,858039.000,1.000
-3.394,-15.199,-7.290,-6.940,-5.713,-0.825,-8.099,-8.894,-0.052,0.990,-0.043,-0.549,-0.427,0.977,73.333,858040.000,1.000
-1.224,-10.538,-3.749,-6.138,-2.283,3.881,-4.347,-7.317,-0.052,0.991,-0.045,-0.488,-0.458,0.885,73.333,858041.000,1.000
-0.127,-6.484,-0.869,-5.530,0.194,5.091,-2.012,-5.205,-0.052,0.990,-0.044,-0.336,-0.488,0.916,73.333,858042.000,1.000
-0.170,-3.425,0.853,-5.075,1.562,3.369,-0.953,-2.939,-0.052,0.991,-0.047,-0.214,-0.641,0.885,73.333,858043.000,1.000
-0.789,-1.162,1.538,-4.477,2.320,1.351,0.230,-0.653,-0.052,0.991,-0.044,-0.153,-0.732,0.946,73.333,858044.000,1.000
-1.133,0.756,1.807,-3.474,3.230,1.664,3.031,1.857,-0.054,0.992,-0.044,-0.122,-0.702,0.763,73.333,858045.000,1.000
-0.671,2.456,2.123,-2.172,4.748,5.150,7.822,4.747,-0.053,0.992,-0.044,-0.061,-0.671,0.732,73.333,858046.000,1.000
0.419,3.434,2.459,-1.034,6.606,10.349,13.240,7.701,-0.051,0.994,-0.045,-0.031,-0.519,0.610,73.333,858047.000,1.000
1.408,2.895,2.413,-0.500,8.020,14.608,17.014,10.031,-0.050,0.993,-0.042,-0.153,-0.610,0.580,73.333,858048.000,1.000
1.746,0.708,1.844,-0.389,8.757,16.597,18.626,11.745,-0.050,0.994,-0.043,-0.183,-0.580,0.641,73.333,858049.000,1.000
1.560,-2.162,1.236,0.111,9.643,17.525,20.432,14.116,-0.050,0.993,-0.046,-0.153,-0.610,0.641,73.333,858050.000,1.000
1.165,-4.684,0.831,1.329,11.198,18.733,24.221,17.943,-0.051,0.992,-0.047,-0.153,-0.702,0.641,73.333,858051.000,1.000
0.311,-7.035,-0.132,2.130,12.010,18.724,27.308,21.190,-0.050,0.992,-0.046,-0.214,-0.763,0.641,73.333,858052.000,1.000
-1.686,-10.319,-3.049,0.546,9.407,14.315,23.993,19.441,-0.052,0.993,-0.048,-0.305,-0.641,0.671,73.333,858053.000,1.000
-5.093,-15.179,-8.629,-4.413,2.010,4.397,11.219,9.627,-0.051,0.992,-0.047,-0.397,-0.732,0.732,73.333,858054.000,1.000
-9.257,-21.013,-15.950,-11.678,-8.715,-8.667,-8.218,-6.694,-0.050,0.992,-0.046,-0.305,-0.732,0.793,73.333,858055.000,1.000
-12.865,-26.253,-22.851,-18.659,-19.133,-20.461,-27.335,-23.732,-0.049,0.995,-0.044,-0.305,-0.732,0.732,73.333,858056.000,1.000
-14.570,-29.069,-26.857,-22.592,-25.225,-26.566,-38.487,-34.594,-0.049,0.994,-0.048,-0.214,-0.763,0.732,73.333,858057.000,1.000
-13.674,-28.362,-26.446,-21.880,-24.576,-25.096,-37.278,-34.792,-0.050,0.995,-0.047,-0.275,-0.671,0.763,73.333,858058.000,1.000
-10.608,-24.673,-22.059,-17.013,-18.012,-18.731,-25.932,-24.854,-0.050,0.993,-0.049,-0.336,-0.763,0.793,73.333,858059.000,1.000
-6.869,-20.110,-15.946,-10.452,-9.501,-13.303,-12.618,-10.697,-0.047,0.995,-0.050,-0.214,-0.793,0.885,73.333,858060.000,1.000
-4.203,-16.897,-10.814,-5.142,-3.505,-13.028,-5.284,-0.165,-0.048,0.994,-0.052,-0.244,-0.763,0.885,73.333,858061.000,1.000
-3.468,-15.663,-7.917,-2.540,-1.659,-16.805,-5.219,2.587,-0.047,0.995,-0.050,-0.336,-0.763,0.977,73.333,858062.000,1.000
-4.233,-15.202,-6.590,-2.014,-2.090,-19.514,-7.318,-0.458,-0.048,0.995,-0.050,-0.366,-0.763,0.977,73.333,858063.000,1.000
-5.502,-13.909,-5.465,-2.037,-1.791,-16.864,-5.960,-4.033,-0.049,0.998,-0.051,-0.336,-0.885,1.038,73.333,858064.000,1.000
-6.621,-11.207,-3.759,-1.597,0.766,-8.719,0.423,-4.181,-0.048,0.999,-0.048,-0.336,-0.854,1.068,73.333,858065.000,1.000
-7.439,-7.691,-1.559,-0.533,5.029,1.552,9.282,-0.448,-0.049,0.999,-0.053,-0.519,-0.702,1.099,73.333,858066.000,1.000
-7.942,-4.384,0.793,0.910,9.372,9.946,16.644,5.124,-0.051,1.000,-0.052,-0.580,-0.702,1.068,73.333,858067.000,1.000
-8.062,-2.088,2.999,2.452,12.304,14.281,19.745,9.982,-0.050,1.002,-0.051,-0.671,-0.702,1.190,73.333,858068.000,1.000
-7.736,-1.132,4.757,3.870,13.118,14.729,18.238,12.353,-0.051,1.000,-0.051,-0.641,-0.854,1.129,73.333,858069.000,1.000
-7.040,-1.467,5.791,4.991,11.908,12.502,13.515,11.839,-0.053,1.000,-0.053,-0.824,-0.946,1.068,73.333,858070.000,1.000
-6.270,-2.938,5.707,5.533,9.060,8.304,6.836,8.990,-0.052,1.002,-0.051,-0.885,-0.946,1.038,73.333,858071.000,1.000
-5.831,-5.407,4.167,5.066,4.847,2.241,-1.286,4.272,-0.050,1.000,-0.048,-1.007,-0.946,1.007,73.333,858072.000,1.000
-5.895,-8.492,1.282,3.458,-0.122,-4.692,-9.541,-1.683,-0.052,0.997,-0.047,-1.099,-1.068,0.946,73.333,858073.000,1.000
-6.169,-11.346,-2.049,1.279,-4.423,-9.843,-14.996,-7.200,-0.052,0.996,-0.047,-1.190,-1.099,0.977,73.333,858074.000,1.000
-6.139,-13.229,-4.592,-0.710,-6.797,-10.947,-15.530,-10.593,-0.050,0.995,-0.050,-1.221,-1.068,0.916,73.333,858075.000,1.000
-5.511,-14.217,-5.813,-2.269,-7.384,-8.558,-12.292,-11.774,-0.049,0.994,-0.050,-1.160,-1.038,0.824,73.333,858076.000,1.000
-4.289,-14.911,-5.924,-3.484,-7.236,-5.265,-8.428,-11.664,-0.047,0.992,-0.050,-1.099,-1.038,0.763,73.333,858077.000,1.000
-2.675,-15.720,-5.377,-4.227,-7.026,-3.105,-6.366,-10.671,-0.044,0.993,-0.048,-1.129,-0.977,0.824,73.333,858078.000,1.000
-0.944,-16.580,-4.449,-4.041,-6.633,-2.544,-6.579,-8.322,-0.044,0.995,-0.050,-1.038,-0.916,0.793,73.333,858079.000,1.000
0.764,-17.104,-3.093,-2.529,-5.721,-3.250,-8.240,-4.377,-0.043,0.995,-0.048,-1.038,-0.946,0.885,73.333,858080.000,1.000
2.489,-16.906,-1.288,0.036,-4.413,-4.817,-10.481,-0.165,-0.044,0.994,-0.049,-1.007,-0.854,1.038,73.333,858081.000,1.000
4.246,-15.796,0.839,2.638,-3.190,-6.553,-12.495,1.874,-0.043,0.992,-0.050,-0.977,-0.671,1.038,73.333,858082.000,1.000
5.836,-13.917,2.955,4.070,-2.523,-7.788,-13.725,0.050,-0.043,0.992,-0.046,-0.885,-0.488,1.160,73.333,858083.000,1.000
6.860,-11.759,4.567,3.617,-2.718,-8.699,-14.553,-5.225,-0.045,0.990,-0.049,-0.946,-0.427,1.160,73.333,858084.000,1.000
7.084,-9.637,5.479,1.639,-3.358,-9.447,-15.197,-11.147,-0.046,0.990,-0.049,-0.885,-0.427,1.190,73.333,858085.000,1.000
6.809,-7.103,6.139,-0.415,-2.937,-8.718,-14.224,-13.699,-0.049,0.992,-0.047,-0.702,-0.366,1.068,73.333,858086.000,1.000
6.775,-3.340,7.457,-0.933,0.057,-4.760,-9.702,-10.289,-0.054,0.992,-0.047,-0.519,-0.397,1.007,73.333,858087.000,1.000
7.524,1.784,9.803,0.620,5.483,2.177,-1.792,-1.963,-0.055,0.996,-0.047,-0.610,-0.458,0.946,73.333,858088.000,1.000
8.866,7.247,12.411,3.329,11.282,9.435,6.586,7.089,-0.056,0.996,-0.047,-0.671,-0.580,0.824,73.333,858089.000,1.000
10.091,11.548,14.073,5.715,15.045,14.132,11.800,12.561,-0.057,0.997,-0.048,-0.610,-0.763,0.671,73.333,858090.000,1.000
10.667,13.696,14.167,6.935,15.854,15.394,12.475,13.060,-0.055,0.999,-0.044,-0.702,-0.977,0.519,73.333,858091.000,1.000
10.636,13.575,13.095,7.186,14.629,14.401,10.662,10.650,-0.054,1.000,-0.048,-0.732,-0.977,0.488,73.333,858092.000,1.000
10.355,11.592,11.562,6.982,12.724,12.445,9.211,8.273,-0.053,0.999,-0.052,-0.885,-0.977,0.427,73.333,858093.000,1.000
10.041,8.232,9.738,6.323,10.427,9.252,8.271,6.698,-0.052,0.999,-0.051,-0.732,-1.099,0.366,73.333,858094.000,1.000
9.646,4.052,7.395,4.852,7.186,3.833,5.834,4.584,-0.052,1.001,-0.048,-0.763,-1.068,0.275,73.333,858095.000,1.000
9.093,-0.064,4.508,2.653,3.123,-3.094,1.210,1.090,-0.050,1.001,-0.050,-0.885,-1.160,0.244,73.333,858096.000,1.000
8.481,-2.947,1.683,0.534,-0.364,-8.412,-3.291,-2.662,-0.050,1.001,-0.048,-0.916,-1.038,0.305,73.333,858097.000,1.000
7.988,-3.717,-0.244,-0.543,-1.662,-8.854,-4.292,-4.675,-0.050,1.000,-0.049,-0.854,-1.068,0.305,73.333,858098.000,1.000
7.613,-2.462,-0.886,-0.248,-0.471,-4.146,-0.573,-3.887,-0.050,0.999,-0.049,-0.854,-1.129,0.275,73.333,858099.000,1.000
7.120,-0.277,-0.468,0.900,1.896,2.504,5.892,-0.872,-0.048,1.000,-0.048,-0.946,-1.038,0.336,73.333,858100.000,1.000
6.251,1.488,0.332,2.030,3.606,7.115,11.589,2.662,-0.047,0.998,-0.048,-0.824,-1.038,0.366,73.333,858101.000,1.000
4.952,2.039,0.881,2.569,3.554,7.535,13.726,5.054,-0.047,0.996,-0.052,-0.854,-1.007,0.336,73.333,858102.000,1.000
3.498,1.556,0.988,2.590,2.009,4.260,11.864,5.937,-0.048,0.997,-0.048,-0.793,-0.946,0.519,73.333,858103.000,1.000
2.440,1.081,1.046,2.620,0.392,0.105,8.173,6.337,-0.049,0.998,-0.047,-0.793,-0.885,0.519,73.333,858104.000,1.000
2.191,1.721,1.568,2.951,0.004,-1.761,5.233,7.020,-0.051,0.998,-0.047,-0.671,-0.885,0.610,73.333,858105.000,1.000
2.623,3.736,2.361,3.147,0.735,-0.596,3.219,7.115,-0.048,0.997,-0.049,-0.641,-1.038,0.763,73.333,858106.000,1.000
3.212,6.545,2.793,2.573,1.413,1.637,0.404,5.122,-0.050,0.997,-0.050,-0.610,-0.977,0.732,73.333,858107.000,1.000
3.507,9.470,2.653,1.262,1.380,3.100,-3.560,0.924,-0.050,0.999,-0.051,-0.580,-0.977,0.702,73.333,858108.000,1.000
3.339,12.137,2.379,-0.029,1.145,4.035,-6.307,-3.719,-0.050,0.998,-0.047,-0.580,-0.977,0.671,73.333,858109.000,1.000
2.722,14.285,2.477,-0.555,1.481,5.456,-5.306,-6.454,-0.051,0.999,-0.046,-0.549,-1.007,0.671,73.333,858110.000,1.000
1.732,15.602,2.904,-0.181,2.478,7.376,-0.555,-5.849,-0.052,0.997,-0.048,-0.580,-0.977,0.610,73.333,858111.000,1.000
0.500,15.933,3.318,0.700,3.684,9.174,5.943,-2.070,-0.054,0.996,-0.051,-0.519,-1.007,0.671,73.333,858112.000,1.000
-0.720,15.411,3.419,1.524,4.495,10.464,11.526,3.026,-0.054,0.996,-0.050,-0.549,-1.129,0.702,73.333,858113.000,1.000
-1.571,14.303,3.015,1.808,4.268,10.864,13.589,6.608,-0.055,0.996,-0.047,-0.519,-1.221,0.610,73.333,858114.000,1.000
-1.732,12.908,2.172,1.433,2.724,10.048,11.267,6.758,-0.053,0.996,-0.046,-0.397,-1.221,0.519,73.333,858115.000,1.000
-1.095,11.569,1.213,0.792,0.403,8.331,6.608,4.059,-0.053,0.994,-0.047,-0.397,-1.221,0.549,73.333,858116.000,1.000
0.213,10.638,0.619,0.583,-1.618,6.429,2.864,1.035,-0.053,0.993,-0.047,-0.397,-1.343,0.488,73.333,858117.000,1.000
1.948,10.323,0.646,1.285,-2.511,4.812,1.826,-0.126,-0.053,0.993,-0.049,-0.305,-1.465,0.458,73.333,858118.000,1.000
3.769,10.468,1.021,2.690,-2.262,3.692,3.129,0.679,-0.053,0.993,-0.047,-0.214,-1.373,0.427,73.333,858119.000,1.000
5.284,10.640,1.210,3.977,-1.545,3.276,5.362,1.878,-0.054,0.994,-0.048,-0.336,-1.404,0.458,73.333,858120.000,1.000
6.327,10.655,0.968,4.489,-0.923,3.835,7.523,2.169,-0.053,0.993,-0.049,-0.275,-1.526,0.458,73.333,858121.000,1.000
7.106,10.753,0.655,4.304,-0.385,5.288,9.534,1.681,-0.053,0.993,-0.049,-0.336,-1.465,0.397,73.333,858122.000,1.000
7.858,11.068,0.694,3.872,0.203,6.642,11.248,1.284,-0.053,0.993,-0.049,-0.214,-1.526,0.458,73.333,858123.000,1.000
8.542,11.324,1.122,3.463,0.647,6.423,11.633,1.389,-0.052,0.992,-0.047,-0.214,-1.465,0.366,73.333,858124.000,1.000
8.955,11.198,1.784,3.076,0.592,3.912,9.372,1.518,-0.051,0.992,-0.048,-0.122,-1.465,0.427,73.333,858125.000,1.000
8.980,10.744,2.486,2.644,-0.064,-0.124,4.171,0.924,-0.051,0.991,-0.050,-0.061,-1.526,0.488,73.333,858126.000,1.000
8.617,10.319,3.131,2.220,-0.997,-3.914,-2.559,-0.450,-0.048,0.992,-0.052,-0.061,-1.556,0.427,73.333,858127.000,1.000
7.865,10.268,3.666,1.991,-1.585,-5.701,-8.125,-1.816,-0.048,0.993,-0.050,0.061,-1.465,0.458,73.333,858128.000,1.000
6.765,10.881,4.145,2.198,-1.068,-4.242,-9.393,-2.084,-0.049,0.993,-0.051,0.031,-1.495,0.549,73.333,858129.000,1.000
5.442,12.340,4.766,2.945,1.007,0.578,-4.679,-0.538,-0.049,0.995,-0.050,0.061,-1.465,0.488,73.333,858130.000,1.000
3.990,14.358,5.435,3.930,4.098,6.865,4.089,2.628,-0.050,0.994,-0.049,0.092,-1.526,0.458,73.333,858131.000,1.000
2.419,16.102,5.708,4.461,6.628,11.185,11.959,6.065,-0.051,0.994,-0.054,0.000,-1.556,0.519,73.333,858132.000,1.000
0.754,16.696,5.085,3.822,6.853,10.580,14.006,7.520,-0.049,0.995,-0.052,-0.153,-1.465,0.488,73.333,858133.000,1.000
-0.851,15.784,3.506,1.857,4.156,4.687,8.638,5.385,-0.051,0.995,-0.052,-0.061,-1.404,0.519,73.333,858134.000,1.000
-2.123,13.750,1.645,-0.695,-0.145,-3.526,-0.757,0.601,-0.051,0.996,-0.053,-0.092,-1.373,0.519,73.333,858135.000,1.000
-2.837,11.534,0.441,-2.648,-3.441,-9.198,-7.784,-3.687,-0.049,0.995,-0.054,-0.153,-1.312,0.458,73.333,858136.000,1.000
-2.945,10.130,0.512,-3.175,-3.645,-8.679,-7.673,-4.605,-0.052,0.996,-0.049,-0.275,-1.251,0.488,73.333,858137.000,1.000
-2.572,9.983,1.719,-2.273,-0.645,-2.213,-0.654,-1.556,-0.052,0.998,-0.052,-0.305,-1.160,0.458,73.333,858138.000,1.000
-1.824,10.851,3.377,-0.490,3.925,6.425,9.130,3.927,-0.051,0.997,-0.052,-0.366,-1.190,0.519,73.333,858139.000,1.000
-0.622,12.260,4.982,1.747,8.253,13.204,17.663,9.813,-0.050,0.997,-0.049,-0.549,-1.221,0.458,73.333,858140.000,1.000
1.090,13.764,6.394,4.329,11.403,16.340,23.323,14.762,-0.051,0.999,-0.051,-0.702,-1.160,0.519,73.333,858141.000,1.000
2.983,14.764,7.583,7.088,13.027,15.946,25.794,18.065,-0.052,0.998,-0.052,-0.854,-1.129,0.427,73.333,858142.000,1.000
4.326,14.514,8.211,9.391,12.758,12.587,24.288,19.106,-0.051,0.998,-0.048,-0.854,-1.129,0.427,73.333,858143.000,1.000
4.414,12.660,7.775,10.335,10.384,7.009,18.159,17.429,-0.051,0.999,-0.050,-0.916,-1.129,0.397,73.333,858144.000,1.000
3.094,9.716,6.214,9.447,6.513,0.798,8.830,13.418,-0.050,0.998,-0.051,-1.099,-0.977,0.488,73.333,858145.000,1.000
0.863,6.773,4.032,7.035,2.442,-3.997,-0.719,8.296,-0.050,0.996,-0.051,-1.190,-0.977,0.458,73.333,858146.000,1.000
-1.450,4.790,2.062,3.875,-0.767,-6.282,-8.191,3.150,-0.049,0.997,-0.053,-1.190,-0.977,0.488,73.333,858147.000,1.000
-3.031,4.282,1.134,0.868,-2.601,-6.138,-12.352,-1.397,-0.047,0.997,-0.051,-1.282,-0.916,0.580,73.333,858148.000,1.000
-3.339,5.402,1.816,-1.092,-2.662,-3.839,-12.083,-4.492,-0.050,0.998,-0.051,-1.343,-0.854,0.549,73.333,858149.000,1.000
-2.323,7.871,4.124,-1.428,-0.800,0.095,-7.249,-5.177,-0.053,0.998,-0.047,-1.373,-0.854,0.610,73.333,858150.000,1.000
-0.479,10.874,7.224,-0.291,2.284,4.224,-0.157,-3.657,-0.052,0.997,-0.050,-1.465,-0.885,0.580,73.333,858151.000,1.000
1.403,13.348,9.898,1.510,5.187,6.759,5.546,-1.534,-0.052,0.997,-0.051,-1.526,-0.824,0.580,73.333,858152.000,1.000
2.613,14.431,11.220,3.048,6.706,6.710,7.325,-0.279,-0.051,0.996,-0.048,-1.526,-0.702,0.671,73.333,858153.000,1.000
2.821,13.850,10.991,3.862,6.650,4.443,5.372,0.207,-0.053,0.995,-0.048,-1.587,-0.732,0.702,73.333,858154.000,1.000
2.215,12.080,9.762,4.059,5.779,1.433,2.190,1.049,-0.052,0.995,-0.047,-1.404,-0.763,0.763,73.333,858155.000,1.000
1.270,9.950,8.190,3.842,4.782,-1.086,-0.094,2.448,-0.051,0.996,-0.047,-1.495,-0.641,0.702,73.333,858156.000,1.000
0.394,8.047,6.612,3.159,3.531,-3.291,-1.654,3.038,-0.050,0.998,-0.047,-1.556,-0.702,0.641,73.333,858157.000,1.000
-0.175,6.623,5.087,1.962,1.694,-5.838,-3.525,1.568,-0.051,0.997,-0.048,-1.617,-0.580,0.763,73.333,858158.000,1.000
-0.218,5.895,3.763,0.646,-0.182,-8.053,-4.972,-1.174,-0.052,0.996,-0.047,-1.648,-0.580,0.763,73.333,858159.000,1.000
0.482,5.983,3.000,-0.078,-0.893,-8.230,-3.870,-2.859,-0.052,0.997,-0.048,-1.648,-0.610,0.732,73.333,858160.000,1.000
1.825,6.472,2.866,0.134,-0.015,-5.789,0.211,-2.098,-0.053,0.997,-0.048,-1.678,-0.610,0.732,73.333,858161.000,1.000
3.226,6.491,3.004,0.939,1.534,-2.201,4.831,0.435,-0.052,0.999,-0.048,-1.648,-0.610,0.763,73.333,858162.000,1.000
4.016,5.460,3.041,1.797,2.566,0.278,6.921,3.375,-0.054,0.998,-0.049,-1.678,-0.641,0.824,73.333,858163.000,1.000
3.981,3.684,3.008,2.560,2.850,0.481,5.693,6.114,-0.054,0.997,-0.046,-1.740,-0.671,0.854,73.333,858164.000,1.000
3.451,2.133,3.270,3.407,3.024,-0.911,2.994,8.546,-0.054,0.997,-0.047,-1.709,-0.610,0.793,73.333,858165.000,1.000
2.959,1.631,3.942,4.382,3.650,-2.319,1.100,10.302,-0.054,0.997,-0.045,-1.709,-0.610,0.763,73.333,858166.000,1.000
2.873,2.200,4.723,5.210,4.601,-2.736,0.912,10.762,-0.053,0.996,-0.042,-1.556,-0.549,0.793,73.333,858167.000,1.000
3.209,3.063,4.971,5.381,5.045,-2.367,1.584,9.088,-0.053,0.997,-0.048,-1.556,-0.610,0.885,73.333,858168.000,1.000
3.650,3.242,4.065,4.420,3.953,-2.161,1.173,4.470,-0.053,0.996,-0.047,-1.495,-0.580,0.885,73.333,858169.000,1.000
3.774,2.246,1.973,2.332,1.033,-2.780,-1.643,-2.732,-0.053,0.997,-0.047,-1.526,-0.641,0.916,73.333,858170.000,1.000
3.308,0.325,-0.687,-0.272,-2.811,-3.982,-6.208,-10.542,-0.054,0.996,-0.049,-1.404,-0.580,0.885,73.333,858171.000,1.000
2.317,-1.694,-2.915,-2.460,-5.937,-4.746,-10.181,-16.413,-0.053,0.995,-0.050,-1.343,-0.671,0.946,73.333,858172.000,1.000
1.259,-2.745,-3.770,-3.343,-6.835,-3.848,-11.031,-18.520,-0.052,0.994,-0.049,-1.221,-0.702,0.946,73.333,858173.000,1.000
0.673,-2.191,-2.927,-2.600,-5.119,-0.983,-7.776,-16.624,-0.052,0.995,-0.047,-1.190,-0.519,0.977,73.333,858174.000,1.000
0.631,-0.516,-1.073,-0.891,-2.071,2.358,-2.092,-12.295,-0.052,0.996,-0.051,-1.007,-0.580,0.916,73.333,858175.000,1.000
0.673,0.925,0.360,0.535,0.183,3.835,2.634,-7.891,-0.052,0.998,-0.047,-0.977,-0.641,0.977,73.333,858176.000,1.000
0.360,1.084,0.388,0.822,0.380,2.370,3.917,-4.883,-0.049,0.999,-0.048,-0.977,-0.580,0.885,73.333,858177.000,1.000
-0.243,0.009,-0.827,0.077,-1.027,-0.947,1.828,-3.108,-0.049,0.997,-0.049,-1.068,-0.580,0.946,73.333,858178.000,1.000
-0.614,-1.424,-2.284,-0.840,-2.448,-3.703,-1.270,-1.315,-0.048,0.995,-0.050,-1.068,-0.427,1.007,73.333,858179.000,1.000
-0.203,-2.296,-2.847,-0.988,-2.366,-3.656,-2.291,1.693,-0.049,0.995,-0.048,-1.038,-0.458,1.068,73.333,858180.000,1.000
1.180,-2.318,-2.026,-0.021,-0.320,-0.086,0.463,6.049,-0.049,0.998,-0.045,-1.038,-0.458,1.129,73.333,858181.000,1.000
3.193,-2.049,-0.252,1.513,2.737,5.581,5.996,10.488,-0.050,0.997,-0.043,-1.038,-0.458,0.977,73.333,858182.000,1.000
5.075,-2.507,1.362,2.470,4.968,10.286,10.861,13.041,-0.050,0.995,-0.044,-0.885,-0.427,1.099,73.333,858183.000,1.000
6.077,-4.346,1.817,1.991,4.876,11.189,11.316,12.401,-0.053,0.995,-0.042,-0.946,-0.397,1.160,73.333,858184.000,1.000
5.977,-7.207,1.080,0.258,2.459,7.869,6.388,8.877,-0.052,0.997,-0.044,-0.977,-0.458,1.099,73.333,858185.000,1.000
5.209,-9.899,-0.014,-1.623,-0.712,2.678,-1.055,4.311,-0.052,0.996,-0.044,-0.946,-0.427,1.007,73.333,858186.000,1.000
4.498,-11.296,-0.470,-2.504,-2.668,-1.266,-6.556,0.950,-0.052,0.995,-0.044,-0.977,-0.366,1.038,73.333,858187.000,1.000
4.332,-11.107,0.068,-2.052,-2.536,-2.435,-7.714,-0.154,-0.054,0.996,-0.043,-0.824,-0.427,1.068,73.333,858188.000,1.000
4.773,-9.896,1.237,-0.779,-0.935,-1.449,-5.666,0.373,-0.053,0.993,-0.042,-0.763,-0.488,0.977,73.333,858189.000,1.000
5.674,-8.433,2.598,0.618,0.951,0.326,-3.121,1.287,-0.054,0.995,-0.047,-0.793,-0.580,0.977,73.333,858190.000,1.000
6.945,-7.024,4.092,1.867,2.527,2.359,-1.390,2.047,-0.055,0.996,-0.046,-0.763,-0.580,1.007,73.333,858191.000,1.000
8.627,-5.339,6.104,3.289,4.124,4.977,0.622,3.354,-0.055,0.996,-0.048,-0.702,-0.610,1.007,73.333,858192.000,1.000
10.662,-2.965,8.854,5.331,6.269,8.037,4.450,6.298,-0.055,0.998,-0.047,-0.702,-0.580,0.916,73.333,858193.000,1.000
12.532,-0.168,11.727,7.794,8.555,10.080,9.286,10.449,-0.055,0.997,-0.049,-0.702,-0.671,1.038,73.333,858194.000,1.000
13.386,2.086,13.507,9.690,9.596,9.318,12.001,13.233,-0.054,0.995,-0.047,-0.763,-0.702,1.007,73.333,858195.000,1.000
12.716,3.006,13.296,10.072,8.422,5.582,10.402,12.031,-0.053,0.997,-0.048,-0.732,-0.824,1.038,73.333,858196.000,1.000
10.847,2.773,11.313,8.910,5.661,1.005,5.767,6.754,-0.052,0.995,-0.046,-0.732,-0.854,1.038,73.333,858197.000,1.000
8.714,2.391,8.689,7.051,3.075,-1.476,1.511,-0.017,-0.054,0.996,-0.044,-0.702,-0.854,1.099,73.333,858198.000,1.000
7.325,2.881,6.739,5.598,2.263,-0.220,0.345,-4.850,-0.054,0.996,-0.049,-0.671,-0.916,0.977,73.333,858199.000,1.000
7.318,4.586,6.366,5.364,3.838,4.218,2.923,-5.272,-0.054,0.994,-0.050,-0.641,-0.916,1.007,73.333,858200.000,1.000
8.650,6.918,7.529,6.496,7.228,9.655,7.730,-0.975,-0.052,0.995,-0.046,-0.763,-1.007,1.038,73.333,858201.000,1.000
10.561,8.668,9.273,8.340,10.943,13.750,12.001,5.870,-0.052,0.995,-0.048,-0.732,-1.038,1.068,73.333,858202.000,1.000
11.971,8.742,10.283,9.738,13.329,15.335,13.481,11.654,-0.052,0.995,-0.049,-0.824,-1.038,1.129,73.333,858203.000,1.000
12.011,6.685,9.553,9.600,13.298,14.270,11.506,13.333,-0.052,0.994,-0.052,-0.732,-0.946,1.038,73.333,858204.000,1.000
10.267,2.668,6.790,7.403,10.548,10.329,6.584,9.988,-0.051,0.992,-0.052,-0.610,-1.160,1.007,73.333,858205.000,1.000
6.835,-2.607,2.430,3.489,5.609,3.386,-0.097,3.070,-0.052,0.993,-0.051,-0.641,-1.251,1.007,73.333,858206.000,1.000
2.378,-7.903,-2.316,-0.966,-0.100,-5.147,-6.507,-4.543,-0.052,0.993,-0.048,-0.671,-1.282,0.885,73.333,858207.000,1.000
-2.081,-11.906,-5.952,-4.557,-4.788,-12.276,-10.470,-10.158,-0.053,0.996,-0.051,-0.580,-1.343,0.885,73.333,858208.000,1.000
-5.578,-13.950,-7.515,-6.407,-7.282,-15.521,-11.226,-12.576,-0.052,0.995,-0.051,-0.610,-1.312,0.854,73.333,858209.000,1.000
-7.500,-14.146,-6.934,-6.463,-7.566,-14.805,-10.137,-12.312,-0.052,0.995,-0.048,-0.580,-1.312,0.885,73.333,858210.000,1.000
-7.655,-12.925,-4.860,-5.249,-6.407,-12.021,-9.491,-10.686,-0.051,0.995,-0.049,-0.610,-1.251,0.854,73.333,858211.000,1.000
-6.329,-10.657,-2.111,-3.428,-4.462,-8.744,-9.919,-8.456,-0.052,0.997,-0.050,-0.580,-1.312,0.824,73.333,858212.000,1.000
-4.260,-7.590,0.632,-1.493,-1.716,-4.615,-9.297,-5.331,-0.049,0.996,-0.047,-0.488,-1.282,0.763,73.333,858213.000,1.000
-2.373,-3.970,2.898,0.285,2.100,1.653,-5.213,-0.808,-0.047,0.997,-0.048,-0.549,-1.312,0.824,73.333,858214.000,1.000
-1.405,-0.332,4.358,1.674,6.462,9.599,1.483,4.586,-0.049,0.998,-0.048,-0.519,-1.343,0.732,73.333,858215.000,1.000
-1.639,2.395,4.607,2.293,9.720,16.016,6.395,8.876,-0.049,0.998,-0.048,-0.610,-1.312,0.580,73.333,858216.000,1.000
-2.808,3.456,3.459,1.834,10.229,17.456,5.400,9.755,-0.048,1.000,-0.047,-0.702,-1.282,0.610,73.333,858217.000,1.000
-4.280,2.954,1.299,0.455,7.828,13.514,-1.488,6.487,-0.048,0.999,-0.046,-0.732,-1.312,0.671,73.333,858218.000,1.000
-5.441,1.871,-0.991,-1.177,4.095,7.225,-10.091,0.774,-0.049,0.997,-0.046,-0.702,-1.404,0.641,73.333,858219.000,1.000
-5.911,1.408,-2.414,-2.214,1.318,2.599,-15.291,-4.240,-0.051,0.998,-0.050,-0.763,-1.312,0.702,73.333,858220.000,1.000
-5.521,2.297,-2.363,-2.022,1.210,2.098,-14.136,-5.850,-0.050,0.998,-0.048,-0.763,-1.221,0.580,73.333,858221.000,1.000
-4.273,4.492,-0.803,-0.438,4.095,5.711,-6.871,-3.244,-0.047,0.998,-0.050,-0.885,-1.190,0.702,73.333,858222.000,1.000
-2.375,7.264,1.687,2.120,8.808,11.617,3.647,2.038,-0.047,0.998,-0.047,-0.946,-1.312,0.763,73.333,858223.000,1.000
-0.163,9.693,4.252,4.893,13.483,17.695,13.526,7.188,-0.048,0.999,-0.045,-0.946,-1.160,0.702,73.333,858224.000,1.000
2.077,11.170,6.327,7.237,16.635,22.301,19.580,10.095,-0.049,0.998,-0.043,-1.038,-1.099,0.610,73.333,858225.000,1.000
4.030,11.348,7.605,8.731,17.465,23.792,20.120,10.249,-0.051,0.998,-0.046,-1.129,-1.099,0.671,73.333,858226.000,1.000
5.310,9.941,7.926,9.144,15.740,20.774,15.391,8.356,-0.050,0.999,-0.045,-1.221,-0.977,0.641,73.333,858227.000,1.000
5.729,6.954,7.367,8.559,11.881,13.342,7.505,5.633,-0.049,0.996,-0.049,-1.404,-0.977,0.610,73.333,858228.000,1.000
5.452,2.895,6.244,7.290,6.810,3.296,-0.840,2.964,-0.048,0.995,-0.047,-1.373,-0.946,0.580,73.333,858229.000,1.000
4.813,-1.349,5.011,5.669,1.634,-6.455,-7.469,0.544,-0.051,0.995,-0.048,-1.404,-0.977,0.549,73.333,858230.000,1.000
4.130,-4.773,4.099,4.094,-2.461,-12.690,-10.947,-1.504,-0.052,0.995,-0.047,-1.434,-0.946,0.610,73.333,858231.000,1.000
3.599,-6.654,3.732,2.990,-4.624,-13.598,-10.996,-2.727,-0.051,0.995,-0.046,-1.343,-1.068,0.671,73.333,858232.000,1.000
3.140,-6.977,3.602,2.437,-4.905,-10.075,-8.683,-2.829,-0.051,0.994,-0.050,-1.404,-1.007,0.671,73.333,858233.000,1.000
2.444,-6.344,3.050,2.121,-3.993,-4.656,-5.176,-1.875,-0.051,0.995,-0.046,-1.434,-1.099,0.610,73.333,858234.000,1.000
1.289,-5.371,1.785,1.750,-2.429,0.591,-0.663,-0.073,-0.053,0.996,-0.048,-1.404,-1.038,0.732,73.333,858235.000,1.000
-0.300,-4.363,0.044,1.190,-0.511,4.728,4.609,1.852,-0.052,0.995,-0.050,-1.404,-1.099,0.702,73.333,858236.000,1.000
-2.261,-3.539,-1.797,0.218,1.152,7.197,8.980,2.331,-0.051,0.994,-0.049,-1.251,-1.221,0.793,73.333,858237.000,1.000
-4.644,-3.202,-3.579,-1.406,1.658,7.145,9.941,0.105,-0.051,0.990,-0.047,-1.343,-1.251,0.854,73.333,858238.000,1.000
-7.374,-3.447,-5.193,-3.490,0.565,3.696,5.954,-4.164,-0.052,0.990,-0.045,-1.373,-1.251,0.885,73.333,858239.000,1.000
-9.989,-3.810,-6.332,-5.308,-1.616,-2.823,-2.132,-8.161,-0.051,0.989,-0.048,-1.221,-1.251,0.824,73.333,858240.000,1.000
-11.795,-3.411,-6.679,-6.054,-3.684,-10.082,-11.184,-9.783,-0.051,0.990,-0.047,-1.221,-1.282,0.854,73.333,858241.000,1.000
-12.260,-1.496,-6.023,-5.274,-4.381,-14.847,-17.385,-8.275,-0.052,0.989,-0.049,-1.190,-1.251,0.885,73.333,858242.000,1.000
-11.267,1.997,-4.424,-3.092,-3.049,-15.028,-18.270,-4.272,-0.052,0.990,-0.048,-0.916,-1.312,0.977,73.333,858243.000,1.000
-9.073,6.361,-2.282,-0.205,-0.014,-10.571,-13.733,0.510,-0.053,0.995,-0.046,-0.977,-1.343,0.977,73.333,858244.000,1.000
-6.118,10.557,-0.077,2.472,3.603,-3.026,-5.669,4.103,-0.050,0.997,-0.046,-0.916,-1.373,0.916,73.333,858245.000,1.000
-2.925,13.690,1.757,4.321,6.519,5.080,3.060,5.533,-0.053,1.000,-0.043,-0.885,-1.434,0.854,73.333,858246.000,1.000
0.001,15.277,2.990,5.329,7.963,11.037,9.860,5.424,-0.051,1.003,-0.045,-0.916,-1.373,0.793,73.333,858247.000,1.000
2.322,15.289,3.574,5.868,7.868,12.995,13.038,5.051,-0.054,1.004,-0.044,-0.977,-1.282,0.854,73.333,858248.000,1.000
3.936,14.023,3.510,6.188,6.520,10.678,11.914,4.925,-0.052,1.007,-0.044,-1.160,-1.373,0.671,73.333,858249.000,1.000
4.970,12.078,2.962,6.335,4.451,5.725,7.351,4.765,-0.052,1.007,-0.047,-1.465,-1.373,0.580,73.333,858250.000,1.000
5.640,10.279,2.346,6.353,2.569,1.426,2.034,4.423,-0.049,1.003,-0.046,-1.617,-1.373,0.519,73.333,858251.000,1.000
6.006,9.170,2.143,6.224,1.735,0.721,-1.080,4.127,-0.046,1.000,-0.046,-1.678,-1.465,0.549,73.333,858252.000,1.000
5.930,8.502,2.409,5.745,1.924,3.372,-1.283,3.960,-0.045,0.997,-0.047,-1.648,-1.465,0.458,73.333,858253.000,1.000
5.342,7.461,2.696,4.748,2.263,6.138,-0.340,3.748,-0.042,0.994,-0.043,-1.678,-1.373,0.610,73.333,858254.000,1.000
4.520,5.604,2.693,3.574,2.228,6.462,0.321,3.781,-0.040,0.992,-0.044,-1.709,-1.160,0.671,73.333,858255.000,1.000
4.003,3.361,2.599,3.047,2.415,4.924,1.570,5.092,-0.039,0.990,-0.044,-1.556,-1.068,0.702,73.333,858256.000,1.000
4.036,1.419,2.704,3.586,3.511,3.719,4.659,7.969,-0.042,0.990,-0.048,-1.556,-0.885,0.763,73.333,858257.000,1.000
4.216,-0.141,2.688,4.494,4.907,3.896,8.344,10.493,-0.044,0.991,-0.046,-1.343,-0.519,0.854,73.333,858258.000,1.000
3.836,-1.784,1.851,4.589,5.147,4.609,9.670,10.026,-0.047,0.995,-0.044,-1.343,-0.610,0.793,73.333,858259.000,1.000
2.484,-3.929,-0.090,3.247,3.295,4.088,6.878,5.797,-0.050,0.996,-0.046,-1.404,-0.549,0.885,73.333,858260.000,1.000
0.318,-6.536,-2.834,0.639,-0.518,1.190,0.701,-0.828,-0.051,0.996,-0.048,-1.373,-0.549,0.946,73.333,858261.000,1.000
-1.990,-8.973,-5.657,-2.478,-5.178,-3.233,-5.988,-7.592,-0.048,0.996,-0.049,-1.465,-0.641,1.007,73.333,858262.000,1.000
-3.697,-10.398,-7.827,-5.067,-9.076,-6.766,-9.972,-12.444,-0.048,0.997,-0.051,-1.465,-0.641,1.099,73.333,858263.000,1.000
-4.596,-10.452,-9.086,-6.353,-11.059,-7.550,-9.964,-14.288,-0.048,0.998,-0.052,-1.373,-0.549,1.251,73.333,858264.000,1.000
-5.179,-9.486,-9.802,-6.313,-11.120,-5.733,-7.238,-13.335,-0.049,0.999,-0.048,-1.343,-0.610,1.282,73.333,858265.000,1.000
-6.176,-8.239,-10.754,-5.697,-10.266,-3.136,-4.511,-10.940,-0.048,0.998,-0.050,-1.251,-0.610,1.404,73.333,858266.000,1.000
-7.867,-7.289,-12.390,-5.427,-9.691,-1.803,-4.036,-8.720,-0.050,0.997,-0.050,-1.160,-0.610,1.373,73.333,858267.000,1.000
-9.763,-6.589,-14.283,-5.807,-9.796,-2.363,-5.753,-7.329,-0.052,0.997,-0.047,-1.160,-0.641,1.312,73.333,858268.000,1.000
-11.039,-5.574,-15.480,-6.398,-10.007,-3.500,-7.057,-6.169,-0.055,0.999,-0.046,-1.099,-0.519,1.221,73.333,858269.000,1.000
-11.361,-3.926,-15.434,-6.790,-9.770,-3.626,-5.324,-4.612,-0.056,0.999,-0.043,-1.190,-0.732,1.099,73.333,858270.000,1.000
-11.182,-2.104,-14.619,-7.241,-9.507,-3.204,-1.009,-3.153,-0.058,1.001,-0.043,-1.251,-0.916,0.824,73.333,858271.000,1.000
-11.169,-0.853,-13.952,-8.284,-10.169,-4.231,2.603,-2.873,-0.060,1.003,-0.040,-1.343,-1.099,0.702,73.333,858272.000,1.000
-11.456,-0.309,-13.843,-9.899,-11.980,-7.278,2.660,-4.084,-0.058,1.005,-0.040,-1.465,-1.190,0.519,73.333,858273.000,1.000
-11.586,0.097,-13.981,-11.404,-14.083,-10.492,-0.757,-6.064,-0.057,1.009,-0.043,-1.587,-1.343,0.366,73.333,858274.000,1.000
-11.128,0.860,-13.885,-12.146,-15.477,-11.793,-5.196,-8.114,-0.055,1.008,-0.043,-1.740,-1.434,0.275,73.333,858275.000,1.000
-10.168,1.829,-13.488,-11.996,-15.840,-10.752,-8.158,-10.102,-0.052,1.008,-0.040,-1.862,-1.526,0.122,73.333,858276.000,1.000
-9.139,2.418,-12.932,-11.083,-15.328,-8.282,-8.384,-11.604,-0.049,1.008,-0.043,-2.045,-1.556,0.092,73.333,858277.000,1.000
-8.465,1.968,-12.344,-9.567,-14.318,-5.962,-6.253,-11.785,-0.047,1.005,-0.041,-2.197,-1.556,0.122,73.333,858278.000,1.000
-8.488,-0.091,-11.958,-7.871,-13.583,-5.726,-3.878,-10.643,-0.043,1.005,-0.043,-2.289,-1.556,0.153,73.333,858279.000,1.000
-9.369,-3.857,-11.975,-6.599,-13.912,-8.636,-3.665,-9.315,-0.043,1.003,-0.044,-2.258,-1.495,0.153,73.333,858280.000,1.000
-10.788,-8.537,-12.206,-6.010,-15.253,-13.570,-6.122,-8.844,-0.041,1.002,-0.043,-2.380,-1.404,0.122,73.333,858281.000,1.000
-11.950,-12.644,-11.959,-5.780,-16.500,-17.541,-9.053,-9.124,-0.043,1.000,-0.043,-2.289,-1.312,0.244,73.333,858282.000,1.000
-12.138,-14.843,-10.608,-5.434,-16.295,-17.565,-9.076,-9.221,-0.045,0.998,-0.044,-2.197,-1.312,0.336,73.333,858283.000,1.000
-11.246,-14.824,-8.334,-4.932,-14.292,-12.996,-4.840,-8.713,-0.045,0.995,-0.045,-2.136,-1.099,0.397,73.333,858284.000,1.000
-9.792,-13.484,-6.180,-4.714,-11.676,-6.594,1.089,-8.335,-0.046,0.993,-0.043,-2.136,-1.038,0.458,73.333,858285.000,1.000
-8.472,-12.153,-5.340,-5.152,-10.160,-2.639,4.428,-8.967,-0.047,0.993,-0.041,-2.106,-1.068,0.458,73.333,858286.000,1.000
-7.633,-11.543,-6.154,-6.024,-10.416,-3.471,3.167,-10.332,-0.047,0.993,-0.041,-1.892,-0.977,0.488,73.333,858287.000,1.000
-7.130,-11.469,-7.914,-6.655,-11.626,-7.873,-1.076,-11.132,-0.051,0.993,-0.041,-1.770,-0.854,0.488,73.333,858288.000,1.000
-6.583,-11.387,-9.508,-6.494,-12.380,-12.436,-4.960,-10.305,-0.050,0.992,-0.043,-1.709,-0.885,0.366,73.333,858289.000,1.000
-5.697,-10.982,-10.137,-5.523,-11.843,-14.133,-6.119,-8.045,-0.050,0.993,-0.041,-1.556,-0.824,0.488,73.333,858290.000,1.000
-4.450,-10.418,-9.771,-4.222,-10.249,-12.069,-4.372,-5.662,-0.052,0.992,-0.042,-1.495,-0.916,0.519,73.333,858291.000,1.000
-3.154,-10.242,-8.998,-3.200,-8.518,-7.855,-1.152,-4.426,-0.053,0.992,-0.041,-1.190,-0.977,0.427,73.333,858292.000,1.000
-2.252,-10.948,-8.522,-2.809,-7.542,-4.623,1.501,-4.566,-0.053,0.990,-0.041,-1.251,-1.007,0.458,73.333,858293.000,1.000
-1.898,-12.385,-8.590,-2.927,-7.494,-4.534,2.336,-5.197,-0.052,0.993,-0.043,-1.129,-0.885,0.427,73.333,858294.000,1.000
-1.792,-13.595,-8.712,-3.059,-7.508,-6.389,2.524,-4.991,-0.052,0.992,-0.045,-1.099,-0.946,0.397,73.333,858295.000,1.000
-1.539,-13.531,-8.234,-2.825,-6.464,-6.722,4.524,-3.384,-0.051,0.991,-0.040,-1.038,-0.977,0.397,73.333,858296.000,1.000
