EEG 1,EEG 2,EEG 3,EEG 4,EEG 5,EEG 6,EEG 7,EEG 8,Accelerometer X,Accelerometer Y,Accelerometer Z,Gyroscope X,Gyroscope Y,Gyroscope Z,Battery Level,Counter,Validation Indicator
-1833.161,554.857,-3809.706,-9363.393,1055.921,3423.844,45.951,3595.332,-0.074,0.857,0.540,0.000,0.000,0.000,80.000,1.000,1.000
-14912.122,2936.459,-17636.381,-62566.667,24355.265,34864.337,31023.398,30796.516,-0.082,0.868,0.537,0.000,0.000,0.000,80.000,2.000,1.000
-56935.570,6929.626,-56362.335,-207081.786,80780.111,120652.940,111996.855,101078.181,-0.086,0.874,0.536,0.000,0.000,0.000,80.000,3.000,1.000
-135274.578,14086.520,-120509.870,-438436.901,151028.628,264944.216,230341.660,211984.728,-0.089,0.875,0.538,0.000,0.000,0.000,80.000,4.000,1.000
-223991.329,36762.499,-187947.551,-663200.016,183429.694,436101.457,325662.036,336229.026,-0.092,0.878,0.540,0.000,0.000,0.000,80.000,5.000,1.000
-268422.382,95477.799,-225971.103,-749241.942,135615.043,587585.768,335453.488,444621.906,-0.094,0.882,0.539,-5.829,1.923,3.448,80.000,6.000,1.000
-217643.724,200986.204,-211881.160,-622383.396,-780.207,682469.656,239679.222,520555.504,-0.090,0.885,0.542,-6.042,1.221,1.892,80.000,7.000,1.000
-56297.755,341269.239,-144272.039,-317114.822,-208898.974,707415.796,57561.077,561382.226,-0.089,0.885,0.541,-4.639,0.488,0.336,80.000,8.000,1.000
183017.515,485265.282,-42098.375,49729.102,-454725.507,675892.453,-176989.675,576559.508,-0.086,0.886,0.540,-4.181,0.031,-0.122,80.000,9.000,1.000
431509.533,597913.826,65404.059,345624.788,-690290.180,616400.928,-422223.600,581748.174,-0.084,0.886,0.542,-4.059,-0.305,-0.275,80.000,10.000,1.000
617713.760,656539.670,154623.131,490901.432,-871942.916,551074.940,-630666.169,586756.472,-0.088,0.886,0.543,-4.120,-0.549,-0.366,80.000,11.000,1.000
703801.517,659645.318,218575.066,495093.634,-982542.298,483264.375,-771139.725,585212.569,-0.089,0.885,0.547,-4.181,-0.763,-0.488,80.000,12.000,1.000
697740.911,622331.480,263241.065,434544.972,-1031182.472,404805.130,-845521.044,559422.915,-0.092,0.884,0.545,-4.211,-1.007,-0.580,80.000,13.000,1.000
634700.459,562561.758,295672.764,387400.890,-1035444.081,313128.132,-872622.042,498700.716,-0.096,0.881,0.546,-4.242,-1.282,-0.702,80.000,14.000,1.000
548351.570,490837.200,316953.619,381254.951,-1011183.627,219757.250,-866872.646,410356.879,-0.099,0.878,0.551,-4.181,-1.770,-0.854,80.000,15.000,1.000
456361.992,410069.079,324674.700,395728.319,-975490.035,142297.045,-841762.111,312395.264,-0.100,0.874,0.549,-4.181,-2.106,-0.977,80.000,16.000,1.000
364846.024,322584.259,319929.402,405002.115,-947416.805,89884.544,-818715.776,220674.109,-0.101,0.871,0.551,-4.242,-2.655,-1.099,80.000,17.000,1.000
279318.867,236728.242,309875.098,407280.745,-938434.447,58151.524,-815931.976,144735.344,-0.102,0.869,0.551,-4.150,-3.143,-1.373,80.000,18.000,1.000
208772.409,165724.031,302557.490,414069.698,-944121.235,37448.302,-830620.707,90486.165,-0.101,0.866,0.552,-4.089,-3.693,-1.617,80.000,19.000,1.000
160250.848,118963.387,300404.522,425147.855,-950125.544,22872.906,-842241.138,60541.432,-0.099,0.864,0.551,-4.028,-4.059,-1.587,80.000,20.000,1.000
132595.383,95131.701,300117.276,426699.002,-947181.857,14986.084,-834862.429,50991.208,-0.097,0.858,0.553,-3.967,-4.395,-1.648,80.000,21.000,1.000
117931.063,84912.790,298298.450,412072.602,-938123.765,13473.328,-810742.901,51537.665,-0.096,0.854,0.550,-3.815,-4.761,-1.648,80.000,22.000,1.000
108801.448,79599.999,295411.630,393270.608,-930454.853,13939.367,-780574.377,51878.946,-0.096,0.852,0.552,-3.693,-5.005,-1.678,80.000,23.000,1.000
102276.977,75794.857,293859.645,386782.068,-925945.402,11753.070,-746600.596,48088.845,-0.099,0.853,0.555,-3.418,-5.402,-1.678,80.000,24.000,1.000
97698.000,72874.393,293903.670,393629.838,-920284.626,6814.821,-701591.990,42258.586,-0.099,0.854,0.556,-3.113,-5.676,-1.831,80.000,25.000,1.000
93138.160,69090.275,293200.393,399974.760,-910941.956,2624.659,-643196.670,37037.137,-0.097,0.856,0.558,-2.960,-5.981,-1.831,80.000,26.000,1.000
85928.434,62099.925,290119.458,395716.759,-901237.650,1256.982,-582275.603,32203.326,-0.096,0.859,0.560,-2.930,-6.378,-1.831,80.000,27.000,1.000
75849.613,52231.412,285970.225,385789.731,-895570.092,974.624,-533152.084,26407.345,-0.091,0.862,0.558,-2.777,-6.653,-1.770,80.000,28.000,1.000
65838.618,42908.301,283237.462,381158.129,-893317.030,-971.406,-498815.398,20168.061,-0.089,0.862,0.561,-2.716,-6.866,-1.556,80.000,29.000,1.000
58822.995,37057.647,282453.023,383865.038,-889841.084,-4695.982,-470142.861,15527.723,-0.090,0.862,0.562,-2.716,-7.019,-1.495,80.000,30.000,1.000
54667.094,34070.491,281817.649,385875.458,-882621.743,-7924.158,-438725.045,13222.496,-0.088,0.864,0.559,-2.869,-7.141,-1.312,80.000,31.000,1.000
50897.660,31065.577,279717.807,381000.706,-874005.355,-9212.749,-405920.738,11622.751,-0.089,0.863,0.560,-2.869,-7.324,-1.282,80.000,32.000,1.000
45882.346,26498.579,276630.094,372686.150,-867357.857,-9628.674,-378001.558,8820.437,-0.089,0.862,0.562,-2.991,-7.477,-1.190,80.000,33.000,1.000
40367.828,21495.816,274164.165,368356.433,-861977.158,-11033.645,-356245.244,4851.041,-0.090,0.865,0.564,-3.174,-7.629,-1.038,80.000,34.000,1.000
35910.815,17744.771,272881.108,369530.616,-853004.311,-13676.552,-335597.925,1214.772,-0.087,0.867,0.563,-3.357,-7.782,-0.977,80.000,35.000,1.000
32709.235,15178.627,271773.848,370822.475,-835975.561,-16180.737,-312117.249,-1258.182,-0.085,0.868,0.563,-3.418,-7.812,-0.854,80.000,36.000,1.000
29571.792,12363.169,269767.781,367640.252,-810309.032,-17498.762,-287975.610,-3229.255,-0.082,0.869,0.565,-3.540,-7.935,-0.702,80.000,37.000,1.000
25637.922,8592.180,267055.526,361580.130,-778352.587,-18090.350,-267800.106,-5624.147,-0.076,0.872,0.567,-3.815,-7.965,-0.305,80.000,38.000,1.000
21407.626,4721.975,264664.421,357333.092,-742701.359,-19077.055,-252385.635,-8378.646,-0.073,0.874,0.565,-4.089,-7.935,-0.092,80.000,39.000,1.000
17942.470,1883.501,263090.367,356499.402,-705521.318,-20812.391,-238236.785,-10772.735,-0.071,0.875,0.566,-4.333,-7.690,0.092,80.000,40.000,1.000
15518.098,36.823,261802.335,356366.631,-669363.134,-22659.143,-222497.503,-12542.029,-0.068,0.875,0.569,-4.608,-7.599,0.427,80.000,41.000,1.000
13414.497,-1810.177,260039.929,354012.044,-636807.365,-23928.839,-206091.943,-14124.201,-0.067,0.875,0.572,-4.883,-7.355,0.519,80.000,42.000,1.000
10873.075,-4281.798,257724.402,349692.014,-608824.213,-24638.923,-191583.581,-15929.301,-0.069,0.872,0.573,-5.066,-7.294,0.732,80.000,43.000,1.000
7917.987,-7006.823,255418.796,345797.769,-584182.581,-25326.276,-179601.431,-17847.794,-0.073,0.870,0.577,-5.310,-7.080,0.671,80.000,44.000,1.000
5170.496,-9275.919,253581.678,343721.374,-560898.264,-26387.254,-168555.321,-19582.193,-0.075,0.868,0.577,-5.524,-6.866,0.671,80.000,45.000,1.000
3066.110,-10927.454,252085.557,342641.727,-537963.449,-27727.625,-157092.972,-21106.682,-0.079,0.865,0.577,-5.646,-6.653,0.732,80.000,46.000,1.000
1414.847,-12397.995,250458.827,340922.080,-515519.403,-28942.767,-145520.891,-22573.405,-0.082,0.865,0.580,-5.676,-6.653,0.732,80.000,47.000,1.000
-313.582,-14103.214,248444.449,337893.654,-493916.333,-29736.960,-134817.400,-23984.498,-0.081,0.865,0.583,-5.768,-6.744,0.671,80.000,48.000,1.000
-2391.033,-16008.749,246241.953,334260.446,-473225.753,-30206.778,-125270.761,-25234.799,-0.080,0.868,0.584,-5.798,-6.592,0.641,80.000,49.000,1.000
-4563.548,-17783.379,244245.427,331238.065,-453522.903,-30756.777,-116488.177,-26389.830,-0.078,0.868,0.584,-5.829,-6.622,0.458,80.000,50.000,1.000
-6360.670,-19200.169,242606.304,329397.687,-435007.008,-31680.047,-108097.337,-27637.749,-0.076,0.865,0.589,-5.829,-6.470,0.244,80.000,51.000,1.000
-7638.698,-20335.575,241076.623,328094.207,-417625.961,-32796.745,-99914.599,-28947.836,-0.071,0.863,0.592,-6.012,-6.409,0.244,80.000,52.000,1.000
-8764.221,-21458.874,239289.443,326034.456,-400963.901,-33612.754,-91789.075,-30040.251,-0.067,0.862,0.594,-6.012,-6.287,0.305,80.000,53.000,1.000
-10203.266,-22769.127,237182.124,322683.861,-384765.848,-33915.046,-83815.409,-30808.924,-0.065,0.857,0.596,-5.981,-6.073,0.427,80.000,54.000,1.000
-11959.678,-24199.499,235085.570,319054.795,-369303.060,-34094.288,-76511.399,-31556.822,-0.066,0.854,0.594,-5.920,-5.920,0.488,80.000,55.000,1.000
-13546.535,-25469.609,233340.857,316660.751,-354892.411,-34699.534,-70234.879,-32602.104,-0.065,0.850,0.593,-5.737,-5.554,0.549,80.000,56.000,1.000
-14580.824,-26386.240,231871.142,315593.204,-341241.595,-35716.580,-64463.312,-33784.128,-0.067,0.849,0.596,-5.646,-5.280,0.610,80.000,57.000,1.000
-15289.268,-27097.487,230251.608,314198.456,-327710.179,-36534.523,-58236.205,-34640.855,-0.069,0.846,0.599,-5.402,-5.127,0.549,80.000,58.000,1.000
-16250.945,-27958.266,228237.451,311104.370,-314222.362,-36727.948,-51474.037,-35071.677,-0.072,0.844,0.602,-5.188,-4.913,0.671,80.000,59.000,1.000
-17657.152,-29097.702,226095.910,307124.499,-301457.493,-36651.474,-45280.479,-35529.907,-0.073,0.842,0.606,-5.005,-4.639,0.732,80.000,60.000,1.000
-19043.425,-30220.823,224282.466,304351.276,-289896.990,-37005.158,-40498.707,-36408.551,-0.072,0.846,0.608,-4.669,-4.456,0.641,80.000,61.000,1.000
-19884.463,-30960.662,222845.261,303389.884,-279041.550,-37898.275,-36402.859,-37464.447,-0.073,0.850,0.611,-4.517,-4.364,0.610,80.000,62.000,1.000
-20298.290,-31373.771,221342.436,302423.280,-268003.928,-38677.603,-31527.081,-38131.713,-0.071,0.852,0.611,-4.211,-4.272,0.732,80.000,63.000,1.000
-20912.471,-31905.678,219414.424,299562.458,-256725.943,-38795.518,-25685.053,-38321.038,-0.073,0.854,0.611,-4.028,-4.028,0.702,80.000,64.000,1.000
-22039.091,-32816.215,217269.010,295434.236,-246080.126,-38563.080,-20342.316,-38573.073,-0.072,0.856,0.615,-3.784,-3.876,0.671,80.000,65.000,1.000
-23252.009,-33814.103,215417.563,292425.382,-236635.927,-38745.575,-16641.948,-39317.187,-0.071,0.857,0.616,-3.632,-3.754,0.732,80.000,66.000,1.000
-23950.428,-34425.782,213993.901,291472.972,-227803.306,-39526.410,-13748.614,-40263.475,-0.070,0.857,0.615,-3.479,-3.662,0.732,80.000,67.000,1.000
-24166.780,-34635.920,212568.106,290745.128,-218600.393,-40250.416,-9905.663,-40794.959,-0.069,0.858,0.615,-3.387,-3.418,0.793,80.000,68.000,1.000
-24528.522,-34927.224,210718.841,288089.383,-209004.079,-40308.736,-4845.579,-40824.063,-0.065,0.859,0.618,-3.113,-3.235,0.793,80.000,69.000,1.000
-25417.776,-35638.344,208600.416,283964.667,-199980.946,-39965.583,-201.124,-40916.601,-0.062,0.858,0.620,-3.021,-2.991,0.977,80.000,70.000,1.000
-26461.533,-36500.730,206736.127,280836.463,-192127.325,-39998.044,2731.065,-41506.642,-0.058,0.860,0.620,-2.808,-2.625,1.129,80.000,71.000,1.000
-27041.295,-36997.130,205313.403,279827.624,-184812.913,-40642.301,4806.873,-42298.144,-0.055,0.857,0.619,-2.533,-2.350,1.404,80.000,72.000,1.000
-27129.088,-37066.545,203934.054,279195.566,-177033.540,-41284.859,7883.637,-42684.828,-0.051,0.852,0.619,-2.289,-1.953,1.678,80.000,73.000,1.000
-27318.219,-37192.480,202155.536,276716.102,-168785.770,-41307.729,12268.848,-42593.984,-0.050,0.849,0.619,-1.862,-1.495,1.801,80.000,74.000,1.000
-28017.574,-37747.780,200085.841,272702.993,-161048.447,-40922.732,16302.760,-42579.728,-0.053,0.845,0.619,-1.343,-0.916,1.892,80.000,75.000,1.000
-28908.270,-38488.745,198228.706,269545.394,-154406.184,-40865.195,18656.679,-43049.664,-0.053,0.841,0.623,-0.916,-0.549,1.984,80.000,76.000,1.000
-29389.519,-38890.221,196795.321,268437.495,-148236.293,-41389.210,20162.182,-43710.003,-0.055,0.839,0.627,-0.336,-0.183,2.075,80.000,77.000,1.000
-29391.996,-38861.487,195398.125,267770.888,-141574.100,-41941.676,22653.137,-43988.254,-0.058,0.840,0.624,0.244,0.092,2.075,80.000,78.000,1.000
-29455.958,-38864.250,193501.730,265300.373,-134430.870,-41933.348,26450.004,-43825.568,-0.058,0.842,0.625,1.068,0.549,2.136,80.000,79.000,1.000
-29991.192,-39280.998,191013.066,261058.247,-127742.436,-41532.243,29958.518,-43742.912,-0.061,0.845,0.625,1.648,0.885,1.953,80.000,80.000,1.000
-30736.958,-39903.311,188256.876,257098.962,-122054.387,-41410.631,31889.778,-44114.598,-0.063,0.845,0.628,2.167,1.221,1.862,80.000,81.000,1.000
-31137.340,-40229.694,185433.090,254561.624,-116780.471,-41825.002,33007.874,-44667.781,-0.063,0.846,0.628,2.655,1.373,1.801,80.000,82.000,1.000
-31094.777,-40149.723,182347.258,252149.360,-111029.268,-42291.789,35035.245,-44879.861,-0.068,0.846,0.628,3.204,1.648,1.556,80.000,83.000,1.000
-31079.801,-40079.974,178791.754,248056.655,-104815.134,-42267.777,38292.844,-44695.307,-0.068,0.845,0.627,3.723,1.862,1.343,80.000,84.000,1.000
-31479.503,-40386.790,175009.888,242591.732,-98990.616,-41878.166,41323.400,-44576.523,-0.070,0.844,0.627,4.150,2.075,1.190,80.000,85.000,1.000
-32088.316,-40897.504,171545.885,237869.127,-94045.677,-41715.266,42936.041,-44852.539,-0.069,0.844,0.629,4.608,2.228,1.038,80.000,86.000,1.000
-32412.812,-41154.781,168644.434,235047.922,-89454.553,-42025.183,43805.427,-45283.436,-0.071,0.843,0.630,5.188,2.411,0.885,80.000,87.000,1.000
-32343.574,-41042.886,165996.171,232901.206,-84430.391,-42401.999,45479.910,-45418.612,-0.072,0.843,0.629,5.676,2.502,0.671,80.000,88.000,1.000
-32280.164,-40927.725,163163.762,229572.233,-78994.364,-42366.208,48258.392,-45218.567,-0.072,0.844,0.630,6.256,2.625,0.641,80.000,89.000,1.000
-32573.633,-41145.089,160119.844,225033.990,-73897.183,-42004.745,50855.366,-45084.942,-0.075,0.847,0.630,7.019,2.747,0.488,80.000,90.000,1.000
-33065.836,-41554.155,157210.199,220966.236,-69561.393,-41818.539,52214.934,-45293.692,-0.075,0.852,0.631,7.538,2.808,0.427,80.000,91.000,1.000
-33330.112,-41750.216,154644.772,218387.597,-65525.930,-42031.203,52918.784,-45631.525,-0.074,0.854,0.636,8.179,2.808,0.366,80.000,92.000,1.000
-33250.993,-41617.631,152222.850,216337.134,-61111.417,-42312.321,54317.705,-45711.963,-0.073,0.854,0.638,8.728,2.960,0.366,80.000,93.000,1.000
-33155.048,-41466.824,149632.950,213284.751,-56336.792,-42253.805,56683.165,-45502.567,-0.071,0.852,0.635,9.308,3.021,0.305,80.000,94.000,1.000
-33351.174,-41597.729,146881.981,209206.642,-51842.027,-41915.875,58914.300,-45343.956,-0.073,0.850,0.635,9.949,3.204,0.305,80.000,95.000,1.000
-33727.147,-41904.549,144270.722,205518.980,-47986.376,-41714.388,60096.109,-45470.448,-0.073,0.845,0.636,10.590,3.296,0.305,80.000,96.000,1.000
-33929.502,-42044.305,141977.497,203105.052,-44385.846,-41847.716,60706.256,-45708.277,-0.075,0.840,0.634,11.414,3.357,0.458,80.000,97.000,1.000
-33846.394,-41907.937,139828.237,201185.959,-40476.957,-42054.599,61883.618,-45739.715,-0.074,0.836,0.638,12.177,3.418,0.397,80.000,98.000,1.000
-33735.226,-41747.680,137544.544,198467.317,-36276.503,-41993.754,63870.898,-45535.592,-0.076,0.833,0.639,13.184,3.540,0.153,80.000,99.000,1.000
-33856.284,-41817.431,135109.773,194875.522,-32309.084,-41696.202,65763.226,-45368.747,-0.076,0.831,0.639,14.069,3.510,0.122,80.000,100.000,1.000
-34132.623,-42037.627,132765.116,191549.775,-28864.503,-41491.237,66798.256,-45426.822,-0.076,0.826,0.640,15.167,3.540,0.061,80.000,101.000,1.000
-34279.450,-42125.977,130671.151,189243.639,-25628.268,-41549.659,67354.749,-45573.418,-0.075,0.825,0.637,16.266,3.479,0.000,80.000,102.000,1.000
-34194.035,-41985.816,128704.779,187370.801,-22146.255,-41677.034,68358.227,-45560.540,-0.074,0.823,0.639,17.395,3.510,-0.153,80.000,103.000,1.000
-34073.784,-41818.779,126643.992,184890.612,-18433.966,-41602.546,70013.778,-45367.616,-0.073,0.821,0.640,18.616,3.601,-0.214,80.000,104.000,1.000
-34133.526,-41836.650,124464.057,181707.262,-14910.352,-41339.947,71598.812,-45207.629,-0.073,0.820,0.640,19.745,3.632,-0.305,80.000,105.000,1.000
-34326.482,-41984.198,122349.233,178703.954,-11804.882,-41142.639,72497.844,-45224.458,-0.073,0.818,0.642,21.057,3.693,-0.519,80.000,106.000,1.000
-34430.401,-42034.980,120431.995,176496.769,-8870.481,-41150.497,73004.005,-45310.410,-0.077,0.816,0.643,22.308,3.784,-0.763,80.000,107.000,1.000
-34351.897,-41902.158,118624.692,174658.574,-5752.906,-41219.905,73851.177,-45272.751,-0.079,0.814,0.644,23.712,3.784,-0.977,80.000,108.000,1.000
-34233.350,-41738.196,116752.710,172377.130,-2464.022,-41138.482,75212.396,-45093.246,-0.080,0.814,0.642,25.116,3.723,-1.404,80.000,109.000,1.000
-34245.069,-41713.442,114786.399,169544.759,674.667,-40905.489,76532.260,-44930.390,-0.079,0.814,0.641,26.337,3.723,-1.709,80.000,110.000,1.000
-34363.934,-41793.433,112862.164,166819.892,3488.322,-40708.959,77329.107,-44891.210,-0.081,0.816,0.640,27.802,3.693,-1.953,80.000,111.000,1.000
-34424.669,-41804.847,111088.157,164692.238,6162.634,-40663.760,77815.991,-44898.737,-0.081,0.818,0.637,29.236,3.662,-2.258,80.000,112.000,1.000
-34347.453,-41674.464,109407.932,162871.046,8961.731,-40674.565,78547.990,-44816.988,-0.080,0.820,0.635,30.670,3.693,-2.533,80.000,113.000,1.000
-34230.001,-41512.509,107690.216,160748.369,11877.235,-40582.609,79664.151,-44637.076,-0.078,0.821,0.633,32.013,3.540,-2.960,80.000,114.000,1.000
-34202.902,-41450.223,105903.586,158214.035,14674.851,-40374.057,80757.408,-44473.590,-0.077,0.825,0.629,33.264,3.479,-3.235,80.000,115.000,1.000
-34260.841,-41468.984,104143.167,155733.410,17229.185,-40177.549,81468.399,-44400.608,-0.077,0.826,0.629,34.363,3.540,-3.601,80.000,116.000,1.000
-34287.295,-41442.820,102493.589,153680.805,19673.901,-40083.249,81944.233,-44363.176,-0.076,0.821,0.625,35.553,3.601,-3.784,80.000,117.000,1.000
-34216.739,-41314.618,100922.478,151875.598,22195.073,-40037.335,82583.532,-44268.957,-0.074,0.820,0.624,36.835,3.693,-3.998,80.000,118.000,1.000
-34110.720,-41162.031,99335.060,149884.322,24784.970,-39932.132,83490.265,-44113.298,-0.070,0.821,0.623,38.208,3.845,-4.211,80.000,119.000,1.000
-34064.049,-41082.491,97699.498,147599.986,27280.910,-39749.882,84379.629,-43971.165,-0.067,0.823,0.616,39.673,3.998,-4.578,80.000,120.000,1.000
-34082.008,-41067.005,96076.295,145327.318,29598.305,-39571.884,84996.500,-43887.213,-0.065,0.825,0.608,41.321,4.181,-4.822,80.000,121.000,1.000
-34085.402,-41024.128,94528.967,143339.865,31828.711,-39461.467,85438.322,-43821.906,-0.066,0.833,0.612,42.938,4.364,-5.188,80.000,122.000,1.000
-34018.997,-40904.156,93044.433,141544.636,34097.051,-39386.903,85981.761,-43714.586,-0.064,0.838,0.615,44.312,4.608,-5.341,80.000,123.000,1.000
-33915.088,-40754.305,91559.909,139654.998,36400.045,-39274.070,86707.703,-43562.950,-0.062,0.843,0.614,45.593,5.005,-5.585,80.000,124.000,1.000
-33842.192,-40646.914,90046.444,137573.415,38634.878,-39103.549,87431.276,-43415.791,-0.061,0.846,0.609,46.722,5.341,-5.829,80.000,125.000,1.000
-33818.479,-40588.347,88538.214,135476.924,40748.444,-38925.669,87976.483,-43304.118,-0.062,0.844,0.605,47.882,5.707,-5.981,80.000,126.000,1.000
-33798.884,-40523.396,87081.231,133554.434,42795.782,-38789.827,88392.349,-43208.298,-0.061,0.839,0.601,49.072,5.951,-6.134,80.000,127.000,1.000
-33738.581,-40413.469,85676.458,131779.056,44850.696,-38688.242,88850.615,-43093.898,-0.062,0.836,0.600,50.507,6.348,-6.287,80.000,128.000,1.000
-33644.423,-40279.246,84285.712,129981.222,46912.420,-38575.248,89413.482,-42955.008,-0.063,0.833,0.595,51.819,6.775,-6.531,80.000,129.000,1.000
-33557.315,-40163.262,82882.002,128073.759,48926.271,-38424.261,89984.180,-42810.699,-0.064,0.831,0.590,53.345,7.202,-6.805,80.000,130.000,1.000
-33499.298,-40074.248,81477.701,126133.286,50864.889,-38252.143,90460.470,-42673.913,-0.064,0.830,0.588,54.779,7.538,-7.019,80.000,131.000,1.000
-33452.528,-39984.383,80102.586,124277.694,52752.563,-38093.490,90856.313,-42541.073,-0.067,0.835,0.583,56.458,7.782,-7.324,80.000,132.000,1.000
-33386.944,-39870.594,78766.272,122526.546,54618.197,-37962.621,91253.570,-42406.915,-0.069,0.840,0.578,58.105,8.087,-7.538,80.000,133.000,1.000
-33295.751,-39739.973,77449.955,120801.387,56459.229,-37841.878,91689.696,-42272.057,-0.073,0.848,0.577,59.662,8.453,-7.843,80.000,134.000,1.000
-33199.875,-39615.126,76130.968,119028.504,58258.542,-37703.853,92131.124,-42136.048,-0.076,0.852,0.572,61.157,8.667,-8.179,80.000,135.000,1.000
-33122.363,-39506.973,74807.924,117212.285,60013.000,-37542.171,92533.016,-41995.745,-0.075,0.854,0.569,62.592,8.850,-8.545,80.000,136.000,1.000
-33063.157,-39406.742,73499.711,115416.612,61731.061,-37378.132,92887.450,-41853.423,-0.078,0.856,0.563,63.843,9.033,-8.911,80.000,137.000,1.000
-33000.622,-39299.358,72222.862,113693.921,63415.546,-37236.819,93214.508,-41717.946,-0.080,0.857,0.565,65.125,9.247,-9.277,80.000,138.000,1.000
-32916.616,-39179.301,70973.212,112033.970,65065.739,-37118.591,93534.895,-41592.311,-0.084,0.856,0.562,66.376,9.583,-9.766,80.000,139.000,1.000
-32817.131,-39054.244,69730.949,110375.182,66689.074,-36998.371,93858.994,-41466.218,-0.086,0.855,0.560,67.047,9.674,-9.888,80.000,140.000,1.000
-32724.649,-38935.350,68483.043,108668.988,68293.827,-36854.213,94183.779,-41328.301,-0.086,0.856,0.550,68.359,9.827,-10.315,80.000,141.000,1.000
-32650.490,-38824.664,67238.165,106936.222,69871.697,-36693.113,94489.965,-41182.845,-0.092,0.857,0.545,69.855,10.162,-10.864,80.000,142.000,1.000
-32579.971,-38711.971,66016.380,105248.996,71404.127,-36542.711,94756.997,-41044.762,-0.100,0.856,0.537,71.289,10.315,-11.414,80.000,143.000,1.000
-32489.509,-38584.912,64824.463,103646.005,72891.391,-36415.490,94994.001,-40915.961,-0.102,0.859,0.528,72.693,10.315,-11.993,80.000,144.000,1.000
-32376.771,-38443.937,63646.325,102078.360,74359.188,-36290.455,95240.595,-40778.577,-0.106,0.861,0.521,74.127,10.284,-12.543,80.000,145.000,1.000
-32265.668,-38304.365,62461.857,100463.431,75824.909,-36138.500,95519.100,-40618.754,-0.106,0.864,0.514,75.653,10.254,-13.214,80.000,146.000,1.000
-32177.820,-38180.113,61272.017,98790.541,77269.178,-35961.145,95796.484,-40449.031,-0.107,0.868,0.512,77.026,10.284,-13.763,80.000,147.000,1.000
-32105.989,-38067.524,60097.955,97141.236,78658.214,-35792.498,96017.788,-40296.526,-0.104,0.873,0.509,78.278,10.406,-14.404,80.000,148.000,1.000
-32023.591,-37949.680,58953.879,95586.519,79991.896,-35658.268,96178.840,-40169.581,-0.101,0.871,0.502,79.437,10.559,-14.740,80.000,149.000,1.000
-31918.998,-37817.737,57828.078,94089.981,81308.551,-35543.600,96338.208,-40048.035,-0.099,0.872,0.489,80.658,10.742,-14.984,80.000,150.000,1.000
-31810.168,-37682.531,56697.718,92550.727,82634.498,-35412.989,96541.357,-39911.673,-0.100,0.872,0.479,81.940,10.925,-15.076,80.000,151.000,1.000
-31719.838,-37559.804,55558.889,90937.110,83947.194,-35256.789,96756.729,-39767.476,-0.100,0.874,0.471,83.099,11.169,-15.228,80.000,152.000,1.000
-31643.705,-37446.977,54431.962,89332.538,85206.174,-35101.455,96917.949,-39636.557,-0.102,0.876,0.463,84.442,11.322,-15.381,80.000,153.000,1.000
-31554.555,-37323.295,53334.295,87825.699,86411.736,-34969.083,97020.324,-39518.683,-0.104,0.879,0.457,85.571,11.566,-15.503,80.000,154.000,1.000
-31438.862,-37177.063,52256.330,86389.459,87607.698,-34844.046,97134.451,-39387.434,-0.110,0.883,0.454,86.456,11.841,-15.442,80.000,155.000,1.000
-31316.863,-37024.136,51173.652,84914.559,88821.801,-34694.110,97310.986,-39225.685,-0.114,0.885,0.451,87.280,11.963,-15.594,80.000,156.000,1.000
-31217.534,-36890.067,50079.452,83356.431,90026.732,-34516.684,97506.649,-39051.806,-0.117,0.888,0.444,88.196,12.177,-15.717,80.000,157.000,1.000
-31140.990,-36777.738,48993.677,81796.408,91177.097,-34346.224,97637.682,-38898.622,-0.124,0.890,0.438,89.172,12.146,-15.808,80.000,158.000,1.000
-31058.289,-36663.189,47936.262,80332.229,92272.500,-34210.401,97692.520,-38771.893,-0.130,0.894,0.432,89.813,12.238,-15.961,80.000,159.000,1.000
-30949.357,-36526.448,46900.321,78945.550,93358.511,-34093.706,97748.564,-38644.775,-0.132,0.895,0.425,90.607,12.207,-15.991,80.000,160.000,1.000
-30828.458,-36376.910,45861.361,77526.911,94463.605,-33957.987,97867.103,-38495.651,-0.136,0.899,0.417,91.309,12.024,-16.113,80.000,161.000,1.000
-30723.571,-36239.350,44809.954,76024.105,95560.038,-33792.089,98010.244,-38336.570,-0.137,0.901,0.406,91.980,11.993,-16.449,80.000,162.000,1.000
-30638.144,-36119.576,43763.730,74511.668,96602.855,-33623.858,98094.874,-38193.235,-0.137,0.904,0.391,92.926,11.963,-16.632,80.000,163.000,1.000
-30546.674,-35996.195,42742.958,73088.052,97593.071,-33479.371,98109.559,-38065.279,-0.136,0.910,0.383,93.903,11.719,-16.998,80.000,164.000,1.000
-30429.839,-35850.096,41743.102,71742.157,98576.994,-33346.931,98131.902,-37924.169,-0.134,0.918,0.376,94.574,11.536,-17.181,80.000,165.000,1.000
-30300.968,-35691.043,40741.241,70370.406,99583.320,-33194.484,98222.462,-37752.564,-0.129,0.928,0.374,94.910,11.414,-17.181,80.000,166.000,1.000
-30188.268,-35545.001,39726.967,68918.179,100585.748,-33014.766,98342.159,-37570.218,-0.126,0.929,0.366,94.879,11.566,-16.998,80.000,167.000,1.000
-30097.870,-35420.174,38715.721,67451.614,101541.281,-32836.572,98405.620,-37410.213,-0.125,0.924,0.364,94.849,11.780,-16.907,80.000,168.000,1.000
-30007.385,-35297.671,37727.304,66064.958,102449.913,-32687.236,98395.751,-37277.545,-0.128,0.915,0.359,95.001,12.024,-16.785,80.000,169.000,1.000
-29897.367,-35158.513,36759.379,64753.293,103353.249,-32557.685,98382.826,-37145.891,-0.129,0.905,0.349,95.306,12.146,-16.815,80.000,170.000,1.000
-29776.686,-35008.761,35791.524,63422.966,104276.409,-32415.757,98426.482,-36993.706,-0.131,0.900,0.331,95.978,12.421,-16.876,80.000,171.000,1.000
-29668.152,-34868.586,34813.276,62020.611,105194.978,-32247.346,98498.309,-36828.731,-0.134,0.902,0.320,96.771,12.421,-16.998,80.000,172.000,1.000
-29576.327,-34742.634,33837.564,60602.668,106070.009,-32071.096,98527.030,-36671.550,-0.137,0.911,0.310,97.534,12.543,-17.059,80.000,173.000,1.000
-29481.946,-34613.802,32882.104,59254.612,106900.363,-31910.819,98497.999,-36525.559,-0.138,0.919,0.302,97.931,12.604,-17.029,80.000,174.000,1.000
-29369.178,-34468.107,31945.164,57975.029,107721.114,-31765.021,98469.773,-36375.220,-0.138,0.927,0.295,98.267,12.665,-16.815,80.000,175.000,1.000
-29247.104,-34314.438,31008.471,56681.516,108553.726,-31612.183,98490.611,-36211.236,-0.141,0.932,0.288,98.419,12.878,-16.663,80.000,176.000,1.000
-29136.984,-34171.981,30061.992,55324.357,109378.051,-31441.718,98532.805,-36045.293,-0.148,0.937,0.282,98.419,12.909,-16.693,80.000,177.000,1.000
-29044.209,-34043.838,29116.551,53950.612,110162.458,-31268.442,98532.053,-35894.772,-0.153,0.940,0.271,98.358,12.970,-16.663,80.000,178.000,1.000
-28952.218,-33912.719,28188.430,52636.158,110908.742,-31111.488,98475.067,-35758.491,-0.158,0.940,0.265,98.480,12.878,-16.571,80.000,179.000,1.000
-28844.953,-33763.784,27277.843,51383.642,111650.076,-30967.640,98416.065,-35616.291,-0.157,0.942,0.256,98.419,12.634,-16.602,80.000,180.000,1.000
-28726.875,-33603.570,26369.834,50123.745,112406.665,-30815.969,98402.693,-35453.535,-0.157,0.939,0.249,98.358,12.482,-16.327,80.000,181.000,1.000
-28615.153,-33451.417,25454.799,48811.398,113160.388,-30646.926,98413.802,-35278.987,-0.162,0.937,0.242,98.236,12.238,-16.144,80.000,182.000,1.000
-28516.511,-33316.354,24540.349,47483.266,113880.818,-30476.034,98390.689,-35113.583,-0.164,0.937,0.235,97.900,11.902,-15.869,80.000,183.000,1.000
-28419.677,-33188.483,23639.744,46203.248,114565.456,-30323.561,98315.707,-34965.055,-0.164,0.931,0.228,97.473,11.719,-15.594,80.000,184.000,1.000
-28312.197,-33053.937,22753.820,44975.982,115239.754,-30188.253,98231.443,-34821.537,-0.165,0.926,0.219,97.595,11.658,-15.472,80.000,185.000,1.000
-28197.540,-32912.446,21870.704,43745.007,115919.991,-30050.007,98179.132,-34670.505,-0.169,0.928,0.208,97.778,11.353,-15.350,80.000,186.000,1.000
-28089.599,-32774.982,20982.442,42471.795,116591.800,-29895.983,98144.290,-34515.350,-0.175,0.931,0.197,98.053,11.139,-15.289,80.000,187.000,1.000
-27993.209,-32646.444,20095.305,41185.168,117231.766,-29734.131,98081.805,-34367.764,-0.177,0.936,0.180,98.236,10.864,-15.198,80.000,188.000,1.000
-27897.355,-32517.615,19220.658,39938.275,117840.086,-29577.811,97980.910,-34229.015,-0.183,0.944,0.170,98.450,10.559,-15.259,80.000,189.000,1.000
-27789.875,-32377.440,18359.816,38737.066,118439.608,-29425.976,97878.922,-34087.685,-0.187,0.953,0.165,98.480,10.223,-15.289,80.000,190.000,1.000
-27672.935,-32227.995,17503.097,37536.472,119045.102,-29266.204,97809.025,-33935.592,-0.188,0.963,0.159,98.450,9.766,-15.350,80.000,191.000,1.000
-27559.004,-32081.619,16643.091,36303.464,119646.014,-29093.840,97757.103,-33778.373,-0.187,0.971,0.151,98.053,9.155,-15.320,80.000,192.000,1.000
-27454.409,-31945.018,15783.688,35058.634,120223.887,-28919.963,97683.921,-33627.253,-0.183,0.971,0.142,97.351,8.728,-15.198,80.000,193.000,1.000
-27352.733,-31811.516,14933.637,33844.010,120778.047,-28758.432,97577.781,-33484.739,-0.183,0.965,0.130,96.954,8.484,-15.076,80.000,194.000,1.000
-27245.621,-31670.479,14094.498,32666.089,121324.620,-28610.605,97465.623,-33343.667,-0.182,0.959,0.125,96.741,8.179,-14.923,80.000,195.000,1.000
-27134.601,-31519.985,13259.298,31490.837,121873.505,-28466.054,97372.836,-33198.345,-0.183,0.953,0.111,96.130,7.904,-14.587,80.000,196.000,1.000
-27027.993,-31367.459,12422.596,30292.052,122416.612,-28315.853,97290.228,-33051.261,-0.185,0.947,0.102,96.039,7.507,-14.252,80.000,197.000,1.000
-26928.673,-31220.694,11587.645,29084.733,122941.366,-28161.656,97190.135,-32907.799,-0.185,0.944,0.095,95.947,7.080,-14.038,80.000,198.000,1.000
-26829.511,-31081.554,10761.643,27901.698,123448.961,-28010.447,97065.426,-32767.326,-0.188,0.943,0.085,96.100,6.775,-13.855,80.000,199.000,1.000
-26722.304,-30949.212,9946.295,26749.630,123952.345,-27864.286,96937.491,-32623.336,-0.190,0.941,0.082,95.947,6.500,-13.824,80.000,200.000,1.000
-26608.004,-30826.174,9136.185,25603.404,124458.062,-27719.901,96825.370,-32472.159,-0.190,0.936,0.075,95.581,6.134,-13.489,80.000,201.000,1.000
-26495.042,-30715.962,8326.188,24441.645,124957.335,-27576.814,96720.916,-32317.354,-0.193,0.931,0.068,95.551,5.951,-13.397,80.000,202.000,1.000
-26388.887,-30614.547,7517.567,23273.213,125437.177,-27440.393,96601.983,-32164.408,-0.196,0.928,0.064,95.581,5.859,-13.458,80.000,203.000,1.000
-26286.634,-30509.152,6715.307,22121.931,125895.467,-27314.597,96461.978,-32014.609,-0.199,0.924,0.050,95.764,5.432,-13.245,80.000,204.000,1.000
-26182.497,-30388.945,5921.157,20994.246,126340.594,-27194.493,96315.665,-31866.190,-0.202,0.924,0.043,95.886,5.035,-13.123,80.000,205.000,1.000
-26075.344,-30254.771,5131.742,19873.185,126779.032,-27068.593,96177.398,-31718.967,-0.200,0.923,0.031,95.673,4.364,-12.970,80.000,206.000,1.000
-25968.611,-30116.252,4343.539,18742.918,127208.979,-26928.588,96043.628,-31575.190,-0.197,0.920,0.022,95.673,3.906,-12.665,80.000,207.000,1.000
-25864.411,-29981.073,3557.460,17608.623,127626.736,-26775.953,95901.202,-31436.150,-0.197,0.921,0.014,95.917,3.693,-12.634,80.000,208.000,1.000
-25760.238,-29848.987,2777.220,16487.136,128034.963,-26618.460,95747.038,-31299.418,-0.193,0.926,0.007,95.947,3.296,-12.634,80.000,209.000,1.000
-25652.313,-29715.568,2004.334,15384.250,128440.763,-26461.096,95591.915,-31160.617,-0.192,0.927,0.001,95.917,3.021,-12.482,80.000,210.000,1.000
-25540.433,-29579.188,1236.468,14289.050,128847.047,-26301.608,95445.659,-31017.413,-0.189,0.933,-0.011,95.886,2.686,-12.512,80.000,211.000,1.000
-25427.914,-29442.264,470.818,13189.849,129249.419,-26134.754,95305.560,-30870.779,-0.190,0.937,-0.020,95.795,2.563,-12.482,80.000,212.000,1.000
-25317.492,-29306.345,-292.409,12088.586,129641.462,-25959.314,95161.720,-30723.048,-0.192,0.941,-0.025,95.520,2.289,-12.543,80.000,213.000,1.000
-25208.794,-29169.028,-1050.819,10996.155,130020.675,-25780.342,95009.316,-30575.975,-0.195,0.941,-0.035,95.184,1.984,-12.543,80.000,214.000,1.000
-25100.126,-29028.129,-1803.266,9917.605,130388.487,-25605.897,94851.354,-30430.859,-0.196,0.939,-0.045,94.849,1.801,-12.665,80.000,215.000,1.000
-24991.401,-28887.289,-2551.218,8846.881,130746.517,-25441.925,94690.915,-30289.346,-0.198,0.936,-0.051,94.452,1.648,-12.909,80.000,216.000,1.000
-24884.610,-28754.552,-3296.740,7775.635,131094.852,-25289.782,94525.045,-30153.119,-0.203,0.931,-0.061,94.177,1.404,-12.970,80.000,217.000,1.000
-24781.666,-28635.043,-4040.081,6703.167,131433.342,-25148.581,94347.819,-30022.825,-0.204,0.925,-0.066,93.536,1.038,-13.123,80.000,218.000,1.000
-24681.957,-28526.247,-4779.642,5635.913,131763.042,-25018.300,94157.665,-29897.137,-0.207,0.919,-0.073,92.926,0.732,-13.275,80.000,219.000,1.000
-24582.606,-28420.863,-5513.986,4577.709,132085.657,-24899.452,93959.422,-29772.893,-0.207,0.911,-0.079,92.377,0.366,-13.489,80.000,220.000,1.000
-24481.303,-28312.460,-6243.509,3517.436,132402.023,-24790.579,93759.235,-29646.665,-0.202,0.909,-0.083,91.888,0.153,-13.428,80.000,221.000,1.000
-24378.438,-28197.005,-6970.139,2426.626,132711.620,-24686.241,93559.163,-29516.645,-0.200,0.906,-0.093,91.553,-0.183,-13.580,80.000,222.000,1.000
-24276.397,-28071.829,-7695.300,1286.441,133013.114,-24576.756,93357.068,-29383.510,-0.200,0.906,-0.099,91.339,-0.336,-13.641,80.000,223.000,1.000
-24176.878,-27936.708,-8418.199,121.704,133305.022,-24451.989,93150.290,-29249.700,-0.197,0.908,-0.104,91.034,-0.763,-13.641,80.000,224.000,1.000
-24078.861,-27795.010,-9136.689,-1022.562,133586.444,-24309.432,92938.563,-29117.416,-0.193,0.910,-0.115,90.973,-1.007,-13.611,80.000,225.000,1.000
-23978.959,-27651.020,-9849.704,-2152.846,133858.322,-24158.701,92724.307,-28986.526,-0.193,0.912,-0.120,90.637,-1.129,-13.550,80.000,226.000,1.000
-23874.062,-27507.143,-10558.059,-3343.658,134123.817,-24016.339,92510.711,-28854.657,-0.194,0.915,-0.126,90.210,-1.312,-13.458,80.000,227.000,1.000
-23763.866,-27365.207,-11262.992,-4654.933,134386.150,-23896.189,92298.993,-28719.910,-0.194,0.913,-0.136,89.478,-1.587,-13.489,80.000,228.000,1.000
-23650.524,-27228.055,-11964.691,-6050.463,134646.065,-23802.808,92087.476,-28583.002,-0.198,0.912,-0.140,88.684,-1.617,-13.489,80.000,229.000,1.000
-23536.618,-27098.002,-12662.247,-7430.992,134901.730,-23730.663,91873.280,-28446.812,-0.199,0.909,-0.145,88.043,-1.648,-13.458,80.000,230.000,1.000
-23424.175,-26974.973,-13354.749,-8743.693,135151.017,-23668.542,91654.717,-28314.214,-0.203,0.906,-0.144,87.616,-1.617,-13.519,80.000,231.000,1.000
-23314.968,-26856.959,-14042.382,-10027.783,135393.575,-23606.052,91432.282,-28186.091,-0.206,0.902,-0.153,87.402,-1.556,-13.763,80.000,232.000,1.000
-23210.622,-26741.746,-14726.360,-11345.238,135630.391,-23537.954,91207.511,-28061.205,-0.205,0.900,-0.160,87.372,-1.465,-14.130,80.000,233.000,1.000
-23111.451,-26628.001,-15407.602,-12695.044,135862.079,-23463.978,90981.464,-27937.344,-0.207,0.902,-0.164,87.189,-1.404,-14.160,80.000,234.000,1.000
-23015.103,-26514.947,-16085.627,-14020.450,136088.798,-23385.366,90755.351,-27812.023,-0.210,0.901,-0.172,86.517,-1.709,-14.313,80.000,235.000,1.000
-22917.159,-26401.207,-16759.000,-15286.777,136311.947,-23301.656,90532.730,-27682.360,-0.213,0.903,-0.179,85.571,-2.441,-14.252,80.000,236.000,1.000
-22814.286,-26285.113,-17426.913,-16521.694,136534.287,-23210.571,90319.054,-27545.819,-0.212,0.898,-0.189,84.656,-3.082,-14.191,80.000,237.000,1.000
-22707.292,-26167.278,-18090.222,-17774.804,136756.183,-23111.519,90116.117,-27403.107,-0.212,0.897,-0.201,83.832,-3.326,-14.191,80.000,238.000,1.000
-22600.557,-26051.479,-18750.686,-19058.909,136972.408,-23008.634,89917.234,-27259.826,-0.212,0.899,-0.208,83.160,-3.357,-14.252,80.000,239.000,1.000
-22498.074,-25940.966,-19409.115,-20345.273,137175.646,-22908.028,89711.491,-27122.633,-0.210,0.902,-0.217,82.458,-3.448,-14.343,80.000,240.000,1.000
-22399.741,-25833.605,-20064.566,-21605.015,137364.390,-22810.989,89494.450,-26992.631,-0.208,0.904,-0.217,81.635,-3.357,-14.160,80.000,241.000,1.000
-22301.622,-25722.048,-20715.511,-22837.344,137545.687,-22711.577,89272.828,-26863.658,-0.207,0.909,-0.221,80.963,-3.418,-14.130,80.000,242.000,1.000
-22199.900,-25600.283,-21361.443,-24058.802,137728.436,-22602.476,89056.609,-26728.380,-0.207,0.913,-0.223,80.048,-3.448,-13.947,80.000,243.000,1.000
-22093.992,-25469.588,-22002.989,-25278.668,137914.889,-22482.592,88847.626,-26585.696,-0.205,0.914,-0.225,79.254,-3.418,-13.885,80.000,244.000,1.000
-21985.921,-25336.496,-22640.834,-26491.264,138099.869,-22357.995,88638.145,-26441.138,-0.206,0.915,-0.227,78.369,-3.296,-13.672,80.000,245.000,1.000
-21877.782,-25205.760,-23275.226,-27686.547,138277.259,-22235.665,88420.326,-26300.309,-0.208,0.914,-0.230,77.362,-3.204,-13.397,80.000,246.000,1.000
-21770.765,-25077.424,-23906.466,-28862.061,138445.658,-22117.322,88194.465,-26163.416,-0.210,0.912,-0.234,76.202,-3.082,-13.184,80.000,247.000,1.000
-21665.984,-24949.786,-24535.150,-30025.968,138607.524,-21999.969,87966.523,-26026.813,-0.213,0.907,-0.240,75.012,-3.082,-12.817,80.000,248.000,1.000
-21564.669,-24822.529,-25161.572,-31190.827,138764.438,-21881.429,87739.447,-25888.240,-0.218,0.904,-0.247,73.791,-3.021,-12.482,80.000,249.000,1.000
-21467.146,-24696.665,-25785.094,-32362.686,138915.412,-21763.252,87510.278,-25748.825,-0.218,0.899,-0.252,72.632,-2.930,-12.115,80.000,250.000,1.000
-21371.898,-24572.524,-26404.489,-33533.736,139060.283,-21647.678,87276.142,-25610.389,-0.222,0.897,-0.256,71.686,-2.960,-11.810,80.000,251.000,1.000
-21276.167,-24448.848,-27019.061,-34688.015,139202.557,-21533.681,87039.823,-25472.595,-0.221,0.892,-0.260,70.618,-3.052,-11.414,80.000,252.000,1.000
-21177.998,-24324.685,-27629.314,-35818.293,139346.521,-21418.002,86806.879,-25333.806,-0.221,0.892,-0.267,69.336,-2.960,-11.017,80.000,253.000,1.000
-21077.521,-24201.370,-28236.275,-36934.644,139492.004,-21299.197,86578.648,-25194.234,-0.220,0.885,-0.275,68.146,-3.052,-10.437,80.000,254.000,1.000
-20976.052,-24081.453,-28840.267,-38050.930,139634.092,-21178.099,86351.444,-25056.667,-0.221,0.884,-0.281,67.169,-3.082,-10.040,80.000,255.000,1.000
-20874.178,-23965.574,-29440.647,-39163.449,139768.698,-21053.826,86123.307,-24923.347,-0.222,0.879,-0.286,66.040,-3.357,-9.583,80.000,256.000,1.000
-20771.469,-23850.381,-30036.803,-40250.664,139896.883,-20921.503,85898.612,-24793.414,-0.220,0.877,-0.297,64.789,-3.418,-9.308,80.000,257.000,1.000
-20667.930,-23729.584,-30629.078,-41298.897,140022.766,-20775.589,85683.681,-24664.521,-0.223,0.874,-0.302,63.507,-3.510,-8.667,80.000,258.000,1.000
-20564.362,-23597.906,-31218.389,-42321.963,140148.447,-20615.710,85479.182,-24535.501,-0.226,0.872,-0.303,62.347,-3.479,-8.087,80.000,259.000,1.000
-20460.984,-23454.481,-31805.125,-43347.307,140271.977,-20449.060,85279.205,-24405.945,-0.229,0.874,-0.301,61.432,-3.632,-7.782,80.000,260.000,1.000
-20356.695,-23302.829,-32388.931,-44385.199,140389.506,-20286.676,85077.526,-24274.043,-0.235,0.874,-0.303,60.211,-3.723,-7.690,80.000,261.000,1.000
-20250.509,-23149.926,-32969.582,-45421.129,140498.192,-20136.949,84872.536,-24136.513,-0.245,0.873,-0.300,59.357,-3.815,-7.690,80.000,262.000,1.000
-20143.534,-23006.308,-33547.409,-46440.765,140596.973,-20002.243,84665.377,-23991.123,-0.256,0.872,-0.295,58.167,-3.937,-7.965,80.000,263.000,1.000
-20038.666,-22882.859,-34122.536,-47452.171,140685.566,-19880.503,84454.991,-23839.052,-0.268,0.865,-0.293,57.068,-4.242,-8.270,80.000,264.000,1.000
-19938.019,-22782.687,-34694.233,-48474.485,140763.725,-19768.356,84237.198,-23684.541,-0.273,0.854,-0.294,55.664,-4.730,-8.667,80.000,265.000,1.000
-19840.885,-22696.323,-35261.503,-49508.912,140831.944,-19662.068,84009.304,-23531.920,-0.281,0.844,-0.293,54.535,-5.219,-9.216,80.000,266.000,1.000
-19744.732,-22607.855,-35824.259,-50533.077,140891.869,-19557.578,83773.842,-23383.073,-0.284,0.833,-0.301,53.406,-5.920,-9.735,80.000,267.000,1.000
-19648.071,-22506.408,-36383.710,-51528.312,140944.479,-19452.169,83535.922,-23237.851,-0.284,0.821,-0.309,52.643,-6.531,-10.315,80.000,268.000,1.000
-19551.402,-22391.059,-36941.348,-52503.013,140988.621,-19346.287,83297.771,-23095.883,-0.285,0.813,-0.312,52.032,-7.050,-10.681,80.000,269.000,1.000
-19455.661,-22267.147,-37497.498,-53480.166,141022.851,-19242.780,83057.800,-22956.944,-0.285,0.806,-0.317,51.575,-7.690,-11.108,80.000,270.000,1.000
-19360.478,-22140.963,-38050.994,-54466.014,141048.749,-19143.631,82814.928,-22819.586,-0.282,0.800,-0.327,51.300,-8.240,-11.444,80.000,271.000,1.000
-19264.106,-22017.309,-38600.324,-55442.300,141071.439,-19047.276,82572.008,-22680.448,-0.279,0.799,-0.333,51.025,-8.850,-11.566,80.000,272.000,1.000
-19165.232,-21899.118,-39145.011,-56392.562,141095.704,-18949.982,82333.403,-22536.471,-0.276,0.801,-0.335,51.025,-9.308,-11.841,80.000,273.000,1.000
-19064.500,-21786.873,-39685.721,-57325.967,141121.869,-18849.676,82100.018,-22387.657,-0.276,0.804,-0.345,51.086,-9.766,-12.115,80.000,274.000,1.000
-18963.811,-21678.012,-40223.131,-58266.203,141146.497,-18747.151,81868.812,-22236.779,-0.272,0.809,-0.356,51.025,-10.193,-12.146,80.000,275.000,1.000
-18864.341,-21568.237,-40757.237,-59221.535,141166.328,-18644.199,81636.764,-22087.054,-0.269,0.811,-0.365,50.873,-10.803,-12.024,80.000,276.000,1.000
-18765.800,-21454.466,-41287.873,-60176.872,141180.437,-18541.869,81403.770,-21940.482,-0.264,0.811,-0.371,50.934,-11.322,-11.841,80.000,277.000,1.000
-18667.751,-21337.103,-41815.481,-61117.621,141188.783,-18440.607,81171.279,-21797.918,-0.258,0.811,-0.377,51.117,-11.627,-11.841,80.000,278.000,1.000
-18570.649,-21219.437,-42340.943,-62051.274,141190.222,-18340.996,80938.872,-21660.075,-0.254,0.817,-0.379,51.392,-11.627,-11.780,80.000,279.000,1.000
-18474.701,-21104.211,-42864.528,-62996.806,141183.630,-18242.735,80703.851,-21527.179,-0.253,0.825,-0.387,51.636,-11.688,-11.658,80.000,280.000,1.000
-18378.836,-20991.270,-43385.420,-63958.114,141169.683,-18143.611,80463.562,-21398.468,-0.254,0.836,-0.396,51.819,-11.627,-11.475,80.000,281.000,1.000
-18282.179,-20879.121,-43902.715,-64918.984,141149.195,-18041.734,80216.211,-21273.891,-0.256,0.851,-0.399,51.971,-11.536,-11.200,80.000,282.000,1.000
-18185.688,-20767.453,-44416.444,-65865.187,141120.529,-17938.855,79960.056,-21155.360,-0.258,0.867,-0.399,51.544,-11.841,-11.047,80.000,283.000,1.000
-18091.238,-20657.306,-44927.211,-66802.768,141079.885,-17840.345,79693.391,-21045.123,-0.256,0.876,-0.400,50.751,-12.085,-10.773,80.000,284.000,1.000
-17999.523,-20549.640,-45435.234,-67748.676,141024.066,-17751.377,79416.064,-20943.214,-0.251,0.877,-0.399,50.476,-12.085,-10.559,80.000,285.000,1.000
-17909.384,-20444.527,-45940.190,-68707.612,140952.926,-17673.101,79130.603,-20847.024,-0.245,0.884,-0.393,49.683,-12.085,-10.193,80.000,286.000,1.000
-17819.074,-20341.792,-46441.931,-69666.966,140869.358,-17601.970,78840.928,-20753.471,-0.238,0.884,-0.387,48.614,-12.146,-9.735,80.000,287.000,1.000
-17727.523,-20241.342,-46940.840,-70615.532,140777.800,-17531.334,78549.981,-20660.813,-0.229,0.885,-0.378,47.211,-12.054,-9.155,80.000,288.000,1.000
-17634.401,-20142.087,-47437.164,-71557.254,140683.118,-17454.679,78258.522,-20568.413,-0.224,0.885,-0.378,45.746,-11.780,-8.545,80.000,289.000,1.000
-17540.196,-20042.042,-47930.483,-72499.975,140589.731,-17369.907,77965.561,-20475.903,-0.222,0.881,-0.376,44.464,-11.505,-7.996,80.000,290.000,1.000
-17445.763,-19940.181,-48420.209,-73440.273,140500.479,-17279.745,77669.741,-20383.009,-0.225,0.881,-0.378,43.304,-10.925,-7.568,80.000,291.000,1.000
-17350.889,-19836.218,-48906.326,-74370.936,140415.414,-17187.248,77370.253,-20289.997,-0.227,0.880,-0.380,42.297,-10.559,-7.172,80.000,292.000,1.000
-17254.763,-19728.956,-49389.435,-75295.976,140331.098,-17093.875,77066.259,-20198.100,-0.234,0.886,-0.385,40.955,-10.284,-6.836,80.000,293.000,1.000
-17158.197,-19618.406,-49870.104,-76226.550,140241.846,-17002.203,76756.292,-20108.894,-0.239,0.891,-0.389,39.429,-10.101,-6.561,80.000,294.000,1.000
-17063.756,-19509.922,-50348.287,-77166.226,140142.253,-16916.994,76438.945,-20023.556,-0.243,0.896,-0.394,37.933,-9.888,-6.256,80.000,295.000,1.000
-16973.602,-19412.280,-50823.522,-78106.239,140028.111,-16843.223,76113.093,-19943.711,-0.247,0.901,-0.396,36.377,-9.857,-6.104,80.000,296.000,1.000
-16888.107,-19329.100,-51295.504,-79031.273,139896.521,-16783.494,75778.266,-19871.225,-0.251,0.905,-0.400,34.790,-9.888,-6.226,80.000,297.000,1.000
-16805.944,-19253.970,-51764.194,-79927.717,139748.240,-16734.840,75437.673,-19804.430,-0.251,0.909,-0.408,33.417,-9.888,-6.378,80.000,298.000,1.000
-16724.366,-19175.403,-52229.506,-80790.780,139590.471,-16686.624,75100.880,-19735.246,-0.254,0.912,-0.407,32.257,-9.735,-6.500,80.000,299.000,1.000
-16639.843,-19084.358,-52691.206,-81625.504,139435.461,-16623.233,74781.497,-19651.859,-0.256,0.919,-0.409,30.853,-9.888,-6.653,80.000,300.000,1.000
-16549.567,-18976.594,-53149.378,-82438.073,139294.875,-16531.412,74490.931,-19544.746,-0.258,0.923,-0.412,29.205,-10.071,-6.866,80.000,301.000,1.000
-16452.834,-18852.261,-53604.725,-83226.589,139174.861,-16406.906,74233.326,-19411.118,-0.258,0.921,-0.414,27.527,-10.040,-7.050,80.000,302.000,1.000
-16351.312,-18716.561,-54057.484,-83984.640,139074.923,-16255.785,74004.562,-19255.579,-0.264,0.921,-0.415,26.062,-9.949,-7.294,80.000,303.000,1.000
-16248.257,-18578.923,-54506.286,-84713.588,138988.904,-16090.822,73794.042,-19087.805,-0.268,0.922,-0.411,24.475,-10.071,-7.599,80.000,304.000,1.000
-16147.392,-18448.382,-54949.381,-85425.203,138906.853,-15925.988,73588.175,-18918.653,-0.268,0.918,-0.412,23.010,-10.284,-7.843,80.000,305.000,1.000
-16051.802,-18329.315,-55386.707,-86128.292,138818.485,-15772.202,73374.871,-18756.498,-0.268,0.919,-0.412,21.637,-10.406,-8.270,80.000,306.000,1.000
-15962.734,-18221.544,-55819.926,-86816.811,138716.869,-15635.364,73147.022,-18605.423,-0.267,0.917,-0.413,20.111,-10.590,-8.362,80.000,307.000,1.000
-15878.760,-18122.541,-56251.088,-87479.732,138599.523,-15515.807,72903.269,-18465.618,-0.264,0.912,-0.413,18.707,-10.681,-8.575,80.000,308.000,1.000
-15796.512,-18028.226,-56681.740,-88124.306,138466.707,-15409.169,72645.962,-18335.401,-0.258,0.909,-0.413,17.365,-10.681,-8.759,80.000,309.000,1.000
-15713.010,-17933.293,-57112.498,-88779.573,138319.385,-15309.171,72378.200,-18213.351,-0.252,0.906,-0.412,15.991,-10.590,-8.728,80.000,310.000,1.000
-15627.554,-17833.877,-57542.802,-89469.803,138158.396,-15211.319,72101.790,-18099.002,-0.244,0.896,-0.414,14.709,-10.498,-8.545,80.000,311.000,1.000
-15541.712,-17731.032,-57971.091,-90189.898,137984.778,-15114.945,71817.129,-17991.878,-0.237,0.887,-0.415,13.794,-10.132,-8.301,80.000,312.000,1.000
-15457.814,-17630.012,-58395.785,-90911.993,137800.133,-15022.093,71524.544,-17890.276,-0.234,0.879,-0.417,12.878,-9.735,-7.904,80.000,313.000,1.000
-15376.951,-17534.844,-58816.675,-91611.696,137606.146,-14934.655,71225.348,-17791.286,-0.232,0.871,-0.417,12.146,-9.277,-7.751,80.000,314.000,1.000
-15298.093,-17444.369,-59234.813,-92283.234,137404.189,-14852.117,70922.201,-17691.575,-0.229,0.862,-0.419,11.505,-8.728,-7.446,80.000,315.000,1.000
-15219.171,-17354.368,-59650.621,-92933.221,137195.783,-14771.673,70618.714,-17588.350,-0.229,0.855,-0.417,10.925,-8.240,-7.080,80.000,316.000,1.000
-15138.513,-17261.928,-60062.985,-93568.711,136983.219,-14689.831,70318.577,-17479.959,-0.225,0.846,-0.420,10.254,-7.751,-6.836,80.000,317.000,1.000
-15055.331,-17166.458,-60470.645,-94194.802,136769.120,-14603.536,70024.721,-17365.955,-0.222,0.832,-0.425,10.071,-7.080,-6.531,80.000,318.000,1.000
-14969.929,-17068.074,-60873.701,-94817.954,136554.437,-14511.131,69737.991,-17247.619,-0.224,0.823,-0.428,10.345,-6.256,-6.317,80.000,319.000,1.000
-14883.606,-16966.777,-61273.531,-95445.424,136337.476,-14412.892,69456.657,-17127.775,-0.223,0.817,-0.429,10.223,-5.615,-6.165,80.000,320.000,1.000
-14797.648,-16863.219,-61671.739,-96082.123,136115.621,-14310.562,69177.773,-17009.036,-0.221,0.807,-0.433,10.315,-5.005,-5.859,80.000,321.000,1.000
-14712.447,-16759.312,-62069.221,-96729.208,135887.860,-14206.520,68898.909,-16892.520,-0.220,0.796,-0.439,10.864,-4.303,-5.768,80.000,322.000,1.000
-14627.800,-16657.077,-62465.735,-97383.874,135655.925,-14102.707,68619.318,-16777.811,-0.222,0.787,-0.438,11.505,-3.662,-5.798,80.000,323.000,1.000
-14543.623,-16557.086,-62860.211,-98040.230,135422.647,-14000.020,68339.581,-16663.908,-0.224,0.781,-0.438,12.024,-3.052,-5.768,80.000,324.000,1.000
-14460.036,-16458.402,-63251.647,-98692.171,135189.339,-13898.434,68060.196,-16550.538,-0.227,0.773,-0.442,12.787,-2.441,-5.768,80.000,325.000,1.000
-14376.501,-16359.221,-63639.583,-99337.130,134956.005,-13796.747,67781.415,-16438.052,-0.229,0.767,-0.442,13.580,-2.106,-5.951,80.000,326.000,1.000
-14291.272,-16257.400,-64023.937,-99977.855,134723.368,-13692.642,67504.147,-16325.984,-0.234,0.765,-0.445,14.404,-1.526,-6.226,80.000,327.000,1.000
-14202.745,-16151.768,-64405.021,-100620.513,134492.292,-13584.799,67229.256,-16213.159,-0.237,0.764,-0.447,15.350,-0.977,-6.775,80.000,328.000,1.000
-14111.592,-16043.638,-64783.755,-101270.235,134261.048,-13475.351,66955.396,-16099.832,-0.241,0.763,-0.444,16.327,-0.610,-7.233,80.000,329.000,1.000
-14020.646,-15936.126,-65161.202,-101926.857,134025.852,-13368.639,66679.458,-15988.081,-0.244,0.763,-0.443,17.090,-0.336,-7.538,80.000,330.000,1.000
-13932.285,-15831.664,-65537.568,-102584.727,133784.968,-13267.193,66399.825,-15879.419,-0.245,0.763,-0.447,17.792,-0.153,-7.812,80.000,331.000,1.000
-13846.715,-15730.753,-65911.958,-103237.512,133540.628,-13169.952,66117.902,-15773.109,-0.245,0.761,-0.452,18.555,0.031,-8.148,80.000,332.000,1.000
-13762.781,-15632.648,-66283.079,-103883.134,133296.672,-13074.015,65836.458,-15667.245,-0.249,0.756,-0.457,19.257,0.183,-8.514,80.000,333.000,1.000
-13679.378,-15536.194,-66650.064,-104524.064,133055.204,-12977.312,65557.027,-15561.077,-0.253,0.752,-0.455,19.928,0.366,-8.972,80.000,334.000,1.000
-13596.021,-15440.196,-67012.953,-105163.550,132815.398,-12879.842,65278.872,-15455.802,-0.258,0.750,-0.460,20.782,0.488,-9.399,80.000,335.000,1.000
-13512.561,-15343.689,-67372.569,-105802.348,132575.002,-12783.030,65000.187,-15352.933,-0.264,0.751,-0.461,21.606,0.488,-9.949,80.000,336.000,1.000
-13428.572,-15245.824,-67729.736,-106438.387,132333.007,-12687.846,64720.395,-15252.047,-0.265,0.751,-0.464,22.339,0.488,-10.437,80.000,337.000,1.000
-13343.417,-15145.639,-68084.619,-107068.180,132090.856,-12593.415,64441.326,-15150.368,-0.271,0.753,-0.464,23.010,0.397,-11.200,80.000,338.000,1.000
-13256.899,-15042.605,-68436.867,-107688.515,131850.771,-12497.947,64165.514,-15045.222,-0.279,0.761,-0.467,23.743,0.275,-11.780,80.000,339.000,1.000
-13169.684,-14937.661,-68786.349,-108297.785,131612.957,-12401.050,63893.333,-14936.952,-0.283,0.771,-0.470,24.292,0.061,-12.329,80.000,340.000,1.000
-13082.959,-14833.242,-69133.666,-108897.167,131374.620,-12304.477,63622.243,-14828.886,-0.286,0.778,-0.478,24.689,-0.183,-12.909,80.000,341.000,1.000
-12997.397,-14731.513,-69479.697,-109490.846,131132.329,-12209.713,63349.349,-14724.046,-0.285,0.785,-0.480,24.933,-0.671,-13.611,80.000,342.000,1.000
-12912.609,-14632.549,-69824.655,-110083.551,130885.513,-12115.185,63074.623,-14622.214,-0.287,0.788,-0.482,25.055,-1.099,-14.130,80.000,343.000,1.000
-12827.781,-14534.609,-70167.790,-110676.306,130637.011,-12017.031,62801.010,-14520.428,-0.287,0.793,-0.485,25.208,-1.404,-14.618,80.000,344.000,1.000
-12742.682,-14435.935,-70507.942,-111264.143,130389.910,-11912.392,62532.027,-14415.366,-0.286,0.798,-0.486,25.177,-1.862,-15.137,80.000,345.000,1.000
-12658.062,-14336.309,-70844.332,-111839.102,130143.632,-11801.735,62269.426,-14305.386,-0.285,0.803,-0.486,25.024,-2.167,-15.594,80.000,346.000,1.000
-12575.131,-14237.149,-71176.946,-112396.232,129894.140,-11688.719,62012.178,-14191.509,-0.282,0.806,-0.488,24.841,-2.441,-15.961,80.000,347.000,1.000
-12494.529,-14140.190,-71506.432,-112936.886,129639.062,-11578.170,61757.099,-14077.004,-0.281,0.810,-0.486,24.414,-2.625,-16.327,80.000,348.000,1.000
-12415.535,-14045.951,-71833.529,-113467.003,129381.716,-11473.418,61500.722,-13965.401,-0.281,0.810,-0.488,23.865,-2.716,-16.663,80.000,349.000,1.000
-12336.365,-13953.245,-72158.358,-113992.675,129130.267,-11374.275,61241.702,-13857.790,-0.279,0.810,-0.494,23.346,-2.899,-16.846,80.000,350.000,1.000
-12255.560,-13860.341,-72480.385,-114517.691,128893.099,-11277.980,60981.073,-13752.617,-0.278,0.811,-0.497,22.858,-3.021,-16.968,80.000,351.000,1.000
-12173.329,-13766.594,-72799.251,-115044.021,128672.768,-11182.626,60719.745,-13648.398,-0.280,0.813,-0.501,22.461,-3.052,-17.090,80.000,352.000,1.000
-12091.415,-13672.741,-73115.256,-115571.999,128462.132,-11088.719,60457.074,-13545.179,-0.278,0.815,-0.503,21.942,-3.174,-17.242,80.000,353.000,1.000
-12011.153,-13579.589,-73428.781,-116099.721,128246.199,-10997.183,60192.307,-13443.214,-0.281,0.815,-0.502,21.423,-3.052,-17.426,80.000,354.000,1.000
-11931.560,-13486.416,-73739.647,-116623.356,128010.735,-10906.760,59926.672,-13341.253,-0.282,0.816,-0.503,20.782,-2.960,-17.517,80.000,355.000,1.000
-11850.155,-13391.289,-74047.382,-117139.111,127752.377,-10814.550,59662.849,-13237.193,-0.284,0.815,-0.502,20.172,-2.991,-17.639,80.000,356.000,1.000
-11765.923,-13293.382,-74351.906,-117645.324,127481.140,-10719.100,59402.115,-13130.417,-0.284,0.812,-0.500,19.318,-2.991,-17.853,80.000,357.000,1.000
-11680.669,-13194.306,-74653.735,-118142.619,127213.292,-10621.956,59142.883,-13022.580,-0.284,0.806,-0.500,18.616,-2.899,-18.005,80.000,358.000,1.000
-11597.291,-13096.987,-74953.551,-118632.684,126961.692,-10526.454,58881.879,-12916.259,-0.287,0.802,-0.502,17.975,-2.686,-17.975,80.000,359.000,1.000
-11517.536,-13003.625,-75251.701,-119117.170,126730.713,-10435.508,58616.358,-12813.112,-0.290,0.800,-0.503,17.456,-2.563,-18.219,80.000,360.000,1.000
-11441.362,-12914.574,-75548.091,-119597.570,126516.207,-10350.237,58345.336,-12713.165,-0.295,0.794,-0.507,17.029,-2.502,-18.372,80.000,361.000,1.000
-11367.546,-12828.511,-75842.394,-120075.471,126308.310,-10269.802,58069.338,-12615.489,-0.298,0.792,-0.506,16.541,-2.380,-18.463,80.000,362.000,1.000
-11294.673,-12743.707,-76134.334,-120552.407,126095.747,-10192.372,57789.404,-12519.455,-0.305,0.792,-0.505,16.022,-2.411,-18.738,80.000,363.000,1.000
-11221.807,-12659.465,-76423.888,-121029.628,125870.211,-10116.826,57505.884,-12425.596,-0.307,0.791,-0.505,15.533,-2.319,-18.982,80.000,364.000,1.000
-11148.430,-12575.902,-76711.148,-121506.992,125629.628,-10042.980,57218.801,-12334.785,-0.312,0.789,-0.505,15.106,-2.289,-19.257,80.000,365.000,1.000
-11074.144,-12492.752,-76996.078,-121982.297,125377.726,-9970.453,56929.044,-12246.955,-0.316,0.787,-0.508,14.740,-2.167,-19.409,80.000,366.000,1.000
-10998.831,-12409.211,-77278.622,-122452.535,125119.647,-9898.413,56638.134,-12161.166,-0.319,0.783,-0.506,14.374,-2.228,-19.745,80.000,367.000,1.000
-10922.989,-12324.788,-77558.842,-122915.428,124858.439,-9826.140,56347.297,-12076.238,-0.322,0.780,-0.508,14.130,-2.075,-19.836,80.000,368.000,1.000
-10847.634,-12240.021,-77836.891,-123370.204,124595.149,-9753.684,56056.764,-11991.363,-0.325,0.774,-0.511,13.733,-2.045,-19.897,80.000,369.000,1.000
-10773.574,-12156.030,-78112.862,-123817.104,124330.623,-9681.613,55766.139,-11906.104,-0.325,0.768,-0.513,13.611,-2.045,-19.897,80.000,370.000,1.000
-10700.561,-12073.200,-78386.600,-124256.355,124065.753,-9609.784,55475.624,-11819.726,-0.329,0.764,-0.518,13.397,-1.984,-19.928,80.000,371.000,1.000
-10627.394,-11990.643,-78657.689,-124688.134,123799.647,-9536.968,55186.275,-11731.234,-0.333,0.759,-0.520,13.580,-1.923,-19.928,80.000,372.000,1.000
-10552.991,-11907.095,-78925.741,-125113.411,123529.176,-9462.001,54899.022,-11640.287,-0.337,0.761,-0.520,13.794,-1.923,-19.958,80.000,373.000,1.000
-10477.162,-11822.128,-79190.717,-125534.606,123251.492,-9385.151,54613.583,-11547.872,-0.339,0.761,-0.521,13.916,-1.892,-19.989,80.000,374.000,1.000
-10400.548,-11736.328,-79452.993,-125954.482,122966.770,-9307.971,54328.754,-11455.634,-0.342,0.761,-0.524,14.069,-1.923,-20.020,80.000,375.000,1.000
-10324.094,-11650.482,-79713.136,-126373.982,122678.412,-9231.837,54043.728,-11364.600,-0.345,0.764,-0.525,14.130,-1.923,-19.897,80.000,376.000,1.000
-10248.197,-11564.550,-79971.524,-126791.100,122391.405,-9156.582,53759.090,-11274.505,-0.346,0.765,-0.527,14.191,-2.106,-19.989,80.000,377.000,1.000
-10172.230,-11477.556,-80228.098,-127202.035,122110.344,-9080.501,53476.626,-11184.060,-0.346,0.766,-0.531,14.282,-2.106,-19.958,80.000,378.000,1.000
-10095.376,-11389.127,-80482.629,-127604.410,121837.107,-9002.443,53197.299,-11092.418,-0.344,0.764,-0.535,14.465,-2.106,-19.775,80.000,379.000,1.000
-10017.961,-11300.671,-80735.143,-127998.758,121569.924,-8923.463,52919.889,-11000.149,-0.340,0.765,-0.534,14.587,-2.167,-19.562,80.000,380.000,1.000
-9941.346,-11214.201,-80985.805,-128386.302,121305.099,-8845.498,52642.603,-10908.165,-0.338,0.763,-0.538,14.740,-1.953,-19.165,80.000,381.000,1.000
-9866.566,-11130.318,-81234.444,-128766.164,121039.270,-8768.881,52365.487,-10816.191,-0.336,0.759,-0.538,14.954,-1.801,-18.951,80.000,382.000,1.000
-9793.519,-11047.847,-81480.528,-129135.736,120770.440,-8691.871,52090.557,-10722.831,-0.337,0.759,-0.537,15.228,-1.526,-18.585,80.000,383.000,1.000
-9721.375,-10965.173,-81723.637,-129494.257,120497.910,-8612.672,51819.538,-10627.125,-0.341,0.761,-0.538,15.564,-1.404,-18.372,80.000,384.000,1.000
-9649.338,-10881.344,-81963.796,-129844.516,120221.973,-8530.987,51552.533,-10529.208,-0.343,0.763,-0.534,15.717,-1.221,-18.066,80.000,385.000,1.000
-9576.891,-10795.990,-82201.395,-130190.275,119943.777,-8447.465,51288.918,-10429.481,-0.347,0.762,-0.535,15.778,-1.038,-17.761,80.000,386.000,1.000
-9503.642,-10708.970,-82436.891,-130533.124,119665.313,-8362.780,51028.277,-10328.111,-0.351,0.762,-0.536,15.869,-0.854,-17.456,80.000,387.000,1.000
-9429.381,-10620.636,-82670.548,-130872.457,119389.042,-8277.828,50770.057,-10225.572,-0.355,0.760,-0.535,15.930,-0.732,-17.242,80.000,388.000,1.000
-9354.341,-10532.232,-82902.367,-131208.311,119116.882,-8194.534,50512.632,-10123.342,-0.360,0.756,-0.536,15.961,-0.702,-16.968,80.000,389.000,1.000
-9279.339,-10445.605,-83132.200,-131543.021,118849.655,-8115.597,50253.516,-10023.482,-0.363,0.751,-0.542,16.052,-0.671,-16.663,80.000,390.000,1.000
-9205.342,-10362.237,-83359.878,-131879.449,118587.375,-8042.982,49990.739,-9927.384,-0.369,0.748,-0.545,16.418,-0.641,-16.541,80.000,391.000,1.000
-9132.529,-10282.029,-83585.220,-132217.426,118329.808,-7976.193,49724.238,-9834.600,-0.374,0.747,-0.546,16.815,-0.702,-16.327,80.000,392.000,1.000
-9060.113,-10203.085,-83808.084,-132552.105,118077.228,-7911.653,49456.411,-9742.654,-0.380,0.750,-0.546,17.120,-0.977,-16.266,80.000,393.000,1.000
-8987.233,-10123.069,-84028.528,-132876.926,117830.671,-7844.452,49190.856,-9648.557,-0.385,0.752,-0.546,17.120,-1.099,-16.205,80.000,394.000,1.000
-8913.651,-10040.532,-84246.760,-133187.553,117591.488,-7770.772,48930.722,-9550.326,-0.385,0.751,-0.547,17.212,-1.495,-16.174,80.000,395.000,1.000
-8839.647,-9955.058,-84462.902,-133482.276,117360.487,-7688.936,48678.196,-9447.108,-0.385,0.747,-0.549,17.273,-1.617,-15.961,80.000,396.000,1.000
-8765.791,-9867.083,-84676.918,-133760.224,117137.193,-7599.477,48434.337,-9338.842,-0.386,0.746,-0.548,17.517,-1.892,-15.991,80.000,397.000,1.000
-8693.080,-9778.318,-84888.850,-134021.676,116919.615,-7505.564,48197.968,-9226.829,-0.381,0.744,-0.545,17.548,-2.106,-15.839,80.000,398.000,1.000
-8622.816,-9691.826,-85098.981,-134270.326,116704.645,-7413.077,47964.536,-9114.569,-0.376,0.744,-0.548,17.700,-2.228,-15.808,80.000,399.000,1.000
-8555.553,-9610.055,-85307.503,-134511.683,116490.282,-7327.481,47728.594,-9005.852,-0.376,0.745,-0.547,17.853,-2.289,-15.594,80.000,400.000,1.000
-8490.050,-9532.378,-85514.050,-134748.276,116278.649,-7249.254,47488.686,-8901.105,-0.375,0.745,-0.553,18.250,-2.197,-15.259,80.000,401.000,1.000
-8423.582,-9455.115,-85717.851,-134978.600,116076.161,-7173.076,47248.834,-8796.673,-0.376,0.751,-0.556,18.524,-2.045,-15.167,80.000,402.000,1.000
-8353.506,-9373.910,-85918.316,-135201.021,115889.594,-7091.473,47015.469,-8687.855,-0.377,0.755,-0.559,18.616,-1.984,-14.801,80.000,403.000,1.000
-8278.766,-9286.225,-86115.436,-135417.662,115721.002,-6999.613,46793.124,-8572.525,-0.378,0.756,-0.560,18.616,-2.075,-14.374,80.000,404.000,1.000
-8200.279,-9192.348,-86309.660,-135633.392,115566.396,-6897.513,46582.636,-8452.082,-0.379,0.753,-0.561,18.372,-2.014,-14.069,80.000,405.000,1.000
-8120.296,-9095.035,-86501.538,-135851.454,115418.607,-6789.029,46381.719,-8330.005,-0.380,0.750,-0.557,18.372,-1.923,-13.672,80.000,406.000,1.000
-8041.421,-8998.045,-86691.495,-136070.601,115270.508,-6679.683,46185.869,-8210.046,-0.379,0.746,-0.556,18.311,-1.984,-13.397,80.000,407.000,1.000
-7965.730,-8904.507,-86879.820,-136285.867,115116.516,-6574.735,45989.535,-8094.803,-0.376,0.748,-0.559,18.463,-1.801,-13.123,80.000,408.000,1.000
-7894.197,-8816.437,-87066.740,-136492.376,114952.839,-6478.030,45787.454,-7985.273,-0.377,0.748,-0.556,18.738,-1.740,-12.848,80.000,409.000,1.000
-7826.448,-8734.466,-87252.364,-136687.995,114778.160,-6390.791,45576.505,-7880.671,-0.373,0.745,-0.556,18.585,-1.678,-12.390,80.000,410.000,1.000
-7760.921,-8657.017,-87436.503,-136872.784,114594.443,-6310.658,45357.385,-7778.299,-0.371,0.740,-0.561,18.585,-1.526,-11.993,80.000,411.000,1.000
-7695.504,-8580.529,-87618.608,-137047.887,114405.680,-6232.593,45134.172,-7674.449,-0.372,0.732,-0.563,18.707,-1.282,-11.536,80.000,412.000,1.000
-7628.509,-8501.649,-87797.984,-137215.709,114214.828,-6151.828,44911.628,-7566.344,-0.373,0.726,-0.562,18.890,-1.129,-11.017,80.000,413.000,1.000
-7559.554,-8419.638,-87974.259,-137380.564,114021.094,-6067.199,44691.553,-7454.270,-0.373,0.719,-0.563,18.860,-0.916,-10.590,80.000,414.000,1.000
-7489.761,-8336.396,-88147.773,-137546.993,113820.268,-5981.620,44471.595,-7341.589,-0.375,0.714,-0.561,19.196,-0.671,-10.040,80.000,415.000,1.000
-7420.916,-8254.299,-88319.385,-137716.861,113608.355,-5899.345,44247.721,-7232.066,-0.378,0.710,-0.563,19.531,-0.458,-9.735,80.000,416.000,1.000
-7354.105,-8174.377,-88489.823,-137889.348,113385.240,-5823.631,44017.330,-7127.171,-0.381,0.715,-0.562,19.958,-0.305,-9.369,80.000,417.000,1.000
-7289.014,-8096.248,-88659.215,-138063.954,113154.826,-5756.157,43780.454,-7025.698,-0.388,0.720,-0.566,20.447,-0.183,-8.972,80.000,418.000,1.000
-7224.262,-8018.966,-88827.154,-138242.942,112921.007,-5696.292,43538.764,-6925.708,-0.391,0.726,-0.567,20.752,-0.183,-8.698,80.000,419.000,1.000
-7158.198,-7941.365,-88993.020,-138429.877,112683.906,-5639.592,43294.480,-6826.090,-0.392,0.731,-0.569,20.935,-0.427,-8.575,80.000,420.000,1.000
-7089.847,-7862.426,-89156.398,-138626.384,112440.088,-5578.748,43049.750,-6726.600,-0.393,0.732,-0.570,20.935,-0.397,-8.301,80.000,421.000,1.000
-7019.735,-7782.224,-89317.381,-138830.861,112185.558,-5507.924,42805.583,-6627.779,-0.391,0.730,-0.571,20.874,-0.488,-8.057,80.000,422.000,1.000
-6949.880,-7702.279,-89476.438,-139039.012,111918.729,-5426.301,42561.230,-6531.137,-0.390,0.730,-0.568,20.844,-0.580,-8.026,80.000,423.000,1.000
-6882.634,-7624.663,-89633.966,-139245.106,111641.540,-5338.364,42314.683,-6438.854,-0.387,0.726,-0.564,20.782,-0.702,-7.904,80.000,424.000,1.000
-6819.232,-7550.612,-89789.971,-139443.287,111358.795,-5251.176,42064.296,-6352.317,-0.386,0.725,-0.566,20.630,-0.580,-7.629,80.000,425.000,1.000
-6759.125,-7479.896,-89944.161,-139629.691,111075.910,-5170.415,41809.986,-6271.026,-0.386,0.721,-0.566,20.386,-0.488,-7.416,80.000,426.000,1.000
-6700.395,-7411.106,-90096.236,-139804.325,110796.223,-5097.742,41552.767,-6193.134,-0.385,0.720,-0.567,20.416,-0.458,-7.202,80.000,427.000,1.000
-6640.879,-7342.438,-90246.018,-139970.270,110520.059,-5030.915,41293.806,-6116.519,-0.386,0.719,-0.565,20.172,-0.549,-6.927,80.000,428.000,1.000
-6579.358,-7272.852,-90393.461,-140131.726,110245.192,-4966.469,41033.445,-6039.952,-0.382,0.722,-0.566,19.806,-0.641,-6.622,80.000,429.000,1.000
-6516.091,-7202.466,-90538.674,-140291.963,109968.248,-4902.216,40771.197,-5963.528,-0.384,0.719,-0.573,19.745,-0.580,-6.439,80.000,430.000,1.000
-6452.264,-7131.757,-90681.859,-140451.568,109686.875,-4837.598,40507.128,-5887.799,-0.382,0.720,-0.574,19.745,-0.366,-6.256,80.000,431.000,1.000
-6388.862,-7060.773,-90823.137,-140609.010,109401.060,-4772.586,40242.887,-5812.710,-0.384,0.725,-0.574,19.684,-0.214,-6.287,80.000,432.000,1.000
-6326.017,-6989.250,-90962.442,-140763.562,109112.229,-4706.697,39981.066,-5737.477,-0.382,0.728,-0.573,19.409,-0.061,-6.104,80.000,433.000,1.000
-6263.358,-6917.199,-91099.699,-140917.571,108820.669,-4639.694,39722.937,-5661.961,-0.379,0.728,-0.576,19.104,0.031,-5.920,80.000,434.000,1.000
-6200.617,-6844.926,-91235.048,-141074.139,108524.449,-4572.568,39467.391,-5587.676,-0.380,0.730,-0.576,18.799,0.122,-5.768,80.000,435.000,1.000
-6137.861,-6772.859,-91368.748,-141232.656,108221.055,-4506.826,39212.251,-5516.933,-0.378,0.731,-0.576,18.433,0.336,-5.676,80.000,436.000,1.000
-6075.494,-6701.791,-91500.937,-141388.010,107909.244,-4443.177,38955.707,-5451.170,-0.377,0.729,-0.580,18.036,0.671,-5.585,80.000,437.000,1.000
-6014.011,-6632.581,-91631.578,-141534.140,107589.693,-4381.101,38696.863,-5389.853,-0.377,0.727,-0.583,17.700,0.946,-5.432,80.000,438.000,1.000
-5953.474,-6565.168,-91760.485,-141668.868,107264.658,-4319.455,38435.610,-5330.693,-0.379,0.726,-0.586,17.456,1.251,-5.219,80.000,439.000,1.000
-5893.193,-6498.048,-91887.321,-141795.041,106937.422,-4256.826,38172.930,-5270.181,-0.378,0.725,-0.589,17.212,1.617,-5.066,80.000,440.000,1.000
-5832.118,-6429.073,-92011.703,-141917.275,106611.217,-4191.464,37911.350,-5204.420,-0.379,0.724,-0.590,16.968,1.984,-5.066,80.000,441.000,1.000
-5769.763,-6357.041,-92133.446,-142038.494,106287.537,-4121.854,37653.949,-5131.096,-0.375,0.721,-0.598,16.541,2.167,-5.127,80.000,442.000,1.000
-5706.846,-6282.683,-92252.686,-142158.545,105965.503,-4047.772,37402.583,-5051.046,-0.373,0.717,-0.599,16.632,2.655,-4.944,80.000,443.000,1.000
-5644.785,-6208.101,-92369.789,-142274.957,105643.042,-3971.070,37156.737,-4967.591,-0.374,0.714,-0.597,16.571,3.021,-4.852,80.000,444.000,1.000
-5584.337,-6134.993,-92485.111,-142384.619,105319.252,-3894.715,36914.414,-4883.847,-0.375,0.715,-0.603,16.357,3.387,-4.791,80.000,445.000,1.000
-5524.959,-6063.534,-92598.829,-142485.750,104995.798,-3820.707,36674.038,-4800.760,-0.371,0.714,-0.607,16.357,3.906,-4.700,80.000,446.000,1.000
-5465.558,-5992.776,-92710.927,-142579.045,104675.975,-3749.150,36435.302,-4717.587,-0.370,0.715,-0.604,16.388,4.364,-4.578,80.000,447.000,1.000
-5405.497,-5921.515,-92821.236,-142666.948,104362.875,-3678.666,36198.941,-4633.271,-0.366,0.717,-0.610,16.205,4.913,-4.486,80.000,448.000,1.000
-5344.765,-5849.051,-92929.522,-142752.717,104057.922,-3607.539,35965.641,-4547.477,-0.369,0.717,-0.613,16.357,5.402,-4.211,80.000,449.000,1.000
-5283.475,-5775.409,-93035.615,-142839.070,103760.579,-3534.589,35735.320,-4460.631,-0.367,0.718,-0.617,16.327,5.981,-4.120,80.000,450.000,1.000
-5221.511,-5700.923,-93139.523,-142926.826,103469.058,-3459.388,35507.417,-4373.423,-0.370,0.722,-0.615,16.327,6.531,-3.998,80.000,451.000,1.000
-5158.614,-5625.747,-93241.445,-143015.180,103181.075,-3382.086,35281.284,-4286.634,-0.374,0.722,-0.615,16.144,6.958,-3.906,80.000,452.000,1.000
-5094.841,-5550.019,-93341.625,-143102.473,102894.535,-3303.150,35056.385,-4201.149,-0.372,0.719,-0.617,15.747,7.416,-3.784,80.000,453.000,1.000
-5031.005,-5474.472,-93440.175,-143186.565,102607.781,-3223.711,34831.856,-4118.111,-0.372,0.713,-0.614,15.564,7.812,-3.723,80.000,454.000,1.000
-4968.451,-5400.295,-93537.044,-143264.586,102319.833,-3145.511,34606.509,-4038.303,-0.372,0.704,-0.613,15.442,8.148,-3.754,80.000,455.000,1.000
-4908.245,-5328.390,-93632.133,-143333.217,102030.536,-3069.966,34379.578,-3961.100,-0.369,0.695,-0.612,15.381,8.636,-3.571,80.000,456.000,1.000
-4850.513,-5258.842,-93725.399,-143390.073,101740.220,-2997.453,34150.983,-3884.595,-0.370,0.689,-0.609,15.259,9.094,-3.479,80.000,457.000,1.000
-4794.364,-5190.736,-93816.896,-143434.535,101449.391,-2927.243,33921.216,-3806.629,-0.369,0.683,-0.609,15.167,9.399,-3.418,80.000,458.000,1.000
-4738.381,-5122.698,-93906.781,-143467.946,101158.367,-2858.179,33690.863,-3725.777,-0.371,0.675,-0.607,15.198,9.766,-3.357,80.000,459.000,1.000
-4681.335,-5053.640,-93995.189,-143493.023,100867.230,-2789.245,33460.477,-3641.396,-0.372,0.668,-0.608,15.228,10.040,-3.204,80.000,460.000,1.000
-4622.666,-4983.044,-94082.089,-143513.144,100575.985,-2719.796,33230.578,-3553.467,-0.369,0.663,-0.611,15.350,10.345,-3.082,80.000,461.000,1.000
-4562.447,-4910.896,-94167.274,-143531.786,100284.367,-2649.667,33001.217,-3462.875,-0.366,0.657,-0.607,15.747,10.681,-2.869,80.000,462.000,1.000
-4501.125,-4837.503,-94250.456,-143551.068,99992.097,-2578.461,32772.088,-3371.125,-0.364,0.656,-0.608,16.235,10.864,-2.838,80.000,463.000,1.000
-4439.440,-4763.539,-94331.475,-143571.656,99698.858,-2504.715,32542.559,-3280.033,-0.366,0.656,-0.611,16.510,11.200,-2.869,80.000,464.000,1.000
-4378.267,-4689.882,-94410.493,-143594.400,99403.543,-2426.020,32311.449,-3191.688,-0.367,0.656,-0.610,16.632,11.414,-2.808,80.000,465.000,1.000
-4318.158,-4617.175,-94487.937,-143621.314,99103.860,-2340.777,32077.435,-3108.024,-0.362,0.655,-0.618,16.937,11.505,-2.777,80.000,466.000,1.000
-4259.182,-4545.730,-94564.201,-143654.495,98797.323,-2250.694,31840.021,-3030.002,-0.363,0.653,-0.618,17.365,11.658,-2.594,80.000,467.000,1.000
-4201.084,-4475.499,-94639.374,-143695.217,98483.294,-2160.960,31600.343,-2956.899,-0.363,0.656,-0.618,17.822,11.841,-2.411,80.000,468.000,1.000
-4143.215,-4405.765,-94713.274,-143745.624,98163.817,-2077.386,31360.434,-2886.739,-0.359,0.659,-0.617,18.127,11.719,-2.350,80.000,469.000,1.000
-4084.901,-4335.386,-94785.621,-143806.633,97842.943,-2003.702,31121.860,-2817.327,-0.358,0.660,-0.613,18.250,11.841,-2.319,80.000,470.000,1.000
-4026.488,-4264.499,-94856.158,-143871.352,97525.512,-1941.200,30885.141,-2747.161,-0.356,0.659,-0.617,18.280,11.902,-2.167,80.000,471.000,1.000
-3969.368,-4195.482,-94924.777,-143925.637,97215.340,-1888.722,30649.891,-2676.014,-0.352,0.656,-0.624,18.494,12.085,-1.953,80.000,472.000,1.000
-3914.651,-4130.842,-94991.548,-143957.640,96913.687,-1842.064,30415.612,-2604.408,-0.351,0.656,-0.624,18.768,12.299,-1.556,80.000,473.000,1.000
-3862.235,-4070.431,-95056.624,-143966.108,96618.835,-1795.690,30181.872,-2532.883,-0.350,0.656,-0.624,18.890,12.421,-1.404,80.000,474.000,1.000
-3811.046,-4011.494,-95120.122,-143960.010,96327.112,-1745.786,29948.088,-2461.681,-0.346,0.653,-0.623,19.012,12.390,-1.068,80.000,475.000,1.000
-3759.822,-3951.238,-95182.005,-143951.506,96034.982,-1691.436,29713.830,-2390.682,-0.344,0.653,-0.623,19.073,12.665,-0.763,80.000,476.000,1.000
-3707.705,-3888.580,-95242.029,-143948.378,95741.010,-1633.727,29479.157,-2319.431,-0.346,0.654,-0.621,19.104,12.787,-0.519,80.000,477.000,1.000
-3654.388,-3823.520,-95299.867,-143950.078,95446.840,-1574.102,29244.798,-2246.826,-0.344,0.652,-0.619,19.135,12.787,-0.244,80.000,478.000,1.000
-3600.005,-3756.495,-95355.324,-143949.352,95156.051,-1513.772,29011.526,-2171.357,-0.344,0.650,-0.622,19.073,12.970,0.092,80.000,479.000,1.000
-3545.011,-3688.690,-95408.482,-143937.886,94871.621,-1453.900,28779.439,-2092.022,-0.344,0.652,-0.621,18.982,13.000,0.244,80.000,480.000,1.000
-3489.906,-3621.725,-95459.746,-143913.106,94593.587,-1395.220,28548.023,-2009.000,-0.345,0.660,-0.622,18.982,13.000,0.366,80.000,481.000,1.000
-3434.966,-3556.404,-95509.660,-143881.381,94318.036,-1337.477,28316.576,-1923.689,-0.349,0.665,-0.627,18.951,13.062,0.580,80.000,482.000,1.000
-3380.303,-3492.320,-95558.576,-143853.475,94038.527,-1279.724,28084.675,-1838.144,-0.347,0.671,-0.631,18.799,13.184,0.732,80.000,483.000,1.000
-3325.994,-3429.025,-95606.501,-143836.883,93749.208,-1221.573,27852.302,-1754.531,-0.346,0.675,-0.636,18.616,13.123,0.885,80.000,484.000,1.000
-3271.973,-3366.723,-95653.124,-143832.193,93447.938,-1163.417,27620.311,-1674.236,-0.346,0.680,-0.637,18.341,13.031,1.068,80.000,485.000,1.000
-3217.950,-3305.374,-95698.001,-143835.425,93137.265,-1105.282,27390.791,-1597.175,-0.344,0.683,-0.636,17.914,12.970,1.129,80.000,486.000,1.000
-3163.599,-3243.789,-95740.891,-143841.957,92822.410,-1046.281,27166.150,-1522.225,-0.344,0.683,-0.638,17.548,12.787,1.251,80.000,487.000,1.000
-3108.905,-3180.357,-95781.963,-143846.788,92508.420,-985.244,26947.921,-1447.997,-0.343,0.683,-0.639,17.029,12.756,1.404,80.000,488.000,1.000
-3054.368,-3114.875,-95821.615,-143843.516,92198.286,-921.888,26735.862,-1373.469,-0.342,0.680,-0.640,16.724,12.634,1.556,80.000,489.000,1.000
-3000.677,-3048.834,-95860.046,-143825.674,91892.746,-856.986,26528.221,-1298.102,-0.341,0.677,-0.641,16.357,12.451,1.709,80.000,490.000,1.000
-2948.024,-2983.620,-95897.065,-143790.108,91591.124,-791.434,26323.064,-1221.636,-0.337,0.672,-0.642,16.083,12.329,1.923,80.000,491.000,1.000
-2895.878,-2919.171,-95932.323,-143739.024,91291.986,-725.708,26119.058,-1144.232,-0.334,0.666,-0.641,15.656,12.421,2.136,80.000,492.000,1.000
-2843.651,-2854.765,-95965.662,-143677.694,90993.674,-660.046,25915.447,-1066.528,-0.334,0.661,-0.636,15.228,12.177,2.319,80.000,493.000,1.000
-2791.410,-2790.520,-95997.084,-143610.495,90694.618,-594.876,25711.556,-989.425,-0.335,0.657,-0.635,14.954,12.115,2.380,80.000,494.000,1.000
-2739.555,-2727.129,-96026.471,-143539.423,90393.788,-530.334,25506.968,-913.217,-0.337,0.651,-0.638,14.771,11.993,2.411,80.000,495.000,1.000
-2687.986,-2664.474,-96053.719,-143466.297,90090.893,-465.470,25302.001,-837.027,-0.337,0.650,-0.643,14.587,11.841,2.197,80.000,496.000,1.000
-2635.896,-2601.335,-96079.122,-143394.875,89786.191,-398.450,25097.575,-759.465,-0.336,0.651,-0.645,14.404,11.749,2.136,80.000,497.000,1.000
-2582.348,-2536.345,-96103.209,-143328.838,89480.999,-327.273,24895.235,-679.326,-0.337,0.652,-0.641,14.160,11.536,1.923,80.000,498.000,1.000
-2526.979,-2469.138,-96126.186,-143269.093,89177.569,-250.888,24696.553,-596.278,-0.336,0.652,-0.643,14.008,11.292,1.801,80.000,499.000,1.000
-2470.218,-2400.417,-96147.776,-143213.287,88878.187,-169.779,24502.376,-511.121,-0.334,0.656,-0.642,13.763,11.261,1.678,80.000,500.000,1.000
-2413.054,-2331.090,-96167.550,-143156.693,88585.032,-85.276,24313.185,-425.091,-0.334,0.661,-0.644,13.580,11.047,1.556,80.000,501.000,1.000
-2356.466,-2261.573,-96185.324,-143093.848,88300.231,1.427,24129.737,-338.994,-0.332,0.665,-0.648,13.306,10.895,1.251,80.000,502.000,1.000
-2300.819,-2191.821,-96201.256,-143020.793,88024.893,89.626,23952.878,-252.986,-0.333,0.667,-0.649,13.092,10.712,1.038,80.000,503.000,1.000
-2245.882,-2122.057,-96215.729,-142938.039,87757.244,178.286,23781.899,-167.644,-0.332,0.671,-0.651,12.695,10.498,0.946,80.000,504.000,1.000
-2191.338,-2053.014,-96229.139,-142851.026,87492.433,265.573,23613.767,-84.673,-0.335,0.676,-0.653,12.268,10.254,0.763,80.000,505.000,1.000
-2137.146,-1985.302,-96241.645,-142766.516,87225.229,349.809,23444.877,-5.887,-0.336,0.679,-0.656,11.902,10.010,0.519,80.000,506.000,1.000
-2083.574,-1919.018,-96253.088,-142688.340,86953.142,430.502,23273.162,68.163,-0.336,0.681,-0.656,11.475,9.857,0.153,80.000,507.000,1.000
-2030.909,-1853.976,-96263.156,-142615.887,86677.291,508.461,23098.747,138.602,-0.339,0.683,-0.656,10.925,9.491,-0.031,80.000,508.000,1.000
-1979.152,-1790.169,-96271.628,-142546.355,86400.277,584.715,22922.657,207.113,-0.340,0.688,-0.659,10.498,9.308,-0.366,80.000,509.000,1.000
-1928.042,-1727.639,-96278.507,-142476.936,86123.888,659.714,22745.718,274.843,-0.343,0.688,-0.663,9.888,9.003,-0.671,80.000,510.000,1.000
-1877.254,-1665.923,-96283.898,-142404.287,85849.138,733.882,22569.194,342.815,-0.347,0.690,-0.665,9.399,8.850,-1.068,80.000,511.000,1.000
-1826.385,-1603.924,-96287.759,-142323.950,85577.182,808.347,22395.508,412.752,-0.351,0.693,-0.666,8.942,8.514,-1.526,80.000,512.000,1.000
-1774.885,-1540.375,-96289.870,-142231.642,85309.310,884.952,22227.847,487.005,-0.354,0.693,-0.670,8.575,8.148,-1.892,80.000,513.000,1.000
-1722.249,-1474.385,-96290.091,-142124.899,85046.292,965.510,22068.999,567.635,-0.355,0.694,-0.670,7.965,7.812,-2.441,80.000,514.000,1.000
-1668.088,-1404.864,-96288.461,-142000.770,84789.813,1052.334,21922.170,656.866,-0.355,0.694,-0.673,7.416,7.355,-2.960,80.000,515.000,1.000
-1611.788,-1329.290,-96284.876,-141850.762,84546.155,1150.416,21794.081,759.286,-0.359,0.695,-0.670,6.958,6.927,-3.387,80.000,516.000,1.000
-1552.442,-1244.295,-96278.814,-141661.306,84327.071,1267.483,21695.276,882.054,-0.360,0.694,-0.673,6.561,6.561,-3.723,80.000,517.000,1.000
-1489.606,-1148.510,-96269.673,-141423.776,84144.191,1409.543,21634.251,1030.595,-0.360,0.693,-0.669,5.951,6.104,-4.028,80.000,518.000,1.000
-1424.307,-1045.239,-96257.471,-141147.564,83999.769,1574.387,21608.486,1202.152,-0.361,0.691,-0.670,5.402,5.676,-4.425,80.000,519.000,1.000
-1359.290,-942.340,-96243.188,-140863.196,83881.589,1748.826,21600.398,1383.164,-0.361,0.689,-0.666,4.974,5.371,-4.730,80.000,520.000,1.000
-1298.161,-849.383,-96228.430,-140611.342,83766.391,1912.473,21582.390,1553.260,-0.359,0.687,-0.667,4.456,5.066,-5.096,80.000,521.000,1.000
-1243.847,-773.924,-96214.622,-140425.906,83629.040,2045.804,21527.617,1693.348,-0.356,0.686,-0.668,3.876,4.700,-5.188,80.000,522.000,1.000
-1197.281,-718.465,-96202.337,-140321.088,83451.696,2137.929,21420.045,1793.116,-0.355,0.685,-0.664,3.479,4.395,-5.371,80.000,523.000,1.000
-1157.072,-679.671,-96191.235,-140288.763,83228.145,2189.584,21258.188,1853.545,-0.354,0.685,-0.664,3.052,4.150,-5.463,80.000,524.000,1.000
-1120.187,-650.356,-96180.356,-140305.439,82962.748,2210.728,21052.211,1884.170,-0.356,0.686,-0.666,2.686,3.998,-5.493,80.000,525.000,1.000
-1083.379,-623.311,-96168.540,-140343.987,82665.552,2214.635,20817.139,1897.362,-0.356,0.688,-0.665,2.319,3.784,-5.524,80.000,526.000,1.000
-1044.669,-594.462,-96155.000,-140383.991,82345.707,2211.477,20565.634,1902.586,-0.358,0.689,-0.666,1.648,3.479,-5.524,80.000,527.000,1.000
-1003.934,-563.107,-96139.663,-140415.096,82007.390,2205.662,20304.845,1904.205,-0.359,0.689,-0.667,1.068,3.204,-5.341,80.000,528.000,1.000
-962.361,-530.360,-96122.946,-140434.688,81650.056,2197.420,20037.574,1902.871,-0.359,0.690,-0.666,0.702,2.991,-5.341,80.000,529.000,1.000
-921.357,-497.765,-96105.243,-140444.279,81271.759,2185.701,19764.842,1898.116,-0.363,0.689,-0.662,0.153,2.716,-5.188,80.000,530.000,1.000
-881.705,-466.677,-96086.638,-140447.184,80872.758,2169.777,19487.244,1890.015,-0.364,0.688,-0.660,-0.427,2.533,-5.341,80.000,531.000,1.000
-843.384,-437.910,-96066.894,-140447.010,80457.003,2149.389,19204.853,1879.422,-0.365,0.684,-0.659,-1.038,2.502,-5.310,80.000,532.000,1.000
-805.748,-411.052,-96045.556,-140445.276,80031.389,2125.176,18917.770,1868.046,-0.359,0.680,-0.660,-1.556,2.258,-5.157,80.000,533.000,1.000
-767.876,-384.381,-96022.190,-140440.449,79603.061,2099.020,18626.996,1858.102,-0.355,0.675,-0.661,-1.984,2.106,-5.005,80.000,534.000,1.000
-729.222,-356.097,-95996.700,-140429.919,79175.886,2073.327,18334.128,1850.986,-0.351,0.672,-0.660,-2.472,2.075,-4.883,80.000,535.000,1.000
-690.059,-325.934,-95969.485,-140413.315,78748.029,2049.381,18039.705,1845.790,-0.348,0.665,-0.659,-2.869,2.014,-4.730,80.000,536.000,1.000
-651.159,-295.378,-95941.165,-140393.835,78312.729,2026.332,17742.118,1839.328,-0.347,0.660,-0.660,-3.113,2.014,-4.608,80.000,537.000,1.000
-612.994,-265.988,-95912.082,-140374.938,77863.230,2002.692,17439.628,1828.628,-0.344,0.656,-0.662,-3.326,2.136,-4.425,80.000,538.000,1.000
-575.213,-237.674,-95882.071,-140355.924,77398.034,1978.745,17133.418,1813.517,-0.342,0.654,-0.663,-3.510,2.197,-4.272,80.000,539.000,1.000
-536.891,-208.674,-95850.705,-140331.522,76921.734,1956.955,16827.814,1796.628,-0.342,0.650,-0.664,-3.632,2.289,-4.059,80.000,540.000,1.000
-497.456,-177.256,-95817.689,-140296.301,76440.894,1939.660,16527.007,1780.801,-0.337,0.649,-0.664,-3.845,2.441,-3.784,80.000,541.000,1.000
-457.360,-143.258,-95782.979,-140249.424,75959.205,1926.623,16231.712,1766.587,-0.334,0.647,-0.664,-3.815,2.625,-3.387,80.000,542.000,1.000
-417.821,-107.792,-95746.672,-140194.126,75477.051,1915.839,15940.027,1752.899,-0.333,0.646,-0.663,-3.906,2.930,-3.204,80.000,543.000,1.000
-379.880,-71.981,-95708.940,-140133.396,74994.450,1906.357,15650.814,1739.467,-0.331,0.643,-0.661,-3.998,3.021,-2.960,80.000,544.000,1.000
-343.496,-36.129,-95669.941,-140067.286,74512.729,1899.557,15365.349,1727.986,-0.332,0.641,-0.660,-4.089,3.235,-2.716,80.000,545.000,1.000
-307.545,0.060,-95629.696,-139994.875,74033.066,1897.337,15085.489,1720.592,-0.332,0.639,-0.657,-4.242,3.448,-2.258,80.000,546.000,1.000
-270.718,36.835,-95588.083,-139917.451,73554.718,1899.646,14810.951,1717.564,-0.333,0.638,-0.653,-4.303,3.662,-2.197,80.000,547.000,1.000
-232.198,74.539,-95544.865,-139837.227,73076.295,1905.152,14540.092,1717.699,-0.333,0.635,-0.652,-4.456,3.937,-2.106,80.000,548.000,1.000
-191.928,113.787,-95499.801,-139754.255,72597.657,1913.311,14272.375,1720.146,-0.335,0.634,-0.650,-4.608,4.059,-2.014,80.000,549.000,1.000
-150.894,154.708,-95452.903,-139666.694,72119.346,1924.342,14008.353,1724.567,-0.335,0.630,-0.650,-4.700,4.242,-2.045,80.000,550.000,1.000
-110.874,196.177,-95404.548,-139574.039,71641.005,1937.515,13747.457,1729.791,-0.337,0.628,-0.648,-4.913,4.395,-1.862,80.000,551.000,1.000
-73.319,236.259,-95355.278,-139478.773,71161.012,1950.398,13486.828,1733.359,-0.338,0.629,-0.649,-5.066,4.486,-1.923,80.000,552.000,1.000
-38.382,273.738,-95305.400,-139383.311,70678.129,1960.559,13223.489,1733.454,-0.338,0.632,-0.651,-5.219,4.639,-1.953,80.000,553.000,1.000
-4.894,309.231,-95254.739,-139286.091,70193.707,1967.930,12957.614,1731.191,-0.338,0.632,-0.649,-5.432,4.761,-2.014,80.000,554.000,1.000
28.881,344.733,-95202.782,-139182.148,69711.951,1975.001,12693.002,1730.356,-0.340,0.633,-0.649,-5.554,4.822,-1.984,80.000,555.000,1.000
64.103,381.696,-95149.187,-139068.458,69237.013,1984.044,12433.459,1734.013,-0.341,0.635,-0.650,-5.554,4.791,-1.923,80.000,556.000,1.000
100.764,419.768,-95094.079,-138947.782,68769.889,1994.658,12179.082,1741.633,-0.343,0.636,-0.652,-5.646,4.852,-2.075,80.000,557.000,1.000
138.334,458.024,-95037.735,-138825.203,68309.353,2005.502,11927.772,1750.834,-0.347,0.640,-0.652,-5.737,4.974,-2.258,80.000,558.000,1.000
176.618,496.688,-94980.188,-138702.245,67854.984,2017.426,11679.362,1761.032,-0.352,0.643,-0.653,-5.890,4.883,-2.411,80.000,559.000,1.000
215.674,536.971,-94921.249,-138576.381,67407.782,2033.343,11436.455,1774.103,-0.352,0.647,-0.655,-6.012,4.791,-2.533,80.000,560.000,1.000
255.313,579.539,-94860.767,-138445.766,66967.891,2055.145,11201.359,1791.805,-0.353,0.647,-0.657,-6.165,4.730,-2.716,80.000,561.000,1.000
295.010,623.477,-94798.754,-138312.528,66532.686,2081.426,10973.219,1813.417,-0.354,0.650,-0.656,-6.287,4.517,-2.869,80.000,562.000,1.000
334.168,666.953,-94735.336,-138180.181,66098.036,2108.622,10748.961,1836.405,-0.356,0.652,-0.660,-6.531,4.364,-3.052,80.000,563.000,1.000
372.454,708.817,-94670.711,-138049.455,65661.196,2133.976,10526.222,1858.774,-0.358,0.652,-0.660,-6.683,4.272,-3.204,80.000,564.000,1.000
410.060,749.509,-94605.082,-137917.923,65222.255,2157.407,10304.757,1880.397,-0.357,0.652,-0.658,-6.897,4.120,-3.296,80.000,565.000,1.000
447.598,790.302,-94538.494,-137783.365,64783.000,2180.744,10085.257,1902.263,-0.358,0.651,-0.654,-7.202,3.845,-3.571,80.000,566.000,1.000
485.653,831.957,-94470.771,-137646.280,64344.722,2205.476,9867.471,1924.887,-0.358,0.650,-0.657,-7.568,3.601,-3.571,80.000,567.000,1.000
524.406,874.504,-94401.736,-137507.838,63907.792,2231.883,9650.474,1948.108,-0.357,0.650,-0.653,-7.965,3.418,-3.571,80.000,568.000,1.000
563.672,917.778,-94331.456,-137366.633,63472.903,2259.780,9434.138,1971.916,-0.355,0.647,-0.652,-8.209,3.143,-3.632,80.000,569.000,1.000
603.142,961.560,-94260.164,-137219.008,63041.842,2289.247,9219.667,1996.853,-0.354,0.643,-0.651,-8.514,2.960,-3.693,80.000,570.000,1.000
642.389,1005.118,-94188.080,-137063.207,62616.158,2320.152,9008.219,2023.222,-0.355,0.644,-0.647,-8.881,2.777,-3.693,80.000,571.000,1.000
680.863,1047.172,-94115.386,-136902.482,62195.081,2351.295,8799.037,2050.034,-0.355,0.643,-0.647,-9.247,2.472,-3.571,80.000,572.000,1.000
718.193,1086.945,-94042.199,-136742.445,61775.933,2381.159,8590.121,2075.758,-0.356,0.642,-0.646,-9.552,2.228,-3.510,80.000,573.000,1.000
754.457,1124.860,-93968.482,-136586.123,61356.342,2409.282,8380.381,2099.867,-0.354,0.641,-0.644,-9.796,1.984,-3.448,80.000,574.000,1.000
790.043,1162.101,-93893.971,-136432.545,60935.637,2436.571,8170.516,2123.194,-0.354,0.641,-0.641,-10.193,1.678,-3.510,80.000,575.000,1.000
825.366,1199.616,-93818.250,-136279.620,60514.299,2464.161,7961.841,2146.817,-0.354,0.638,-0.636,-10.498,1.465,-3.387,80.000,576.000,1.000
860.700,1237.512,-93740.956,-136127.212,60092.495,2491.885,7754.462,2170.762,-0.351,0.638,-0.637,-10.712,1.129,-3.326,80.000,577.000,1.000
896.213,1275.547,-93661.921,-135976.228,59670.140,2518.783,7547.566,2194.474,-0.351,0.636,-0.634,-11.078,0.946,-3.204,80.000,578.000,1.000
932.205,1313.931,-93581.075,-135825.588,59248.318,2545.049,7341.294,2218.217,-0.353,0.635,-0.627,-11.169,0.610,-3.113,80.000,579.000,1.000
969.116,1353.327,-93498.309,-135671.385,58829.621,2572.571,7137.482,2243.245,-0.353,0.633,-0.623,-11.383,0.336,-3.021,80.000,580.000,1.000
1007.099,1394.108,-93413.556,-135509.835,58416.208,2603.132,6938.092,2270.336,-0.356,0.633,-0.618,-11.627,0.031,-3.082,80.000,581.000,1.000
1045.713,1435.992,-93327.034,-135340.583,58007.625,2636.614,6743.233,2298.550,-0.359,0.632,-0.617,-11.841,-0.305,-3.021,80.000,582.000,1.000
1084.164,1478.479,-93239.276,-135165.963,57601.113,2671.581,6551.528,2326.037,-0.360,0.630,-0.614,-12.238,-0.732,-2.991,80.000,583.000,1.000
1121.841,1521.233,-93150.877,-134987.832,57193.788,2706.985,6361.865,2351.696,-0.362,0.631,-0.610,-12.512,-1.160,-2.991,80.000,584.000,1.000
1158.645,1564.140,-93062.146,-134805.857,56784.686,2742.994,6174.415,2376.125,-0.364,0.629,-0.603,-13.062,-1.373,-3.174,80.000,585.000,1.000
1194.867,1607.187,-92973.038,-134618.612,56375.127,2780.425,5990.159,2401.217,-0.366,0.626,-0.601,-13.428,-1.678,-3.235,80.000,586.000,1.000
1230.976,1650.382,-92883.333,-134425.397,55967.475,2819.986,5809.936,2428.977,-0.367,0.624,-0.599,-13.947,-2.075,-3.235,80.000,587.000,1.000
1267.574,1693.942,-92792.728,-134226.024,55564.236,2862.664,5634.672,2461.035,-0.370,0.624,-0.601,-14.313,-2.289,-3.204,80.000,588.000,1.000
1305.234,1738.459,-92700.783,-134019.916,55167.703,2910.036,5465.736,2498.531,-0.373,0.626,-0.598,-14.679,-2.777,-3.265,80.000,589.000,1.000
1344.082,1784.900,-92607.017,-133806.246,54779.532,2963.584,5304.486,2541.926,-0.375,0.630,-0.598,-14.984,-3.174,-3.571,80.000,590.000,1.000
1383.388,1834.039,-92511.304,-133585.212,54400.209,3023.532,5151.272,2590.726,-0.377,0.639,-0.597,-15.289,-3.601,-3.723,80.000,591.000,1.000
1421.885,1885.807,-92414.080,-133358.977,54029.048,3088.247,5004.786,2643.414,-0.375,0.643,-0.600,-15.991,-4.150,-3.601,80.000,592.000,1.000
1458.931,1939.557,-92315.933,-133130.382,53665.228,3155.115,4863.062,2698.362,-0.375,0.646,-0.599,-16.602,-4.639,-3.540,80.000,593.000,1.000
1495.039,1994.178,-92217.108,-132901.480,53308.352,3221.799,4724.755,2754.468,-0.373,0.650,-0.597,-17.059,-4.883,-3.418,80.000,594.000,1.000
1531.142,2047.877,-92117.448,-132673.464,52958.081,3287.144,4589.432,2810.832,-0.371,0.654,-0.594,-17.487,-5.188,-3.540,80.000,595.000,1.000
1567.865,2098.962,-92016.649,-132446.846,52613.805,3351.460,4457.242,2866.612,-0.371,0.658,-0.598,-17.944,-5.524,-3.571,80.000,596.000,1.000
1605.403,2147.155,-91914.587,-132221.611,52274.364,3415.559,4328.192,2921.297,-0.370,0.658,-0.595,-18.494,-5.798,-3.510,80.000,597.000,1.000
1643.412,2193.750,-91811.483,-131997.917,51937.968,3479.395,4201.539,2974.685,-0.372,0.656,-0.592,-19.043,-6.012,-3.510,80.000,598.000,1.000
1681.011,2240.155,-91707.735,-131777.247,51602.393,3541.536,4075.379,3026.110,-0.370,0.656,-0.589,-19.440,-6.226,-3.448,80.000,599.000,1.000
1717.375,2286.260,-91603.538,-131562.166,51265.471,3599.835,3947.011,3074.186,-0.370,0.658,-0.588,-19.806,-6.500,-3.296,80.000,600.000,1.000
1752.301,2330.445,-91498.766,-131354.771,50925.520,3652.503,3813.962,3117.592,-0.372,0.661,-0.590,-20.050,-6.653,-3.204,80.000,601.000,1.000
1786.084,2371.180,-91393.200,-131155.893,50581.398,3698.660,3674.534,3155.757,-0.376,0.665,-0.588,-20.355,-6.866,-3.296,80.000,602.000,1.000
1818.969,2408.126,-91286.735,-130965.543,50232.271,3738.438,3527.864,3188.908,-0.381,0.671,-0.580,-20.630,-7.080,-3.235,80.000,603.000,1.000
1850.922,2441.738,-91179.441,-130784.084,49876.896,3772.360,3373.521,3217.438,-0.384,0.678,-0.581,-20.966,-7.324,-3.265,80.000,604.000,1.000
1881.942,2472.999,-91071.502,-130612.425,49513.419,3800.580,3211.192,3241.418,-0.384,0.686,-0.579,-21.271,-7.721,-3.418,80.000,605.000,1.000
1912.334,2503.398,-90963.097,-130451.156,49140.266,3822.731,3040.740,3260.664,-0.383,0.693,-0.580,-21.606,-7.996,-3.387,80.000,606.000,1.000
1942.452,2533.782,-90854.280,-130300.368,48756.839,3838.206,2862.012,3274.706,-0.380,0.700,-0.576,-22.003,-8.240,-3.387,80.000,607.000,1.000
1972.259,2563.106,-90744.980,-130160.076,48363.340,3846.569,2674.630,3282.632,-0.376,0.706,-0.573,-22.430,-8.270,-3.296,80.000,608.000,1.000
2001.310,2589.120,-90635.090,-130030.627,47960.033,3847.613,2477.869,3283.189,-0.372,0.714,-0.570,-22.919,-8.514,-3.204,80.000,609.000,1.000
2029.259,2610.574,-90524.482,-129912.301,47547.118,3841.508,2271.184,3275.909,-0.369,0.717,-0.566,-23.560,-8.514,-3.082,80.000,610.000,1.000
2056.248,2628.159,-90413.020,-129804.521,47125.136,3829.034,2054.809,3261.900,-0.363,0.718,-0.567,-24.353,-8.484,-2.838,80.000,611.000,1.000
2082.622,2643.005,-90300.680,-129706.053,46694.745,3811.098,1829.156,3242.543,-0.360,0.715,-0.567,-24.841,-8.270,-2.625,80.000,612.000,1.000
2108.383,2655.316,-90187.571,-129615.764,46256.328,3788.218,1594.208,3218.116,-0.358,0.709,-0.567,-25.452,-8.087,-2.228,80.000,613.000,1.000
2133.092,2664.868,-90073.888,-129533.357,45809.559,3760.330,1349.581,3188.149,-0.356,0.702,-0.569,-25.879,-7.843,-2.014,80.000,614.000,1.000
2156.154,2671.939,-89959.812,-129459.388,45352.980,3726.848,1094.674,3152.253,-0.357,0.697,-0.573,-26.245,-7.477,-1.740,80.000,615.000,1.000
2177.087,2676.906,-89845.344,-129394.805,44884.268,3686.977,828.620,3110.037,-0.357,0.695,-0.571,-26.306,-7.263,-1.709,80.000,616.000,1.000
2195.777,2679.229,-89730.219,-129341.034,44400.750,3639.790,549.932,3060.582,-0.360,0.691,-0.567,-26.215,-7.050,-1.556,80.000,617.000,1.000
2212.605,2677.459,-89614.107,-129301.044,43899.221,3583.796,256.061,3002.244,-0.364,0.686,-0.571,-26.123,-6.775,-1.343,80.000,618.000,1.000
2228.026,2669.709,-89496.965,-129281.907,43374.211,3515.451,-57.941,2931.701,-0.368,0.680,-0.570,-25.879,-6.622,-1.160,80.000,619.000,1.000
2241.935,2654.001,-89379.312,-129294.903,42817.001,3428.428,-400.015,2843.318,-0.369,0.677,-0.567,-25.543,-6.439,-1.160,80.000,620.000,1.000
2254.222,2629.992,-89261.936,-129345.965,42220.543,3317.938,-775.962,2733.095,-0.372,0.675,-0.565,-25.177,-6.378,-1.190,80.000,621.000,1.000
2266.237,2601.729,-89144.952,-129421.250,41589.177,3188.750,-1179.815,2606.137,-0.372,0.670,-0.561,-24.567,-6.226,-1.282,80.000,622.000,1.000
2280.756,2577.444,-89027.273,-129486.096,40942.326,3057.462,-1590.603,2478.791,-0.374,0.668,-0.557,-24.109,-6.226,-1.221,80.000,623.000,1.000
2299.991,2564.953,-88907.368,-129503.882,40305.287,2943.839,-1982.363,2370.361,-0.373,0.664,-0.553,-23.529,-6.012,-1.343,80.000,624.000,1.000
2323.947,2566.968,-88784.499,-129457.634,39695.127,2859.180,-2338.806,2291.740,-0.377,0.662,-0.548,-22.919,-5.981,-1.282,80.000,625.000,1.000
2350.672,2580.452,-88659.088,-129355.826,39114.162,2802.143,-2659.737,2241.044,-0.380,0.657,-0.544,-22.400,-5.829,-1.465,80.000,626.000,1.000
2377.947,2600.096,-88532.021,-129219.800,38554.870,2764.128,-2955.385,2208.903,-0.383,0.651,-0.539,-21.759,-5.859,-1.648,80.000,627.000,1.000
2405.265,2623.373,-88403.646,-129062.943,38011.423,2739.321,-3233.578,2188.950,-0.388,0.651,-0.531,-20.996,-5.951,-2.228,80.000,628.000,1.000
2434.657,2653.178,-88273.305,-128877.476,37488.652,2731.486,-3489.877,2185.000,-0.392,0.653,-0.530,-20.355,-6.165,-2.533,80.000,629.000,1.000
2468.971,2694.800,-88139.903,-128642.245,37000.173,2750.945,-3710.141,2207.715,-0.393,0.655,-0.527,-19.867,-6.226,-2.930,80.000,630.000,1.000
2508.704,2749.191,-88003.148,-128348.326,36555.351,2802.630,-3885.474,2262.152,-0.392,0.658,-0.521,-19.348,-6.409,-3.265,80.000,631.000,1.000
2550.988,2810.261,-87864.196,-128014.814,36148.150,2877.681,-4024.121,2339.446,-0.390,0.665,-0.519,-18.860,-6.775,-3.601,80.000,632.000,1.000
2592.351,2870.943,-87724.774,-127670.515,35763.278,2961.271,-4143.245,2425.010,-0.391,0.668,-0.518,-18.433,-6.958,-3.693,80.000,633.000,1.000
2632.354,2931.540,-87585.526,-127320.241,35394.740,3049.583,-4248.011,2515.377,-0.393,0.673,-0.508,-18.127,-6.989,-4.028,80.000,634.000,1.000
2673.698,2999.497,-87445.509,-126940.069,35053.606,3154.221,-4324.785,2622.012,-0.386,0.679,-0.506,-17.883,-7.355,-4.150,80.000,635.000,1.000
2718.410,3079.743,-87303.493,-126511.164,34753.588,3286.578,-4359.273,2755.589,-0.382,0.685,-0.499,-17.731,-7.385,-4.089,80.000,636.000,1.000
2764.863,3167.102,-87159.522,-126050.811,34491.638,3440.750,-4358.058,2909.566,-0.385,0.686,-0.498,-17.700,-7.507,-4.120,80.000,637.000,1.000
2809.377,3250.204,-87014.914,-125602.102,34247.441,3596.003,-4347.008,3063.222,-0.385,0.690,-0.497,-17.670,-7.599,-4.059,80.000,638.000,1.000
2850.074,3321.880,-86870.966,-125195.593,34001.269,3734.987,-4349.353,3199.740,-0.383,0.689,-0.497,-17.639,-7.690,-4.059,80.000,639.000,1.000
2888.063,3383.850,-86728.016,-124827.833,33748.495,3856.108,-4369.340,3317.993,-0.394,0.688,-0.492,-17.639,-7.690,-3.845,80.000,640.000,1.000
2925.271,3441.949,-86585.575,-124476.633,33496.488,3968.461,-4397.095,3427.070,-0.401,0.685,-0.493,-17.761,-7.935,-4.059,80.000,641.000,1.000
2962.328,3499.335,-86442.949,-124128.585,33251.552,4078.952,-4424.431,3533.536,-0.402,0.682,-0.494,-17.670,-8.179,-4.181,80.000,642.000,1.000
2998.720,3555.327,-86299.584,-123786.194,33012.680,4187.406,-4451.875,3636.966,-0.406,0.678,-0.496,-17.578,-8.362,-3.967,80.000,643.000,1.000
3034.358,3609.197,-86155.005,-123453.366,32776.788,4292.056,-4482.393,3735.629,-0.410,0.677,-0.493,-17.334,-8.636,-3.998,80.000,644.000,1.000
3070.170,3662.610,-86008.843,-123124.214,32545.042,4394.815,-4514.187,3831.684,-0.416,0.676,-0.493,-17.212,-8.881,-3.906,80.000,645.000,1.000
3106.924,3717.524,-85861.156,-122790.593,32320.614,4498.575,-4543.242,3928.349,-0.419,0.675,-0.493,-17.029,-9.338,-4.059,80.000,646.000,1.000
3143.998,3773.073,-85712.584,-122455.861,32101.688,4601.282,-4571.104,4023.845,-0.425,0.677,-0.494,-16.785,-9.460,-4.028,80.000,647.000,1.000
3179.734,3825.936,-85563.948,-122134.710,31880.197,4695.987,-4606.039,4111.358,-0.429,0.680,-0.498,-16.541,-9.857,-4.303,80.000,648.000,1.000
3212.906,3873.497,-85415.624,-121838.649,31648.248,4777.167,-4655.696,4185.453,-0.434,0.686,-0.497,-16.266,-10.315,-4.272,80.000,649.000,1.000
3243.610,3915.931,-85267.409,-121564.740,31404.430,4845.671,-4720.372,4247.156,-0.436,0.690,-0.496,-16.052,-10.620,-4.303,80.000,650.000,1.000
3272.788,3955.158,-85118.969,-121299.780,31153.371,4907.028,-4794.200,4302.276,-0.439,0.692,-0.494,-15.991,-10.864,-4.517,80.000,651.000,1.000
3301.147,3992.390,-84970.265,-121033.243,30900.090,4965.741,-4871.747,4355.712,-0.441,0.698,-0.493,-15.778,-11.292,-4.608,80.000,652.000,1.000
3328.779,4027.545,-84821.445,-120764.114,30646.064,5022.330,-4951.879,4408.441,-0.447,0.701,-0.494,-15.900,-11.566,-4.578,80.000,653.000,1.000
3355.766,4060.877,-84672.447,-120496.476,30390.581,5075.539,-5035.628,4459.383,-0.450,0.704,-0.496,-15.900,-11.993,-4.547,80.000,654.000,1.000
3382.697,4094.168,-84522.735,-120231.315,30134.532,5126.152,-5121.891,4508.846,-0.454,0.706,-0.498,-15.717,-12.268,-4.364,80.000,655.000,1.000
3410.465,4129.899,-84371.433,-119963.862,29881.576,5177.819,-5206.310,4559.531,-0.458,0.709,-0.495,-15.686,-12.695,-4.425,80.000,656.000,1.000
3439.534,4169.271,-84217.887,-119688.326,29634.984,5233.827,-5284.826,4613.977,-0.462,0.715,-0.500,-15.717,-13.214,-4.364,80.000,657.000,1.000
3469.292,4210.879,-84062.300,-119404.502,29393.613,5293.248,-5358.128,4671.227,-0.464,0.720,-0.501,-15.625,-13.519,-4.272,80.000,658.000,1.000
3498.430,4251.389,-83905.745,-119118.937,29151.545,5350.736,-5432.116,4726.629,-0.465,0.726,-0.500,-15.564,-13.885,-4.150,80.000,659.000,1.000
3526.076,4287.914,-83749.485,-118838.726,28902.396,5400.793,-5513.279,4775.611,-0.465,0.730,-0.501,-15.503,-14.313,-4.028,80.000,660.000,1.000
3552.521,4320.166,-83594.188,-118564.458,28644.574,5442.493,-5603.204,4817.784,-0.466,0.736,-0.497,-15.594,-14.679,-3.876,80.000,661.000,1.000
3578.856,4350.417,-83439.676,-118290.458,28382.193,5479.736,-5697.994,4856.818,-0.460,0.739,-0.496,-15.778,-15.015,-3.662,80.000,662.000,1.000
3605.791,4381.209,-83285.269,-118012.220,28120.769,5517.020,-5792.924,4896.275,-0.456,0.740,-0.493,-15.900,-15.198,-3.326,80.000,663.000,1.000
3633.027,4413.171,-83130.155,-117731.609,27862.710,5555.821,-5886.670,4936.431,-0.450,0.738,-0.490,-16.144,-15.320,-3.021,80.000,664.000,1.000
3659.938,4445.401,-82973.547,-117452.967,27607.493,5595.549,-5980.250,4975.827,-0.446,0.737,-0.488,-16.388,-15.320,-2.441,80.000,665.000,1.000
3686.627,4477.864,-82814.842,-117175.058,27355.398,5637.248,-6072.585,5015.259,-0.443,0.736,-0.485,-16.602,-15.198,-1.953,80.000,666.000,1.000
3714.080,4512.636,-82653.885,-116889.105,27109.712,5684.901,-6158.718,5058.982,-0.444,0.733,-0.483,-16.693,-15.015,-1.282,80.000,667.000,1.000
3742.940,4551.626,-82491.211,-116587.158,26873.806,5741.655,-6234.003,5110.759,-0.445,0.732,-0.480,-16.937,-14.954,-0.702,80.000,668.000,1.000
3772.281,4593.243,-82327.982,-116272.992,26645.461,5804.407,-6300.796,5168.324,-0.444,0.734,-0.474,-16.998,-14.923,-0.183,80.000,669.000,1.000
3800.183,4633.049,-82165.345,-115961.369,26416.340,5864.281,-6368.819,5223.578,-0.444,0.733,-0.476,-17.456,-14.679,0.366,80.000,670.000,1.000
3825.714,4668.514,-82003.539,-115663.096,26179.825,5914.684,-6446.079,5270.270,-0.445,0.731,-0.474,-17.609,-14.435,0.977,80.000,671.000,1.000
3850.105,4702.082,-81841.661,-115372.284,25938.889,5958.377,-6529.824,5310.950,-0.444,0.731,-0.472,-17.670,-14.221,1.251,80.000,672.000,1.000
3875.507,4738.228,-81678.481,-115073.961,25703.181,6004.048,-6609.740,5353.922,-0.445,0.729,-0.473,-17.761,-14.191,1.526,80.000,673.000,1.000
3902.416,4777.446,-81513.602,-114765.605,25476.897,6054.986,-6681.666,5402.426,-0.443,0.734,-0.471,-17.670,-14.130,1.740,80.000,674.000,1.000
3929.042,4815.201,-81347.696,-114463.099,25252.863,6104.461,-6754.020,5450.187,-0.443,0.733,-0.471,-17.731,-14.008,2.258,80.000,675.000,1.000
3953.822,4848.130,-81181.519,-114178.821,25022.127,6145.344,-6836.405,5490.720,-0.446,0.733,-0.468,-17.822,-13.794,2.472,80.000,676.000,1.000
3977.791,4879.268,-81014.944,-113900.243,24787.198,6181.576,-6924.927,5528.169,-0.447,0.734,-0.467,-17.761,-13.641,2.686,80.000,677.000,1.000
4003.097,4914.262,-80847.295,-113602.402,24559.981,6224.429,-7005.768,5573.217,-0.446,0.738,-0.466,-17.700,-13.458,2.838,80.000,678.000,1.000
4029.514,4952.901,-80678.522,-113282.269,24345.036,6276.521,-7074.690,5627.515,-0.448,0.741,-0.462,-17.822,-13.397,2.960,80.000,679.000,1.000
4054.313,4988.288,-80509.497,-112967.527,24131.130,6325.860,-7145.550,5678.536,-0.445,0.742,-0.464,-17.670,-13.397,3.052,80.000,680.000,1.000
4076.116,5015.750,-80340.865,-112683.490,23904.632,6360.236,-7233.800,5714.241,-0.445,0.747,-0.459,-17.670,-13.245,3.113,80.000,681.000,1.000
4097.144,5039.103,-80172.086,-112421.136,23667.171,6383.038,-7336.562,5738.436,-0.442,0.746,-0.457,-17.883,-13.184,3.357,80.000,682.000,1.000
4120.425,5065.372,-80002.164,-112150.318,23432.886,6408.428,-7436.997,5765.407,-0.438,0.747,-0.455,-17.914,-12.970,3.326,80.000,683.000,1.000
4145.869,5095.345,-79831.140,-111860.435,23208.475,6442.242,-7527.573,5800.626,-0.432,0.746,-0.450,-18.097,-12.756,3.540,80.000,684.000,1.000
4170.407,5122.877,-79660.220,-111572.842,22983.367,6474.757,-7620.278,5833.794,-0.428,0.741,-0.449,-18.463,-12.482,3.845,80.000,685.000,1.000
4191.928,5143.655,-79490.287,-111309.050,22743.717,6494.904,-7729.780,5853.520,-0.426,0.738,-0.446,-18.494,-12.115,4.303,80.000,686.000,1.000
4212.050,5161.606,-79320.644,-111059.468,22491.298,6506.192,-7852.708,5863.433,-0.423,0.733,-0.448,-18.463,-11.749,4.669,80.000,687.000,1.000
4234.087,5184.150,-79149.615,-110795.523,22241.662,6522.731,-7971.067,5878.063,-0.423,0.731,-0.449,-18.066,-11.230,5.066,80.000,688.000,1.000
4258.788,5212.323,-78976.376,-110507.785,22003.975,6550.749,-8075.114,5904.323,-0.423,0.731,-0.446,-17.731,-10.773,5.585,80.000,689.000,1.000
4283.588,5239.418,-78801.773,-110217.626,21769.693,6580.800,-8174.695,5933.851,-0.424,0.729,-0.445,-17.578,-10.254,6.073,80.000,690.000,1.000
4306.093,5260.018,-78627.134,-109948.175,21524.383,6600.638,-8284.830,5955.536,-0.421,0.729,-0.447,-17.029,-9.674,6.470,80.000,691.000,1.000
4326.639,5276.537,-78452.807,-109695.350,21265.566,6610.359,-8406.739,5969.496,-0.422,0.731,-0.446,-16.724,-9.186,6.989,80.000,692.000,1.000
4346.816,5294.979,-78278.132,-109435.753,21003.825,6620.351,-8528.776,5984.531,-0.418,0.733,-0.441,-16.357,-8.606,7.507,80.000,693.000,1.000
4367.020,5317.142,-78102.425,-109156.892,20748.548,6637.193,-8642.871,6005.344,-0.417,0.734,-0.438,-16.357,-8.362,7.721,80.000,694.000,1.000
4386.558,5339.729,-77925.550,-108868.862,20498.417,6657.165,-8753.197,6027.555,-0.415,0.738,-0.431,-16.296,-7.721,8.179,80.000,695.000,1.000
4405.457,5359.955,-77747.741,-108586.397,20246.984,6673.818,-8867.875,6045.152,-0.415,0.738,-0.428,-16.479,-6.989,8.667,80.000,696.000,1.000
4425.040,5379.451,-77569.210,-108309.039,19993.047,6687.383,-8987.396,6058.943,-0.414,0.730,-0.430,-16.327,-6.287,9.277,80.000,697.000,1.000
4446.494,5402.042,-77390.099,-108024.541,19741.888,6703.935,-9104.784,6075.559,-0.413,0.727,-0.433,-15.656,-5.432,9.644,80.000,698.000,1.000
4469.414,5428.894,-77210.729,-107727.299,19497.251,6726.644,-9215.696,6099.166,-0.414,0.730,-0.433,-15.045,-4.700,10.040,80.000,699.000,1.000
4492.089,5457.123,-77031.609,-107425.693,19256.018,6751.258,-9324.179,6126.702,-0.415,0.731,-0.433,-14.709,-4.028,10.406,80.000,700.000,1.000
4513.025,5482.974,-76853.039,-107130.902,19012.271,6771.154,-9437.303,6151.873,-0.414,0.736,-0.428,-14.252,-3.296,10.803,80.000,701.000,1.000
4532.146,5505.306,-76674.797,-106844.272,18764.017,6784.468,-9557.087,6171.687,-0.412,0.738,-0.428,-13.947,-2.472,11.230,80.000,702.000,1.000
4550.606,5525.832,-76496.267,-106558.050,18514.046,6794.895,-9679.398,6187.815,-0.412,0.742,-0.428,-13.306,-1.709,11.566,80.000,703.000,1.000
4569.667,5546.736,-76316.871,-106265.330,18265.458,6806.849,-9799.295,6202.982,-0.414,0.753,-0.425,-12.512,-0.793,11.780,80.000,704.000,1.000
4589.809,5568.921,-76136.342,-105966.262,18018.534,6821.616,-9915.361,6218.227,-0.413,0.768,-0.423,-12.146,0.000,11.993,80.000,705.000,1.000
4610.733,5592.420,-75954.689,-105665.939,17771.760,6837.669,-10029.352,6233.296,-0.414,0.780,-0.423,-12.024,0.610,12.360,80.000,706.000,1.000
4631.896,5617.291,-75772.067,-105369.144,17524.145,6852.835,-10143.862,6247.636,-0.412,0.786,-0.420,-12.177,1.343,12.695,80.000,707.000,1.000
4652.851,5643.407,-75588.735,-105077.231,17276.199,6865.869,-10260.675,6260.712,-0.410,0.792,-0.424,-12.268,1.923,12.848,80.000,708.000,1.000
4673.378,5669.904,-75405.008,-104788.202,17029.400,6876.975,-10380.187,6272.271,-0.407,0.789,-0.423,-12.329,2.563,13.214,80.000,709.000,1.000
4693.463,5695.459,-75221.155,-104498.970,16784.963,6887.558,-10501.702,6282.568,-0.405,0.788,-0.429,-12.329,3.052,13.245,80.000,710.000,1.000
4713.086,5718.816,-75037.312,-104208.850,16542.337,6898.995,-10624.666,6291.826,-0.401,0.785,-0.431,-12.207,3.601,13.733,80.000,711.000,1.000
4732.149,5738.937,-74853.478,-103921.190,16298.564,6911.233,-10749.781,6299.561,-0.399,0.785,-0.435,-11.963,4.028,14.069,80.000,712.000,1.000
4750.671,5755.417,-74669.537,-103639.891,16050.404,6923.357,-10877.829,6305.337,-0.395,0.786,-0.435,-11.658,4.517,14.282,80.000,713.000,1.000
4769.086,5769.248,-74485.189,-103363.788,15797.869,6935.718,-11007.175,6310.342,-0.393,0.790,-0.434,-11.017,5.066,14.557,80.000,714.000,1.000
4788.013,5782.573,-74299.978,-103086.439,15544.649,6950.222,-11133.956,6317.169,-0.394,0.797,-0.430,-10.376,5.524,14.893,80.000,715.000,1.000
4807.404,5796.769,-74113.675,-102803.262,15293.811,6967.290,-11256.352,6326.834,-0.395,0.808,-0.430,-9.735,5.890,15.045,80.000,716.000,1.000
4826.235,5811.291,-73926.603,-102517.012,15043.829,6983.626,-11377.861,6336.831,-0.396,0.822,-0.430,-9.338,6.256,15.076,80.000,717.000,1.000
4843.446,5825.377,-73739.324,-102232.948,14790.725,6995.222,-11503.797,6344.167,-0.398,0.832,-0.426,-9.033,6.622,15.259,80.000,718.000,1.000
4859.135,5840.234,-73552.020,-101949.360,14534.111,7002.503,-11634.429,6350.146,-0.398,0.842,-0.424,-8.698,6.775,15.259,80.000,719.000,1.000
4874.501,5858.008,-73364.315,-101656.953,14279.451,7010.830,-11763.412,6360.382,-0.398,0.856,-0.423,-8.453,6.989,15.167,80.000,720.000,1.000
4890.484,5878.385,-73175.819,-101350.177,14032.924,7024.810,-11884.303,6379.139,-0.398,0.863,-0.421,-8.423,7.172,14.984,80.000,721.000,1.000
4906.966,5898.074,-72986.632,-101036.047,13794.923,7043.414,-11997.356,6404.804,-0.400,0.870,-0.417,-8.453,7.294,14.801,80.000,722.000,1.000
4923.656,5914.896,-72797.079,-100726.884,13560.930,7062.686,-12107.343,6432.697,-0.398,0.876,-0.415,-8.667,7.385,14.496,80.000,723.000,1.000
4941.087,5931.002,-72607.116,-100425.301,13328.409,7082.051,-12215.748,6461.159,-0.399,0.885,-0.414,-8.759,7.446,14.191,80.000,724.000,1.000
4960.001,5950.574,-72416.377,-100121.436,13100.137,7105.303,-12318.320,6492.658,-0.400,0.889,-0.413,-9.094,7.385,13.855,80.000,725.000,1.000
4979.916,5974.719,-72224.836,-99807.032,12879.244,7134.633,-12411.513,6528.680,-0.402,0.887,-0.413,-9.338,7.446,13.397,80.000,726.000,1.000
4998.971,5999.735,-72033.192,-99488.039,12662.542,7165.333,-12499.378,6565.382,-0.402,0.888,-0.407,-9.491,7.446,12.970,80.000,727.000,1.000
5015.614,6021.042,-71842.224,-99177.528,12442.557,7189.472,-12590.343,6596.979,-0.402,0.894,-0.402,-9.674,7.385,12.390,80.000,728.000,1.000
5030.453,6038.215,-71651.669,-98877.420,12216.947,7205.382,-12686.584,6623.661,-0.401,0.895,-0.401,-10.010,7.263,11.963,80.000,729.000,1.000
5045.760,6054.747,-71460.232,-98574.834,11992.008,7220.346,-12780.507,6652.954,-0.403,0.894,-0.397,-10.315,7.263,11.475,80.000,730.000,1.000
5062.949,6072.663,-71267.033,-98259.540,11773.984,7241.858,-12864.584,6690.957,-0.403,0.887,-0.393,-10.773,7.080,11.047,80.000,731.000,1.000
5081.272,6089.260,-71072.586,-97938.401,11559.821,7268.758,-12941.743,6734.420,-0.401,0.883,-0.392,-10.895,6.989,10.559,80.000,732.000,1.000
5099.258,6100.678,-70878.019,-97626.172,11340.612,7294.154,-13021.710,6774.703,-0.396,0.880,-0.384,-11.017,6.775,10.193,80.000,733.000,1.000
5116.723,6107.573,-70683.695,-97325.055,11113.204,7315.673,-13108.187,6808.506,-0.394,0.872,-0.376,-11.475,6.653,10.040,80.000,734.000,1.000
5134.639,6115.353,-70488.955,-97020.752,10884.609,7338.957,-13193.925,6841.375,-0.392,0.856,-0.374,-11.993,6.500,10.040,80.000,735.000,1.000
5153.201,6128.543,-70293.155,-96700.699,10663.327,7369.608,-13270.268,6879.603,-0.391,0.845,-0.373,-12.054,6.439,9.888,80.000,736.000,1.000
5170.946,6146.217,-70096.548,-96370.227,10448.642,7404.164,-13338.761,6921.491,-0.388,0.834,-0.369,-12.146,6.409,10.193,80.000,737.000,1.000
5186.317,6164.029,-69899.882,-96044.574,10231.930,7432.646,-13409.013,6959.946,-0.390,0.822,-0.364,-12.115,6.165,10.284,80.000,738.000,1.000
5199.750,6179.950,-69703.326,-95727.396,10008.063,7449.716,-13485.757,6992.544,-0.391,0.807,-0.366,-11.932,5.890,10.406,80.000,739.000,1.000
5213.475,6196.224,-69506.251,-95404.824,9781.658,7459.785,-13562.751,7025.066,-0.390,0.798,-0.362,-11.414,5.615,10.590,80.000,740.000,1.000
5229.145,6215.141,-69308.026,-95063.323,9560.366,7469.866,-13631.560,7063.651,-0.392,0.789,-0.357,-10.895,5.310,10.834,80.000,741.000,1.000
5246.259,6235.027,-69108.717,-94707.402,9344.852,7480.754,-13692.999,7106.157,-0.391,0.782,-0.352,-10.315,4.974,11.078,80.000,742.000,1.000
5263.152,6252.571,-68908.900,-94353.719,9128.802,7488.488,-13755.777,7144.519,-0.393,0.775,-0.352,-9.857,4.486,11.627,80.000,743.000,1.000
5279.074,6267.967,-68708.943,-94010.191,8908.037,7492.727,-13824.898,7174.905,-0.392,0.767,-0.353,-9.277,3.937,12.085,80.000,744.000,1.000
5294.835,6285.214,-68508.512,-93667.681,8686.408,7499.949,-13895.407,7202.363,-0.395,0.760,-0.354,-8.636,3.418,12.451,80.000,745.000,1.000
5311.374,6307.035,-68306.865,-93314.344,8470.782,7516.760,-13959.478,7234.072,-0.394,0.758,-0.348,-7.782,2.869,13.031,80.000,746.000,1.000
5328.221,6331.343,-68103.638,-92953.005,8261.551,7541.512,-14017.631,7269.921,-0.394,0.754,-0.343,-6.958,2.441,13.519,80.000,747.000,1.000
5343.918,6353.885,-67899.198,-92598.838,8051.292,7565.357,-14079.146,7302.543,-0.397,0.752,-0.344,-6.378,1.740,13.947,80.000,748.000,1.000
5357.867,6373.152,-67694.241,-92261.545,7833.160,7581.691,-14151.452,7326.106,-0.400,0.750,-0.345,-5.829,1.068,14.587,80.000,749.000,1.000
5371.031,6391.188,-67489.227,-91936.049,7607.591,7592.018,-14232.758,7342.041,-0.406,0.750,-0.347,-5.066,0.183,15.137,80.000,750.000,1.000
5384.496,6409.873,-67284.314,-91612.778,7378.745,7601.323,-14317.149,7354.778,-0.409,0.752,-0.350,-4.333,-0.763,15.594,80.000,751.000,1.000
5398.078,6428.123,-67079.628,-91291.376,7146.695,7610.181,-14404.006,7364.562,-0.411,0.752,-0.353,-3.601,-1.617,16.022,80.000,752.000,1.000
5411.030,6443.765,-66875.260,-90978.358,6907.207,7614.894,-14497.861,7368.249,-0.409,0.752,-0.351,-2.899,-2.686,16.388,80.000,753.000,1.000
5423.667,6457.116,-66670.912,-90673.423,6659.143,7614.549,-14599.712,7366.292,-0.406,0.755,-0.349,-2.136,-3.693,16.815,80.000,754.000,1.000
5437.238,6471.241,-66465.868,-90364.856,6408.446,7614.127,-14702.961,7365.045,-0.405,0.757,-0.346,-1.648,-4.578,17.395,80.000,755.000,1.000
5452.240,6488.695,-66259.547,-90041.040,6162.968,7619.142,-14799.794,7370.667,-0.405,0.759,-0.343,-1.221,-5.585,17.883,80.000,756.000,1.000
5467.665,6508.789,-66052.122,-89702.820,5924.615,7629.078,-14889.603,7382.563,-0.402,0.758,-0.342,-0.977,-6.653,18.494,80.000,757.000,1.000
5482.110,6528.365,-65844.446,-89360.766,5688.431,7638.271,-14978.588,7394.829,-0.398,0.757,-0.342,-0.580,-7.446,19.012,80.000,758.000,1.000
5495.279,6545.043,-65637.306,-89022.032,5449.117,7642.734,-15071.700,7403.348,-0.394,0.755,-0.345,-0.275,-8.301,19.531,80.000,759.000,1.000
5508.108,6559.501,-65430.820,-88683.718,5206.686,7644.265,-15167.277,7409.610,-0.390,0.754,-0.346,0.031,-9.216,19.958,80.000,760.000,1.000
5521.655,6574.627,-65224.497,-88338.808,4965.408,7647.765,-15259.808,7417.853,-0.389,0.755,-0.349,0.366,-10.101,20.447,80.000,761.000,1.000
5536.155,6592.704,-65017.688,-87984.810,4728.828,7656.188,-15346.033,7430.143,-0.389,0.759,-0.354,0.702,-10.986,20.874,80.000,762.000,1.000
5550.808,6613.484,-64809.994,-87625.299,4496.973,7668.776,-15427.185,7444.782,-0.393,0.766,-0.357,1.190,-11.688,21.332,80.000,763.000,1.000
5564.378,6634.949,-64601.390,-87265.358,4267.432,7682.985,-15506.650,7458.437,-0.395,0.775,-0.362,1.678,-12.634,21.667,80.000,764.000,1.000
5576.405,6655.888,-64392.090,-86907.430,4037.893,7697.137,-15586.787,7469.178,-0.396,0.795,-0.363,2.167,-14.130,21.912,80.000,765.000,1.000
5587.892,6677.234,-64182.364,-86551.333,3807.376,7711.284,-15668.008,7477.615,-0.395,0.812,-0.359,2.197,-15.137,22.186,80.000,766.000,1.000
5600.561,6700.581,-63972.455,-86196.685,3575.896,7726.229,-15749.941,7485.746,-0.391,0.827,-0.360,2.045,-16.083,22.339,80.000,767.000,1.000
5615.366,6725.975,-63762.574,-85844.318,3343.982,7742.516,-15832.344,7495.645,-0.386,0.841,-0.361,1.923,-16.998,22.400,80.000,768.000,1.000
5631.807,6751.650,-63552.852,-85495.775,3112.310,7760.090,-15915.077,7509.070,-0.378,0.853,-0.356,1.495,-17.853,22.522,80.000,769.000,1.000
5648.467,6775.611,-63343.244,-85151.807,2881.492,7778.523,-15997.683,7527.457,-0.366,0.866,-0.354,0.610,-18.585,22.644,80.000,770.000,1.000
5663.974,6796.959,-63133.528,-84811.374,2652.342,7797.545,-16078.980,7551.687,-0.357,0.876,-0.350,-0.458,-19.104,22.949,80.000,771.000,1.000
5677.745,6815.909,-62923.350,-84471.938,2426.290,7817.302,-16157.259,7581.666,-0.345,0.886,-0.351,-1.831,-19.470,23.254,80.000,772.000,1.000
5690.084,6832.954,-62712.288,-84130.949,2205.104,7837.838,-16231.279,7616.063,-0.337,0.894,-0.349,-3.204,-19.714,23.590,80.000,773.000,1.000
5701.559,6848.036,-62500.072,-83787.593,1989.566,7858.066,-16301.628,7652.348,-0.332,0.904,-0.348,-4.578,-19.653,23.956,80.000,774.000,1.000
5712.595,6860.920,-62286.769,-83442.429,1778.980,7876.205,-16370.355,7688.038,-0.328,0.912,-0.350,-5.951,-19.531,24.231,80.000,775.000,1.000
5723.790,6872.523,-62072.544,-83094.989,1572.777,7892.155,-16438.344,7722.702,-0.323,0.919,-0.355,-7.446,-19.318,24.506,80.000,776.000,1.000
5736.179,6885.228,-61857.269,-82742.684,1372.229,7908.849,-16503.546,7758.441,-0.320,0.927,-0.358,-8.942,-19.073,24.689,80.000,777.000,1.000
5750.711,6901.464,-61640.534,-82382.932,1179.905,7930.487,-16562.323,7798.225,-0.319,0.935,-0.355,-10.437,-18.768,24.902,80.000,778.000,1.000
5767.491,6921.927,-61422.027,-82016.392,997.222,7959.209,-16612.707,7843.526,-0.314,0.941,-0.354,-11.963,-18.402,24.994,80.000,779.000,1.000
5785.620,6945.103,-61201.823,-81647.134,823.025,7993.672,-16656.001,7893.392,-0.312,0.946,-0.351,-13.641,-18.036,25.146,80.000,780.000,1.000
5803.707,6968.355,-60980.362,-81278.972,654.983,8030.648,-16695.083,7945.544,-0.310,0.951,-0.352,-15.259,-17.426,25.269,80.000,781.000,1.000
5820.640,6989.647,-60758.192,-80912.256,492.020,8067.550,-16731.668,7998.161,-0.310,0.956,-0.353,-16.937,-16.785,25.269,80.000,782.000,1.000
5836.033,7008.649,-60535.733,-80545.084,334.813,8103.463,-16765.472,8050.872,-0.309,0.961,-0.356,-18.433,-16.113,25.238,80.000,783.000,1.000
5850.065,7026.265,-60313.199,-80177.124,183.976,8138.151,-16796.009,8103.860,-0.307,0.969,-0.358,-19.806,-15.472,25.116,80.000,784.000,1.000
5863.053,7043.484,-60090.600,-79810.507,38.977,8171.356,-16824.140,8156.452,-0.308,0.975,-0.359,-21.179,-14.801,25.024,80.000,785.000,1.000
5875.349,7061.036,-59867.752,-79446.916,-100.711,8203.718,-16851.077,8207.501,-0.307,0.976,-0.357,-22.675,-14.160,24.902,80.000,786.000,1.000
5887.371,7079.464,-59644.359,-79085.461,-234.322,8237.331,-16876.743,8256.934,-0.305,0.972,-0.355,-24.170,-13.367,24.872,80.000,787.000,1.000
5899.286,7098.508,-59420.182,-78724.328,-360.369,8274.339,-16899.966,8306.032,-0.300,0.967,-0.352,-25.818,-12.726,25.024,80.000,788.000,1.000
5910.793,7116.540,-59195.200,-78363.702,-478.500,8314.681,-16920.220,8356.085,-0.297,0.958,-0.346,-27.466,-12.054,25.146,80.000,789.000,1.000
5921.546,7131.425,-58969.627,-78005.808,-590.306,8355.601,-16938.278,8407.301,-0.294,0.944,-0.341,-28.778,-11.169,25.269,80.000,790.000,1.000
5931.677,7142.078,-58743.824,-77652.279,-698.523,8393.573,-16955.237,8458.559,-0.291,0.931,-0.341,-29.816,-10.254,25.452,80.000,791.000,1.000
5941.734,7149.137,-58518.272,-77302.426,-806.316,8426.527,-16971.985,8507.397,-0.292,0.919,-0.342,-30.457,-9.338,25.604,80.000,792.000,1.000
5952.020,7154.408,-58293.563,-76954.405,-917.166,8454.447,-16989.569,8550.692,-0.291,0.911,-0.343,-30.884,-8.606,25.879,80.000,793.000,1.000
5962.244,7159.818,-58070.283,-76607.521,-1034.514,8478.304,-17009.467,8586.226,-0.289,0.907,-0.343,-31.250,-7.843,26.184,80.000,794.000,1.000
5972.062,7166.717,-57848.720,-76262.244,-1160.383,8499.174,-17032.804,8614.430,-0.287,0.898,-0.346,-31.525,-7.202,26.642,80.000,795.000,1.000
5981.683,7175.583,-57628.643,-75918.247,-1294.024,8518.150,-17059.462,8638.587,-0.288,0.890,-0.345,-31.281,-6.378,27.008,80.000,796.000,1.000
5991.676,7186.021,-57409.405,-75573.568,-1432.306,8536.068,-17088.547,8662.679,-0.294,0.888,-0.344,-31.036,-5.646,27.161,80.000,797.000,1.000
6002.366,7197.441,-57190.265,-75225.739,-1571.426,8553.270,-17119.120,8689.230,-0.297,0.885,-0.341,-30.823,-5.096,27.435,80.000,798.000,1.000
6013.538,7209.822,-56970.776,-74873.666,-1708.741,8569.711,-17150.226,8718.925,-0.301,0.886,-0.336,-30.640,-4.669,27.740,80.000,799.000,1.000
6024.479,7223.373,-56751.125,-74518.713,-1843.818,8585.127,-17181.004,8751.080,-0.308,0.887,-0.334,-30.487,-4.303,27.893,80.000,800.000,1.000
6034.438,7237.598,-56532.022,-74164.153,-1977.973,8599.352,-17211.253,8783.807,-0.313,0.887,-0.330,-30.182,-3.998,28.046,80.000,801.000,1.000
6043.367,7251.326,-56313.970,-73812.998,-2112.383,8612.891,-17241.598,8814.506,-0.316,0.888,-0.326,-29.846,-3.845,28.015,80.000,802.000,1.000
6052.003,7263.768,-56096.705,-73465.743,-2246.638,8627.174,-17272.556,8841.405,-0.319,0.888,-0.323,-29.663,-3.845,28.015,80.000,803.000,1.000
6061.066,7275.072,-55879.520,-73119.938,-2379.453,8643.823,-17303.741,8864.702,-0.321,0.887,-0.317,-29.419,-3.845,28.015,80.000,804.000,1.000
6070.555,7285.965,-55661.946,-72771.158,-2510.142,8663.726,-17333.880,8886.252,-0.321,0.884,-0.314,-29.358,-3.998,28.137,80.000,805.000,1.000
6079.885,7297.250,-55443.953,-72414.712,-2639.170,8686.410,-17361.625,8908.302,-0.322,0.880,-0.311,-29.449,-4.150,28.290,80.000,806.000,1.000
6088.488,7309.476,-55225.674,-72048.011,-2768.130,8709.564,-17386.933,8932.062,-0.320,0.873,-0.307,-29.480,-4.303,28.290,80.000,807.000,1.000
6096.054,7322.601,-55007.196,-71671.932,-2899.336,8729.432,-17411.291,8957.376,-0.322,0.864,-0.307,-28.961,-4.547,28.198,80.000,808.000,1.000
6102.457,7335.801,-54788.627,-71289.791,-3035.210,8742.017,-17436.428,8983.733,-0.320,0.861,-0.306,-28.595,-4.791,28.076,80.000,809.000,1.000
6107.805,7348.031,-54570.214,-70905.548,-3177.717,8744.621,-17463.132,9011.130,-0.317,0.857,-0.304,-27.985,-5.096,28.046,80.000,810.000,1.000
6112.653,7359.268,-54352.200,-70523.530,-3327.681,8737.401,-17491.376,9039.591,-0.315,0.853,-0.300,-27.893,-5.524,28.076,80.000,811.000,1.000
6118.033,7370.993,-54134.555,-70148.438,-3484.279,8723.727,-17521.323,9068.187,-0.311,0.849,-0.295,-27.618,-6.073,28.107,80.000,812.000,1.000
6124.957,7384.559,-53917.026,-69783.898,-3645.424,8708.654,-17553.714,9095.247,-0.307,0.839,-0.292,-27.252,-6.317,28.107,80.000,813.000,1.000
6133.779,7399.076,-53699.414,-69430.559,-3808.891,8696.723,-17589.149,9119.645,-0.305,0.833,-0.289,-26.917,-6.622,28.351,80.000,814.000,1.000
6144.080,7411.998,-53481.665,-69085.298,-3972.897,8690.757,-17627.061,9141.735,-0.304,0.827,-0.289,-26.550,-6.866,28.473,80.000,815.000,1.000
6155.081,7421.904,-53263.754,-68742.824,-4136.234,8691.436,-17666.014,9162.617,-0.305,0.823,-0.288,-26.001,-7.141,28.534,80.000,816.000,1.000
6166.059,7429.705,-53045.699,-68399.161,-4298.967,8697.089,-17705.570,9182.328,-0.303,0.822,-0.291,-25.208,-7.538,28.778,80.000,817.000,1.000
6176.382,7437.121,-52827.711,-68054.043,-4463.079,8704.604,-17747.236,9199.251,-0.305,0.820,-0.295,-24.536,-8.057,28.992,80.000,818.000,1.000
6185.569,7445.049,-52610.216,-67710.278,-4631.981,8711.331,-17793.246,9211.378,-0.302,0.818,-0.296,-23.804,-8.636,29.144,80.000,819.000,1.000
6193.554,7453.628,-52393.541,-67370.975,-4808.701,8716.467,-17844.565,9218.059,-0.299,0.816,-0.295,-23.132,-9.155,29.572,80.000,820.000,1.000
6200.736,7462.700,-52177.534,-67037.583,-4994.142,8720.520,-17900.563,9220.331,-0.295,0.813,-0.292,-22.614,-9.613,29.755,80.000,821.000,1.000
6207.629,7471.521,-51961.632,-66709.945,-5187.046,8723.331,-17960.715,9219.614,-0.292,0.808,-0.295,-21.973,-9.949,29.877,80.000,822.000,1.000
