EEG 1,EEG 2,EEG 3,EEG 4,EEG 5,EEG 6,EEG 7,EEG 8,Accelerometer X,Accelerometer Y,Accelerometer Z,Gyroscope X,Gyroscope Y,Gyroscope Z,Battery Level,Counter,Validation Indicator
5058.150,1964.070,-4389.873,-9816.783,3111.552,3668.964,-2197.449,1942.527,-0.177,0.962,0.101,0.000,0.000,0.000,73.333,1.000,1.000
35236.835,12579.937,-12716.586,-63830.666,31843.885,28103.997,-12900.862,13142.039,-0.186,0.975,0.091,0.000,0.000,0.000,73.333,2.000,1.000
115492.604,36244.818,-37624.996,-211330.803,110308.428,99268.347,-42259.437,41555.650,-0.187,0.978,0.087,0.000,0.000,0.000,73.333,3.000,1.000
245340.119,69125.426,-82104.829,-452793.901,242213.894,226358.481,-91867.068,88418.583,-0.188,0.981,0.087,0.000,0.000,0.000,73.333,4.000,1.000
392534.751,110333.721,-131622.850,-702422.432,398202.434,380341.046,-149232.657,150095.031,-0.192,0.982,0.085,0.000,0.000,0.000,73.333,5.000,1.000
518857.454,171495.533,-157628.243,-826692.263,535423.148,502523.988,-190577.662,220718.084,-0.190,0.983,0.086,-4.700,2.930,1.007,73.333,6.000,1.000
600052.517,263421.079,-135654.538,-733983.345,620648.980,539967.542,-188322.270,290633.425,-0.190,0.983,0.086,-3.540,1.587,1.343,73.333,7.000,1.000
630115.084,380033.425,-61199.669,-439315.035,642792.249,489315.913,-121920.480,354295.918,-0.191,0.981,0.088,-1.526,0.366,1.312,73.333,8.000,1.000
621684.524,499662.978,48477.520,-54346.159,616154.514,406004.736,13046.023,416845.624,-0.192,0.980,0.087,-0.732,-0.183,1.190,73.333,9.000,1.000
599640.920,596489.366,164049.716,278399.829,571975.303,360348.176,199054.133,483349.918,-0.193,0.980,0.085,-0.458,-0.397,1.099,73.333,10.000,1.000
584268.219,651083.438,259226.169,462146.469,539297.291,388605.184,396878.002,548006.025,-0.192,0.980,0.087,-0.336,-0.549,1.129,73.333,11.000,1.000
576319.139,657031.250,323477.972,491372.594,528520.206,478270.687,560987.547,596277.101,-0.192,0.979,0.088,-0.183,-0.641,1.221,73.333,12.000,1.000
559253.475,621451.421,362858.343,436532.502,531611.628,581054.202,661568.242,611088.283,-0.193,0.977,0.087,-0.244,-0.641,1.282,73.333,13.000,1.000
516915.045,558718.261,389203.877,381415.472,536332.092,641964.145,693737.209,580106.768,-0.193,0.977,0.086,-0.122,-0.824,1.221,73.333,14.000,1.000
447713.995,481881.856,409025.160,365807.113,538063.875,631584.743,671255.773,504259.357,-0.194,0.978,0.085,-0.031,-0.916,1.221,73.333,15.000,1.000
362309.487,397863.994,421308.159,377835.405,538721.799,559430.921,614694.296,399977.114,-0.192,0.976,0.087,0.122,-0.946,1.129,73.333,16.000,1.000
273340.226,310376.762,423509.425,390606.009,538939.692,457858.171,542611.457,291611.994,-0.193,0.976,0.089,0.275,-1.068,1.160,73.333,17.000,1.000
191408.510,227202.454,417740.760,396087.922,535734.252,354896.661,467936.436,200404.902,-0.194,0.975,0.089,0.305,-1.129,1.221,73.333,18.000,1.000
126846.612,161301.891,410235.092,402843.322,527601.151,263783.099,397690.811,137505.823,-0.194,0.975,0.082,0.366,-1.160,1.099,73.333,19.000,1.000
87857.621,121975.236,405618.416,413230.711,518226.071,191819.459,335293.685,103192.094,-0.193,0.976,0.081,0.427,-1.160,1.038,73.333,20.000,1.000
74189.423,106363.662,403464.963,416343.991,512844.042,147512.812,284106.830,90313.727,-0.192,0.976,0.083,0.458,-1.221,1.068,73.333,21.000,1.000
75289.768,102186.163,400886.195,404283.213,512139.191,133715.850,247954.389,88917.616,-0.192,0.975,0.082,0.641,-1.312,0.977,73.333,22.000,1.000
77621.127,98609.255,397043.722,385700.178,511877.341,138823.227,227225.621,89984.336,-0.192,0.977,0.083,0.671,-1.343,0.946,73.333,23.000,1.000
74181.650,92862.706,393787.008,376601.099,508443.730,142630.206,215993.045,87735.750,-0.192,0.977,0.082,0.702,-1.465,0.885,73.333,24.000,1.000
66493.267,86964.923,392436.378,381161.101,502834.535,133102.844,205433.496,80521.302,-0.191,0.978,0.083,0.824,-1.526,0.824,73.333,25.000,1.000
58620.683,81283.322,391661.660,388143.645,498418.176,114568.284,190691.927,70092.850,-0.193,0.977,0.083,0.946,-1.648,0.824,73.333,26.000,1.000
51562.282,73609.204,389248.546,386290.942,496222.809,98377.912,173464.145,59500.434,-0.194,0.978,0.083,0.977,-1.678,0.702,73.333,27.000,1.000
43897.673,63312.752,385028.385,377475.554,494056.874,88803.822,157820.485,50866.910,-0.191,0.978,0.084,1.007,-1.740,0.702,73.333,28.000,1.000
35640.487,53392.440,380975.470,371713.154,489932.752,80902.936,144960.839,44499.160,-0.192,0.978,0.083,1.129,-1.801,0.641,73.333,29.000,1.000
29033.004,47188.066,378585.936,373034.525,484699.888,70013.412,132977.695,39580.569,-0.190,0.977,0.081,1.221,-1.862,0.488,73.333,30.000,1.000
25511.007,44376.531,377151.584,375356.549,480601.998,58491.622,120587.767,35319.041,-0.192,0.976,0.082,1.160,-1.801,0.580,73.333,31.000,1.000
23579.414,41627.885,374978.391,371944.079,478221.628,51505.387,109104.047,31390.387,-0.193,0.975,0.079,1.251,-1.892,0.488,73.333,32.000,1.000
20592.660,36769.951,371620.936,364285.302,475970.796,49255.992,100280.581,27643.165,-0.191,0.977,0.076,1.251,-2.014,0.366,73.333,33.000,1.000
15846.407,30937.459,368208.080,359151.393,472385.980,46595.660,93564.587,23832.324,-0.192,0.977,0.080,1.190,-1.923,0.397,73.333,34.000,1.000
10938.668,26413.212,365764.012,359355.094,467887.420,39802.025,86663.527,19800.009,-0.191,0.977,0.077,1.251,-1.953,0.427,73.333,35.000,1.000
7379.978,23558.143,363941.715,360830.263,463909.053,30925.811,78430.604,15739.452,-0.191,0.977,0.076,1.251,-1.953,0.366,73.333,36.000,1.000
4868.985,20768.811,361673.251,358678.871,460967.976,24465.572,70062.522,12063.045,-0.193,0.977,0.076,1.312,-2.014,0.305,73.333,37.000,1.000
2167.256,16914.636,358606.430,353208.717,458248.189,21582.537,63241.865,8983.989,-0.193,0.978,0.077,1.312,-2.106,0.305,73.333,38.000,1.000
-1119.742,12709.153,355421.383,348584.635,454875.054,19360.379,57970.878,6323.374,-0.191,0.976,0.074,1.343,-2.136,0.275,73.333,39.000,1.000
-4281.652,9486.250,352837.979,347135.453,450956.739,15115.738,52863.002,3754.605,-0.190,0.976,0.074,1.465,-2.228,0.336,73.333,40.000,1.000
-6698.793,7410.970,350754.915,347011.085,447211.133,9552.216,47114.497,1154.029,-0.192,0.978,0.074,1.617,-2.197,0.275,73.333,41.000,1.000
-8612.862,5467.143,348522.713,345236.978,443991.472,5165.566,41373.160,-1348.883,-0.192,0.978,0.076,1.434,-2.167,0.397,73.333,42.000,1.000
-10620.424,2880.542,345799.174,341367.238,441004.464,2828.013,36603.564,-3610.174,-0.193,0.978,0.074,1.465,-2.258,0.366,73.333,43.000,1.000
-12886.468,-55.434,342872.881,337399.996,437817.098,1058.618,32760.799,-5660.171,-0.193,0.979,0.075,1.404,-2.228,0.366,73.333,44.000,1.000
-15130.994,-2590.856,340208.034,335010.279,434328.702,-1757.826,28997.082,-7636.814,-0.192,0.978,0.075,1.373,-2.289,0.305,73.333,45.000,1.000
-17122.917,-4481.284,337900.447,333850.363,430744.662,-5509.078,24846.369,-9601.451,-0.190,0.979,0.074,1.373,-2.289,0.397,73.333,46.000,1.000
-18873.824,-6105.735,335653.926,332393.456,427306.936,-8903.408,20696.641,-11481.219,-0.190,0.978,0.075,1.282,-2.228,0.366,73.333,47.000,1.000
-20453.556,-7881.566,333169.488,329708.048,424114.655,-11162.515,17108.078,-13181.013,-0.190,0.978,0.076,1.251,-2.197,0.366,73.333,48.000,1.000
-21908.603,-9850.978,330451.355,326220.786,421067.153,-12697.120,14084.386,-14703.759,-0.189,0.979,0.077,1.160,-2.106,0.458,73.333,49.000,1.000
-23361.951,-11782.575,327755.229,323109.227,417916.061,-14394.546,11204.437,-16141.739,-0.188,0.979,0.076,1.038,-2.045,0.427,73.333,50.000,1.000
-24938.171,-13454.793,325301.780,321125.951,414488.038,-16678.858,8221.964,-17571.649,-0.187,0.978,0.074,1.099,-2.075,0.519,73.333,51.000,1.000
-26518.785,-14814.688,323051.929,319846.587,410927.855,-19245.401,5270.703,-18981.691,-0.188,0.980,0.075,0.977,-1.953,0.641,73.333,52.000,1.000
-27795.387,-16009.128,320750.453,318038.350,407602.960,-21442.964,2560.856,-20300.764,-0.188,0.980,0.076,0.854,-2.014,0.641,73.333,53.000,1.000
-28703.949,-17296.143,318202.363,314984.762,404653.789,-22888.595,116.213,-21485.533,-0.189,0.981,0.074,0.793,-1.831,0.732,73.333,54.000,1.000
-29618.757,-18800.366,315505.076,311435.410,401745.429,-23874.503,-2158.101,-22570.030,-0.188,0.981,0.076,0.641,-1.862,0.763,73.333,55.000,1.000
-30894.337,-20315.289,312956.881,308868.512,398450.023,-25148.228,-4327.813,-23628.661,-0.189,0.982,0.076,0.549,-1.801,0.824,73.333,56.000,1.000
-32326.630,-21483.849,310702.814,307660.728,394816.811,-27102.328,-6432.202,-24694.060,-0.187,0.982,0.078,0.305,-1.678,0.793,73.333,57.000,1.000
-33363.782,-22257.464,308532.924,306442.470,391236.870,-29214.284,-8511.796,-25720.855,-0.188,0.981,0.076,0.183,-1.617,0.763,73.333,58.000,1.000
-33873.969,-23037.207,306122.530,303737.872,387572.036,-30576.585,-10531.232,-26640.835,-0.188,0.981,0.076,0.153,-1.556,0.824,73.333,59.000,1.000
-34393.131,-24197.805,303451.492,299955.089,382732.006,-31059.590,-12357.007,-27449.555,-0.189,0.981,0.076,0.092,-1.465,0.763,73.333,60.000,1.000
-35421.749,-25560.043,300855.569,297000.856,375516.291,-31605.578,-13930.317,-28218.937,-0.190,0.978,0.077,-0.031,-1.312,0.732,73.333,61.000,1.000
-36707.535,-26573.990,298601.269,295794.770,365830.796,-33079.312,-15412.978,-29013.623,-0.188,0.980,0.076,-0.031,-1.282,0.702,73.333,62.000,1.000
-37555.822,-27054.376,296522.322,294945.701,354810.080,-35076.970,-17020.665,-29811.337,-0.188,0.978,0.076,-0.153,-1.251,0.793,73.333,63.000,1.000
-37791.878,-27478.642,294220.706,292521.952,343741.111,-36368.003,-18712.152,-30532.000,-0.188,0.979,0.076,-0.183,-1.251,0.854,73.333,64.000,1.000
-38034.995,-28375.443,291594.527,288666.734,333103.195,-36527.722,-20200.014,-31144.280,-0.188,0.978,0.080,-0.336,-1.099,0.946,73.333,65.000,1.000
-38861.908,-29593.558,288987.600,285484.795,322743.217,-36580.947,-21339.868,-31711.781,-0.189,0.978,0.077,-0.366,-1.007,1.007,73.333,66.000,1.000
-40001.488,-30476.585,286737.746,284230.691,312683.895,-37678.951,-22370.173,-32313.225,-0.188,0.979,0.078,-0.336,-0.977,0.946,73.333,67.000,1.000
-40696.156,-30752.442,284718.742,283575.497,303336.865,-39526.436,-23618.057,-32938.436,-0.190,0.978,0.080,-0.397,-0.946,1.007,73.333,68.000,1.000
-40749.194,-30926.505,282502.333,281370.020,294874.534,-40733.933,-25041.273,-33500.673,-0.190,0.980,0.080,-0.488,-0.824,0.946,73.333,69.000,1.000
-40804.798,-31609.124,279934.113,277560.785,286777.422,-40692.333,-26261.298,-33953.031,-0.191,0.978,0.079,-0.580,-0.732,1.007,73.333,70.000,1.000
-41463.322,-32679.574,277344.828,274278.103,278336.304,-40428.829,-27082.282,-34354.407,-0.189,0.979,0.077,-0.488,-0.702,1.099,73.333,71.000,1.000
-42455.651,-33442.740,275104.614,272946.887,269503.449,-41233.641,-27783.355,-34794.293,-0.189,0.976,0.078,-0.488,-0.671,1.099,73.333,72.000,1.000
-43020.024,-33578.965,273122.632,272354.962,260929.949,-42903.020,-28751.886,-35274.972,-0.192,0.977,0.080,-0.519,-0.610,1.160,73.333,73.000,1.000
-42954.094,-33585.007,270972.296,270314.195,253106.197,-44009.057,-29946.927,-35709.810,-0.193,0.978,0.077,-0.519,-0.549,1.099,73.333,74.000,1.000
-42885.707,-34095.998,268470.119,266633.258,245747.477,-43844.045,-30945.791,-36040.839,-0.193,0.979,0.077,-0.458,-0.580,1.190,73.333,75.000,1.000
-43401.232,-35019.653,265917.349,263346.139,238229.765,-43382.556,-31527.042,-36317.570,-0.192,0.979,0.079,-0.488,-0.519,1.221,73.333,76.000,1.000
-44248.038,-35670.866,263662.628,261908.501,230449.435,-43948.013,-31985.326,-36631.246,-0.194,0.978,0.076,-0.458,-0.519,1.160,73.333,77.000,1.000
-44701.175,-35713.446,261556.750,261181.688,222930.910,-45417.313,-32732.964,-36994.032,-0.191,0.978,0.080,-0.580,-0.580,1.190,73.333,78.000,1.000
-44563.468,-35611.886,259039.659,258911.455,216068.820,-46413.531,-33734.689,-37326.281,-0.193,0.980,0.079,-0.641,-0.549,1.282,73.333,79.000,1.000
-44416.883,-35985.635,255768.410,254654.892,209572.896,-46194.846,-34559.087,-37567.031,-0.195,0.980,0.079,-0.580,-0.488,1.190,73.333,80.000,1.000
-44807.604,-36768.148,251968.426,250204.362,202868.666,-45643.342,-34976.014,-37756.912,-0.196,0.979,0.080,-0.580,-0.580,1.373,73.333,81.000,1.000
-45510.206,-37318.089,248089.898,247061.929,195876.587,-46033.224,-35272.510,-37982.462,-0.195,0.978,0.082,-0.641,-0.549,1.404,73.333,82.000,1.000
-45865.698,-37304.406,244288.339,244510.667,189097.154,-47302.916,-35853.811,-38259.338,-0.195,0.977,0.078,-0.610,-0.610,1.251,73.333,83.000,1.000
-45690.850,-37142.339,240408.826,240840.047,182911.062,-48182.086,-36688.063,-38513.352,-0.193,0.977,0.080,-0.610,-0.732,1.312,73.333,84.000,1.000
-45503.707,-37406.839,236403.344,235881.018,177070.536,-47943.014,-37360.164,-38682.671,-0.195,0.976,0.082,-0.549,-0.793,1.312,73.333,85.000,1.000
-45792.590,-38054.046,232535.853,231318.961,171057.886,-47357.622,-37648.267,-38800.429,-0.194,0.977,0.080,-0.641,-0.793,1.251,73.333,86.000,1.000
-46361.933,-38508.465,229079.127,228429.000,164786.580,-47601.873,-37822.079,-38947.887,-0.194,0.978,0.081,-0.641,-0.946,1.129,73.333,87.000,1.000
-46632.521,-38461.013,225942.191,226395.233,158685.819,-48665.211,-38263.771,-39145.822,-0.196,0.974,0.082,-0.519,-1.038,1.160,73.333,88.000,1.000
-46440.187,-38271.403,222762.921,223464.135,153089.693,-49422.483,-38948.554,-39331.194,-0.196,0.975,0.082,-0.519,-1.099,1.129,73.333,89.000,1.000
-46231.339,-38453.000,219353.710,219277.632,147790.494,-49193.504,-39494.950,-39445.415,-0.196,0.975,0.083,-0.549,-1.099,1.190,73.333,90.000,1.000
-46429.249,-38978.499,215909.151,215232.363,142344.461,-48627.564,-39695.059,-39511.572,-0.195,0.976,0.081,-0.519,-1.038,1.160,73.333,91.000,1.000
-46871.752,-39346.688,212717.125,212507.906,136674.190,-48764.802,-39787.573,-39599.125,-0.197,0.978,0.085,-0.549,-1.099,1.099,73.333,92.000,1.000
-47067.958,-39278.566,209778.728,210522.271,131143.922,-49628.771,-40116.010,-39729.370,-0.196,0.976,0.083,-0.488,-1.099,1.099,73.333,93.000,1.000
-46876.123,-39076.253,206836.014,207829.165,126041.351,-50256.738,-40663.021,-39851.172,-0.194,0.976,0.081,-0.366,-1.251,1.099,73.333,94.000,1.000
-46668.321,-39185.944,203737.149,204097.859,121196.846,-50041.924,-41094.704,-39914.775,-0.194,0.978,0.082,-0.366,-1.373,1.099,73.333,95.000,1.000
-46798.527,-39597.203,200630.598,200474.033,116237.622,-49518.141,-41228.061,-39939.116,-0.195,0.977,0.084,-0.336,-1.434,1.068,73.333,96.000,1.000
-47133.982,-39888.881,197744.143,197957.719,111092.951,-49578.169,-41269.460,-39983.504,-0.197,0.976,0.083,-0.305,-1.343,1.038,73.333,97.000,1.000
-47268.941,-39816.560,195072.504,196089.628,106060.970,-50267.713,-41516.309,-40067.069,-0.195,0.977,0.082,-0.336,-1.465,1.038,73.333,98.000,1.000
-47083.754,-39623.109,192395.140,193661.012,101382.435,-50784.318,-41953.933,-40145.967,-0.194,0.977,0.084,-0.244,-1.526,0.977,73.333,99.000,1.000
-46879.677,-39680.826,189577.934,190356.940,96925.415,-50597.982,-42294.815,-40174.820,-0.194,0.978,0.084,-0.244,-1.678,0.854,73.333,100.000,1.000
-46946.155,-39990.316,186740.098,187094.442,92388.315,-50129.608,-42380.472,-40166.351,-0.194,0.977,0.083,-0.214,-1.617,0.946,73.333,101.000,1.000
-47181.713,-40210.537,184076.531,184716.171,87708.226,-50124.268,-42385.126,-40171.243,-0.194,0.978,0.084,-0.244,-1.495,0.977,73.333,102.000,1.000
-47264.318,-40137.234,181595.609,182892.862,83118.133,-50647.291,-42562.015,-40210.183,-0.192,0.979,0.085,-0.244,-1.648,1.038,73.333,103.000,1.000
-47096.030,-39960.830,179122.648,180655.967,78809.961,-51056.195,-42902.473,-40250.595,-0.191,0.979,0.085,-0.275,-1.587,0.977,73.333,104.000,1.000
-46909.922,-39982.051,176541.895,177717.981,74684.064,-50903.933,-43167.572,-40254.279,-0.192,0.980,0.085,-0.183,-1.556,1.007,73.333,105.000,1.000
-46931.209,-40206.854,173940.015,174781.594,70506.144,-50506.315,-43221.946,-40227.377,-0.191,0.980,0.084,-0.122,-1.495,1.099,73.333,106.000,1.000
-47082.550,-40364.715,171472.807,172528.811,66225.406,-50459.128,-43203.768,-40207.492,-0.192,0.980,0.083,-0.183,-1.556,1.221,73.333,107.000,1.000
-47116.366,-40288.109,169154.541,170735.523,62020.687,-50833.988,-43319.485,-40211.047,-0.192,0.979,0.084,-0.275,-1.526,1.282,73.333,108.000,1.000
-46956.512,-40122.016,166851.423,168651.825,58041.664,-51135.967,-43566.861,-40214.046,-0.189,0.980,0.087,-0.244,-1.434,1.282,73.333,109.000,1.000
-46779.528,-40105.492,164467.772,166025.057,54215.246,-51005.153,-43758.341,-40188.069,-0.191,0.979,0.084,-0.214,-1.404,1.129,73.333,110.000,1.000
-46757.555,-40252.644,162064.273,163371.461,50362.800,-50672.353,-43786.227,-40138.595,-0.191,0.979,0.085,-0.244,-1.312,1.221,73.333,111.000,1.000
-46836.320,-40358.629,159762.277,161225.634,46441.120,-50598.891,-43756.937,-40095.002,-0.190,0.980,0.085,-0.336,-1.434,1.190,73.333,112.000,1.000
-46832.935,-40288.254,157580.237,159450.302,42580.243,-50853.354,-43829.607,-40069.799,-0.192,0.978,0.084,-0.305,-1.343,1.068,73.333,113.000,1.000
-46687.885,-40141.999,155420.185,157489.023,38893.134,-51063.707,-44000.943,-40043.522,-0.192,0.977,0.083,-0.183,-1.251,1.221,73.333,114.000,1.000
-46525.622,-40098.908,153204.764,155126.288,35330.846,-50945.517,-44125.769,-39992.952,-0.192,0.976,0.084,-0.214,-1.129,1.099,73.333,115.000,1.000
-46470.387,-40177.626,150971.764,152718.823,31763.710,-50659.269,-44123.115,-39922.370,-0.192,0.977,0.084,-0.244,-1.190,0.977,73.333,116.000,1.000
-46487.583,-40233.517,148810.488,150668.078,28154.685,-50554.953,-44077.822,-39857.113,-0.191,0.976,0.086,-0.183,-1.160,0.916,73.333,117.000,1.000
-46451.439,-40165.934,146740.636,148904.160,24590.826,-50704.374,-44114.685,-39811.105,-0.193,0.976,0.083,-0.183,-1.129,0.977,73.333,118.000,1.000
-46319.612,-40042.141,144695.100,147036.114,21153.116,-50846.560,-44233.747,-39772.217,-0.191,0.979,0.084,-0.153,-1.251,0.977,73.333,119.000,1.000
-46174.513,-39989.211,142615.229,144887.466,17814.832,-50762.747,-44324.921,-39720.994,-0.192,0.977,0.084,-0.183,-1.221,0.854,73.333,120.000,1.000
-46098.809,-40023.402,140523.134,142686.495,14492.873,-50546.139,-44321.952,-39654.701,-0.193,0.976,0.085,-0.122,-1.129,1.007,73.333,121.000,1.000
-46070.523,-40044.014,138482.766,140721.898,11161.702,-50438.546,-44280.083,-39586.393,-0.193,0.978,0.080,-0.122,-1.160,1.007,73.333,122.000,1.000
-46007.879,-39976.329,136514.023,138975.165,7875.464,-50502.571,-44287.060,-39524.104,-0.193,0.977,0.080,-0.214,-1.190,0.916,73.333,123.000,1.000
-45881.397,-39860.808,134573.828,137191.019,4686.033,-50568.125,-44344.795,-39459.929,-0.192,0.976,0.082,-0.092,-1.099,0.946,73.333,124.000,1.000
-45740.342,-39784.798,132617.683,135227.702,1578.056,-50480.054,-44379.061,-39382.070,-0.192,0.975,0.080,-0.061,-1.068,0.946,73.333,125.000,1.000
-45637.266,-39767.897,130653.205,133209.018,-1501.581,-50290.086,-44347.238,-39291.658,-0.195,0.976,0.078,0.000,-1.129,1.007,73.333,126.000,1.000
-45564.917,-39751.074,128721.343,131327.435,-4574.560,-50161.929,-44290.666,-39201.762,-0.196,0.973,0.081,0.183,-1.190,1.038,73.333,127.000,1.000
-45479.916,-39683.793,126840.392,129600.764,-7614.241,-50153.746,-44271.222,-39121.294,-0.194,0.975,0.081,0.275,-1.282,1.007,73.333,128.000,1.000
-45363.604,-39583.599,124986.933,127883.015,-10589.633,-50166.820,-44290.510,-39045.705,-0.195,0.974,0.080,0.244,-1.312,0.885,73.333,129.000,1.000
-45236.897,-39501.208,123130.013,126065.662,-13503.058,-50092.996,-44297.525,-38964.641,-0.198,0.975,0.083,0.244,-1.282,0.854,73.333,130.000,1.000
-45124.258,-39453.343,121268.293,124194.254,-16378.965,-49944.772,-44260.924,-38874.810,-0.199,0.976,0.082,0.275,-1.251,0.732,73.333,131.000,1.000
-45025.053,-39410.861,119426.009,122384.952,-19231.126,-49816.155,-44204.089,-38782.345,-0.198,0.978,0.081,0.244,-1.373,0.793,73.333,132.000,1.000
-44923.268,-39343.086,117620.371,120680.930,-22051.925,-49756.679,-44165.811,-38693.799,-0.197,0.976,0.085,0.183,-1.434,0.824,73.333,133.000,1.000
-44810.021,-39252.927,115843.128,119020.741,-24827.707,-49724.940,-44150.067,-38608.474,-0.194,0.977,0.083,0.183,-1.404,0.763,73.333,134.000,1.000
-44688.207,-39165.189,114073.924,117324.556,-27553.988,-49655.539,-44129.104,-38520.413,-0.192,0.979,0.082,0.153,-1.556,0.763,73.333,135.000,1.000
-44563.786,-39094.248,112304.336,115579.885,-30236.343,-49535.808,-44084.076,-38425.672,-0.191,0.980,0.081,0.183,-1.587,0.916,73.333,136.000,1.000
-44441.597,-39032.038,110544.727,113842.316,-32884.057,-49406.525,-44024.796,-38325.844,-0.190,0.980,0.082,0.092,-1.495,0.977,73.333,137.000,1.000
-44325.091,-38961.684,108810.102,112169.871,-35503.747,-49307.194,-43969.971,-38224.872,-0.192,0.981,0.083,0.122,-1.465,1.129,73.333,138.000,1.000
-44211.664,-38874.900,107103.059,110563.440,-38093.883,-49236.700,-43922.834,-38124.345,-0.191,0.983,0.079,0.122,-1.404,1.282,73.333,139.000,1.000
-44090.870,-38777.605,105411.524,108967.471,-40644.455,-49162.008,-43872.814,-38022.653,-0.191,0.982,0.079,0.092,-1.373,1.343,73.333,140.000,1.000
-43956.006,-38683.790,103722.138,107329.104,-43147.235,-49054.662,-43812.729,-37917.932,-0.190,0.984,0.077,0.031,-1.434,1.495,73.333,141.000,1.000
-43816.748,-38603.055,102034.647,105658.017,-45608.337,-48918.952,-43745.652,-37810.802,-0.191,0.982,0.079,0.031,-1.373,1.495,73.333,142.000,1.000
-43690.556,-38530.261,100361.827,104019.480,-48044.654,-48788.223,-43677.637,-37703.861,-0.191,0.980,0.079,-0.061,-1.251,1.495,73.333,143.000,1.000
-43578.747,-38449.073,98714.425,102458.653,-50463.743,-48691.043,-43611.344,-37598.860,-0.191,0.979,0.078,-0.061,-1.251,1.587,73.333,144.000,1.000
-43460.672,-38350.189,97087.858,100941.032,-52852.238,-48617.988,-43546.608,-37494.402,-0.191,0.978,0.078,-0.031,-1.221,1.556,73.333,145.000,1.000
-43319.584,-38244.676,95467.032,99389.268,-55191.751,-48528.212,-43481.392,-37387.006,-0.189,0.976,0.078,-0.122,-1.251,1.648,73.333,146.000,1.000
-43167.438,-38152.523,93844.676,97780.746,-57484.419,-48396.374,-43411.044,-37274.943,-0.190,0.975,0.078,-0.092,-1.160,1.617,73.333,147.000,1.000
-43031.510,-38076.549,92230.771,96181.891,-59752.538,-48246.446,-43331.364,-37160.364,-0.191,0.974,0.078,0.031,-1.190,1.587,73.333,148.000,1.000
-42917.324,-37995.816,90640.100,94665.643,-62009.690,-48124.963,-43245.206,-37047.190,-0.190,0.974,0.079,0.031,-1.099,1.465,73.333,149.000,1.000
-42799.205,-37891.420,89072.721,93213.469,-64241.538,-48041.024,-43161.937,-36937.047,-0.192,0.975,0.080,0.122,-1.038,1.312,73.333,150.000,1.000
-42654.585,-37772.887,87512.822,91734.670,-66424.557,-47950.894,-43086.077,-36828.024,-0.193,0.978,0.083,0.153,-1.068,1.129,73.333,151.000,1.000
-42495.998,-37667.723,85948.780,90185.111,-68559.078,-47813.532,-43009.493,-36717.507,-0.194,0.977,0.081,0.000,-1.129,0.977,73.333,152.000,1.000
-42355.199,-37585.104,84388.662,88628.802,-70670.649,-47647.556,-42920.822,-36605.298,-0.193,0.979,0.083,-0.092,-1.099,0.885,73.333,153.000,1.000
-42239.792,-37502.669,82849.822,87154.760,-72776.379,-47510.826,-42821.879,-36493.422,-0.194,0.980,0.083,-0.214,-1.099,0.793,73.333,154.000,1.000
-42122.041,-37396.072,81335.572,85756.737,-74861.654,-47424.115,-42726.996,-36382.665,-0.193,0.981,0.083,-0.336,-1.099,0.671,73.333,155.000,1.000
-41976.300,-37272.363,79830.144,84339.240,-76899.830,-47340.577,-42643.630,-36270.542,-0.193,0.981,0.080,-0.427,-1.160,0.519,73.333,156.000,1.000
-41814.273,-37161.350,78319.278,82845.100,-78888.953,-47206.496,-42561.175,-36154.235,-0.193,0.983,0.080,-0.549,-1.221,0.336,73.333,157.000,1.000
-41669.205,-37075.437,76809.141,81333.021,-80854.923,-47033.862,-42465.107,-36034.821,-0.193,0.983,0.080,-0.610,-1.251,0.305,73.333,158.000,1.000
-41550.346,-36992.436,75318.049,79898.674,-82816.525,-46885.388,-42358.042,-35916.743,-0.191,0.984,0.084,-0.671,-1.099,0.397,73.333,159.000,1.000
-41430.545,-36885.623,73851.757,78545.269,-84760.412,-46790.248,-42257.741,-35802.607,-0.190,0.984,0.084,-0.732,-1.038,0.427,73.333,160.000,1.000
-41284.175,-36760.527,72395.444,77179.269,-86660.547,-46704.490,-42173.150,-35689.948,-0.191,0.984,0.082,-0.763,-0.977,0.397,73.333,161.000,1.000
-41122.521,-36647.647,70933.335,75737.031,-88515.054,-46570.403,-42091.037,-35574.203,-0.189,0.983,0.079,-0.824,-0.824,0.458,73.333,162.000,1.000
-40977.643,-36560.546,69469.576,74269.998,-90349.220,-46394.230,-41992.586,-35454.073,-0.187,0.982,0.082,-0.977,-0.854,0.580,73.333,163.000,1.000
-40857.754,-36477.043,68022.236,72873.448,-92180.950,-46236.735,-41878.384,-35332.795,-0.188,0.982,0.084,-0.946,-0.763,0.671,73.333,164.000,1.000
-40735.928,-36369.282,66598.801,71557.380,-93996.421,-46130.078,-41767.437,-35213.704,-0.188,0.979,0.083,-1.160,-0.610,0.763,73.333,165.000,1.000
-40587.158,-36241.419,65186.376,70235.004,-95769.168,-46034.970,-41671.312,-35096.164,-0.191,0.978,0.082,-1.099,-0.549,0.854,73.333,166.000,1.000
-40422.311,-36123.720,63769.418,68841.780,-97496.174,-45896.096,-41579.147,-34977.351,-0.191,0.977,0.083,-0.977,-0.519,1.099,73.333,167.000,1.000
-40272.728,-36031.512,62350.512,67421.252,-99201.499,-45718.592,-41473.756,-34856.773,-0.192,0.976,0.083,-0.946,-0.580,1.282,73.333,168.000,1.000
-40147.697,-35945.022,60946.196,66062.982,-100903.604,-45560.895,-41356.049,-34737.122,-0.192,0.974,0.086,-0.854,-0.458,1.343,73.333,169.000,1.000
-40023.214,-35836.837,59564.176,64780.730,-102591.620,-45454.947,-41243.723,-34620.284,-0.193,0.975,0.084,-0.854,-0.366,1.343,73.333,170.000,1.000
-39875.948,-35708.768,58193.099,63496.678,-104242.000,-45363.430,-41146.359,-34504.043,-0.194,0.973,0.083,-0.793,-0.366,1.373,73.333,171.000,1.000
-39714.577,-35588.203,56818.168,62148.947,-105851.493,-45231.098,-41051.777,-34384.111,-0.195,0.974,0.083,-0.732,-0.458,1.373,73.333,172.000,1.000
-39566.428,-35490.384,55440.722,60773.314,-107441.235,-45058.464,-40942.470,-34258.981,-0.197,0.971,0.085,-0.702,-0.458,1.465,73.333,173.000,1.000
-39439.798,-35398.893,54075.491,59450.793,-109027.869,-44898.476,-40819.598,-34131.669,-0.197,0.970,0.084,-0.610,-0.488,1.465,73.333,174.000,1.000
-39313.897,-35289.520,52730.255,58197.352,-110601.765,-44783.363,-40701.279,-34006.027,-0.195,0.972,0.083,-0.519,-0.549,1.343,73.333,175.000,1.000
-39168.349,-35163.092,51395.861,56945.944,-112140.991,-44682.183,-40597.578,-33882.545,-0.195,0.972,0.084,-0.549,-0.732,1.343,73.333,176.000,1.000
-39010.307,-35042.687,50059.377,55640.167,-113640.665,-44544.737,-40496.983,-33759.150,-0.194,0.971,0.086,-0.519,-0.671,1.282,73.333,177.000,1.000
-38862.771,-34940.885,48721.683,54308.797,-115117.776,-44369.408,-40382.508,-33635.122,-0.196,0.973,0.085,-0.458,-0.671,1.312,73.333,178.000,1.000
-38732.303,-34842.987,47395.687,53022.821,-116587.245,-44203.455,-40254.759,-33512.566,-0.197,0.971,0.087,-0.458,-0.732,1.373,73.333,179.000,1.000
-38600.864,-34728.133,46088.430,51798.741,-118043.091,-44078.546,-40130.485,-33393.378,-0.195,0.973,0.088,-0.397,-0.702,1.343,73.333,180.000,1.000
-38451.335,-34597.981,44791.788,50579.838,-119469.195,-43970.591,-40019.758,-33276.051,-0.195,0.974,0.086,-0.244,-0.671,1.282,73.333,181.000,1.000
-38290.690,-34474.156,43493.661,49315.478,-120863.152,-43835.816,-39913.616,-33157.138,-0.195,0.975,0.087,-0.275,-0.671,1.282,73.333,182.000,1.000
-38140.146,-34369.500,42193.672,48027.082,-122239.958,-43670.283,-39797.801,-33035.462,-0.195,0.977,0.086,-0.244,-0.763,1.282,73.333,183.000,1.000
-38007.318,-34272.668,40902.490,46774.473,-123611.659,-43512.328,-39672.632,-32913.382,-0.194,0.976,0.084,-0.305,-0.885,1.373,73.333,184.000,1.000
-37877.935,-34165.173,39626.951,45574.206,-124971.499,-43388.376,-39551.803,-32793.382,-0.196,0.978,0.083,-0.397,-0.824,1.312,73.333,185.000,1.000
-37736.396,-34046.009,38361.578,44381.158,-126303.473,-43277.984,-39442.859,-32674.721,-0.195,0.979,0.085,-0.427,-0.854,1.312,73.333,186.000,1.000
-37585.829,-33930.885,37097.002,43152.810,-127603.192,-43143.444,-39336.788,-32554.504,-0.194,0.977,0.084,-0.397,-0.916,1.312,73.333,187.000,1.000
-37441.307,-33829.039,35832.804,41905.090,-128881.850,-42980.136,-39220.066,-32431.167,-0.195,0.978,0.085,-0.488,-0.885,1.373,73.333,188.000,1.000
-37307.883,-33730.362,34577.438,40686.859,-130149.996,-42819.619,-39092.075,-32305.988,-0.194,0.976,0.087,-0.519,-0.885,1.495,73.333,189.000,1.000
-37174.210,-33619.508,33336.328,39513.112,-131404.249,-42685.159,-38964.633,-32181.074,-0.195,0.977,0.087,-0.610,-0.946,1.556,73.333,190.000,1.000
-37029.028,-33496.608,32104.725,38347.968,-132633.978,-42562.327,-38845.764,-32056.932,-0.192,0.979,0.086,-0.580,-0.977,1.434,73.333,191.000,1.000
-36876.634,-33376.772,30874.339,37155.557,-133837.375,-42422.206,-38730.469,-31932.943,-0.194,0.978,0.086,-0.580,-1.007,1.434,73.333,192.000,1.000
-36730.625,-33270.211,29644.145,35946.470,-135024.204,-42261.590,-38609.556,-31809.288,-0.195,0.979,0.084,-0.671,-1.007,1.404,73.333,193.000,1.000
-36595.762,-33170.099,28421.017,34759.647,-136202.434,-42105.443,-38482.888,-31687.303,-0.197,0.979,0.084,-0.732,-0.946,1.526,73.333,194.000,1.000
-36462.677,-33063.029,27210.177,33609.220,-137367.841,-41971.474,-38358.916,-31567.717,-0.197,0.979,0.086,-0.671,-1.068,1.526,73.333,195.000,1.000
-36321.233,-32946.430,26008.747,32468.784,-138510.076,-41846.880,-38242.318,-31449.277,-0.193,0.979,0.084,-0.702,-1.160,1.434,73.333,196.000,1.000
-36173.469,-32830.040,24810.416,31309.798,-139626.117,-41707.304,-38127.612,-31329.825,-0.194,0.978,0.084,-0.641,-1.160,1.404,73.333,197.000,1.000
-36029.415,-32721.357,23613.994,30138.739,-140723.093,-41549.569,-38006.870,-31208.459,-0.194,0.978,0.083,-0.610,-1.221,1.434,73.333,198.000,1.000
-35893.029,-32615.692,22424.343,28984.959,-141808.181,-41393.971,-37880.116,-31086.158,-0.193,0.978,0.086,-0.671,-1.129,1.404,73.333,199.000,1.000
-35757.545,-32503.238,21245.365,27860.305,-142879.799,-41255.647,-37754.179,-30964.102,-0.194,0.976,0.086,-0.641,-1.129,1.465,73.333,200.000,1.000
-35615.210,-32382.152,20075.006,26745.747,-143931.051,-41125.200,-37632.611,-30842.058,-0.196,0.977,0.086,-0.671,-1.251,1.373,73.333,201.000,1.000
-35467.110,-32260.083,18908.457,25619.178,-144959.599,-40982.939,-37511.088,-30719.017,-0.194,0.980,0.088,-0.702,-1.251,1.404,73.333,202.000,1.000
-35320.514,-32143.492,17744.513,24483.910,-145970.372,-40824.893,-37383.854,-30594.937,-0.195,0.980,0.085,-0.671,-1.251,1.373,73.333,203.000,1.000
-35178.964,-32030.174,16586.564,23361.265,-146968.710,-40666.126,-37251.893,-30471.231,-0.193,0.979,0.086,-0.580,-1.251,1.373,73.333,204.000,1.000
-35038.791,-31914.208,15437.568,22261.093,-147954.076,-40519.810,-37121.818,-30349.166,-0.191,0.979,0.085,-0.580,-1.343,1.404,73.333,205.000,1.000
-34895.471,-31795.092,14296.163,21170.581,-148922.281,-40381.472,-36997.338,-30228.341,-0.191,0.980,0.088,-0.519,-1.312,1.373,73.333,206.000,1.000
-34749.968,-31678.349,13158.830,20073.298,-149871.904,-40237.521,-36874.928,-30107.436,-0.192,0.980,0.083,-0.458,-1.190,1.434,73.333,207.000,1.000
-34606.833,-31567.805,12024.653,18970.411,-150805.710,-40084.061,-36749.103,-29986.010,-0.191,0.980,0.085,-0.488,-1.190,1.434,73.333,208.000,1.000
-34467.916,-31460.717,10896.198,17876.875,-151726.438,-39931.056,-36619.870,-29865.109,-0.191,0.981,0.087,-0.488,-1.190,1.495,73.333,209.000,1.000
-34330.399,-31351.491,9775.856,16800.877,-152633.319,-39788.134,-36492.209,-29745.893,-0.192,0.981,0.086,-0.488,-1.190,1.404,73.333,210.000,1.000
-34190.919,-31238.218,8662.866,15734.672,-153523.507,-39652.138,-36368.980,-29628.067,-0.189,0.980,0.085,-0.519,-1.190,1.434,73.333,211.000,1.000
-34049.657,-31123.883,7554.641,14666.459,-154396.167,-39512.197,-36247.393,-29510.072,-0.188,0.976,0.084,-0.488,-1.160,1.465,73.333,212.000,1.000
-33909.324,-31011.725,6450.134,13595.333,-155253.659,-39363.673,-36122.933,-29390.425,-0.190,0.975,0.085,-0.458,-1.160,1.526,73.333,213.000,1.000
-33771.302,-30901.432,5350.823,12530.514,-156098.796,-39212.560,-35994.870,-29268.919,-0.188,0.973,0.085,-0.336,-1.160,1.495,73.333,214.000,1.000
-33634.218,-30790.555,4258.504,11478.494,-156931.847,-39066.517,-35866.393,-29146.621,-0.190,0.972,0.083,-0.183,-1.129,1.465,73.333,215.000,1.000
-33496.164,-30678.254,3173.078,10435.778,-157750.617,-38925.756,-35740.168,-29024.822,-0.188,0.971,0.085,-0.214,-1.129,1.434,73.333,216.000,1.000
-33356.958,-30566.183,2092.998,9394.866,-158553.093,-38784.686,-35615.568,-28904.083,-0.192,0.970,0.082,0.000,-1.099,1.373,73.333,217.000,1.000
-33217.674,-30455.761,1017.427,8353.906,-159339.009,-38639.707,-35490.200,-28784.078,-0.192,0.970,0.083,0.092,-1.038,1.251,73.333,218.000,1.000
-33078.852,-30346.054,-52.798,7317.896,-160109.245,-38492.570,-35362.990,-28664.289,-0.193,0.971,0.085,0.183,-1.129,1.129,73.333,219.000,1.000
-32940.004,-30234.918,-1116.422,6291.672,-160864.696,-38346.661,-35234.906,-28544.659,-0.196,0.973,0.083,0.336,-1.099,1.038,73.333,220.000,1.000
-32800.686,-30121.634,-2173.462,5274.311,-161606.094,-38202.546,-35107.199,-28425.759,-0.195,0.975,0.083,0.305,-1.160,0.977,73.333,221.000,1.000
-32661.321,-30007.672,-3225.232,4260.942,-162334.416,-38058.254,-34979.938,-28308.486,-0.194,0.975,0.084,0.305,-1.129,0.854,73.333,222.000,1.000
-32522.655,-29894.813,-4272.768,3248.634,-163050.403,-37912.407,-34852.214,-28193.336,-0.194,0.975,0.084,0.305,-1.190,0.671,73.333,223.000,1.000
-32384.860,-29783.248,-5315.675,2239.228,-163753.961,-37765.882,-34723.405,-28080.187,-0.191,0.978,0.083,0.366,-1.282,0.610,73.333,224.000,1.000
-32247.554,-29671.929,-6352.747,1236.692,-164444.519,-37620.656,-34593.932,-27968.647,-0.192,0.976,0.081,0.366,-1.282,0.427,73.333,225.000,1.000
-32110.375,-29560.181,-7383.353,242.712,-165121.728,-37477.710,-34464.841,-27858.411,-0.191,0.977,0.082,0.397,-1.282,0.336,73.333,226.000,1.000
-31973.047,-29448.181,-8407.980,-744.774,-165785.476,-37336.074,-34336.858,-27749.163,-0.190,0.979,0.083,0.427,-1.251,0.366,73.333,227.000,1.000
-31835.241,-29336.155,-9427.550,-1729.068,-166435.359,-37193.645,-34209.774,-27640.012,-0.189,0.979,0.084,0.275,-1.343,0.366,73.333,228.000,1.000
-31697.112,-29224.075,-10442.446,-2711.090,-167071.162,-37049.362,-34082.953,-27529.581,-0.192,0.980,0.084,0.397,-1.373,0.397,73.333,229.000,1.000
-31559.565,-29111.863,-11452.257,-3688.433,-167693.680,-36904.418,-33955.979,-27416.553,-0.192,0.981,0.084,0.336,-1.343,0.366,73.333,230.000,1.000
-31423.323,-28999.293,-12456.388,-4658.184,-168304.128,-36760.694,-33828.437,-27299.988,-0.191,0.982,0.084,0.275,-1.190,0.427,73.333,231.000,1.000
-31287.943,-28886.137,-13454.798,-5620.488,-168902.905,-36618.248,-33699.757,-27179.722,-0.190,0.981,0.086,0.305,-1.251,0.519,73.333,232.000,1.000
-31152.381,-28772.859,-14448.105,-6578.644,-169489.452,-36474.939,-33569.647,-27056.760,-0.192,0.982,0.085,0.214,-1.251,0.610,73.333,233.000,1.000
-31016.554,-28660.824,-15436.926,-7535.267,-170063.477,-36329.024,-33438.639,-26933.166,-0.193,0.983,0.087,0.031,-1.099,0.702,73.333,234.000,1.000
-30881.517,-28551.071,-16421.062,-8488.851,-170625.525,-36181.644,-33307.856,-26810.921,-0.193,0.981,0.084,-0.061,-1.160,0.641,73.333,235.000,1.000
-30747.848,-28442.994,-17399.559,-9435.297,-171176.075,-36035.954,-33178.191,-26690.680,-0.193,0.980,0.083,-0.153,-1.129,0.793,73.333,236.000,1.000
-30614.502,-28334.754,-18371.830,-10373.054,-171714.783,-35893.655,-33049.824,-26571.743,-0.194,0.980,0.084,-0.214,-1.038,0.916,73.333,237.000,1.000
-30479.812,-28225.026,-19338.463,-11305.316,-172240.819,-35752.835,-32922.156,-26452.971,-0.194,0.980,0.086,-0.366,-1.099,0.946,73.333,238.000,1.000
-30343.625,-28114.193,-20300.607,-12236.084,-172754.230,-35610.052,-32794.351,-26334.003,-0.193,0.978,0.087,-0.366,-1.160,0.916,73.333,239.000,1.000
-30207.711,-28003.625,-21258.664,-13165.033,-173256.525,-35464.448,-32666.252,-26215.673,-0.194,0.979,0.084,-0.427,-1.190,0.977,73.333,240.000,1.000
-30073.744,-27894.031,-22211.924,-14087.985,-173749.335,-35318.811,-32538.794,-26099.222,-0.196,0.978,0.086,-0.488,-1.221,1.007,73.333,241.000,1.000
-29941.528,-27785.153,-23159.572,-15002.524,-174232.765,-35176.291,-32413.325,-25985.166,-0.194,0.976,0.088,-0.458,-1.282,0.977,73.333,242.000,1.000
-29809.524,-27676.786,-24101.696,-15911.215,-174705.252,-35036.622,-32290.036,-25872.575,-0.193,0.976,0.089,-0.549,-1.221,1.068,73.333,243.000,1.000
-29676.644,-27569.096,-25038.944,-16818.003,-175165.125,-34896.339,-32166.993,-25759.252,-0.193,0.972,0.086,-0.549,-1.190,0.916,73.333,244.000,1.000
-29543.138,-27461.747,-25971.469,-17722.709,-175612.132,-34752.754,-32041.344,-25642.911,-0.193,0.973,0.086,-0.519,-1.190,0.977,73.333,245.000,1.000
-29409.917,-27353.658,-26898.744,-18621.255,-176047.415,-34607.135,-31912.243,-25523.172,-0.194,0.975,0.087,-0.397,-1.190,0.916,73.333,246.000,1.000
-29277.405,-27244.136,-27820.460,-19511.353,-176472.241,-34463.091,-31782.154,-25402.560,-0.195,0.972,0.085,-0.336,-1.251,0.824,73.333,247.000,1.000
-29145.412,-27133.986,-28737.169,-20395.825,-176886.926,-34322.049,-31654.401,-25284.582,-0.197,0.973,0.085,-0.336,-1.312,0.854,73.333,248.000,1.000
-29014.039,-27025.089,-29649.696,-21278.943,-177291.361,-34182.056,-31529.982,-25170.696,-0.197,0.972,0.085,-0.275,-1.373,0.671,73.333,249.000,1.000
-28883.904,-26918.403,-30558.105,-22160.753,-177685.952,-34040.928,-31407.069,-25059.299,-0.196,0.972,0.087,-0.244,-1.343,0.732,73.333,250.000,1.000
-28755.004,-26812.569,-31461.592,-23037.044,-178071.188,-33898.620,-31282.916,-24947.311,-0.197,0.974,0.085,-0.122,-1.404,0.702,73.333,251.000,1.000
-28625.699,-26704.930,-32359.388,-23904.874,-178446.426,-33755.942,-31155.868,-24832.321,-0.196,0.973,0.085,0.061,-1.404,0.580,73.333,252.000,1.000
-28493.806,-26594.131,-33251.532,-24766.204,-178809.815,-33612.534,-31025.984,-24713.742,-0.195,0.975,0.086,0.061,-1.343,0.580,73.333,253.000,1.000
-28359.075,-26481.572,-34138.645,-25624.969,-179160.260,-33467.705,-30894.633,-24593.136,-0.195,0.975,0.086,0.122,-1.526,0.549,73.333,254.000,1.000
-28223.698,-26369.745,-35021.065,-26481.718,-179498.881,-33322.576,-30763.456,-24473.251,-0.196,0.976,0.085,0.122,-1.556,0.549,73.333,255.000,1.000
-28090.070,-26259.655,-35898.517,-27333.086,-179827.939,-33180.061,-30633.700,-24356.288,-0.195,0.976,0.087,0.305,-1.526,0.610,73.333,256.000,1.000
-27958.769,-26150.662,-36770.776,-28176.713,-180148.823,-33041.992,-30506.126,-24242.837,-0.195,0.978,0.085,0.275,-1.495,0.580,73.333,257.000,1.000
-27828.912,-26042.230,-37638.313,-29014.743,-180461.274,-32906.266,-30380.457,-24131.825,-0.195,0.979,0.082,0.275,-1.556,0.580,73.333,258.000,1.000
-27699.924,-25934.891,-38501.960,-29851.142,-180764.510,-32768.377,-30255.259,-24021.532,-0.196,0.979,0.085,0.214,-1.648,0.519,73.333,259.000,1.000
-27572.184,-25829.287,-39361.893,-30686.482,-181058.473,-32626.367,-30129.279,-23910.775,-0.196,0.978,0.086,0.214,-1.617,0.610,73.333,260.000,1.000
-27445.918,-25724.906,-40217.299,-31517.197,-181343.556,-32483.106,-30002.802,-23799.183,-0.198,0.978,0.088,0.153,-1.740,0.549,73.333,261.000,1.000
-27320.116,-25620.283,-41067.220,-32340.223,-181619.643,-32342.829,-29877.221,-23686.656,-0.198,0.978,0.087,0.214,-1.801,0.610,73.333,262.000,1.000
-27193.115,-25514.329,-41911.521,-33156.706,-181885.821,-32206.173,-29753.145,-23572.959,-0.197,0.978,0.087,0.183,-1.740,0.519,73.333,263.000,1.000
-27064.480,-25407.392,-42750.902,-33970.117,-182141.609,-32069.989,-29629.662,-23458.332,-0.198,0.980,0.088,0.214,-1.831,0.458,73.333,264.000,1.000
-26935.703,-25300.738,-43586.044,-34781.635,-182388.027,-31931.417,-29505.270,-23343.826,-0.198,0.979,0.086,0.183,-1.862,0.610,73.333,265.000,1.000
-26808.604,-25195.011,-44416.945,-35588.958,-182626.759,-31790.623,-29379.203,-23230.455,-0.196,0.977,0.084,0.183,-1.862,0.641,73.333,266.000,1.000
-26683.571,-25089.884,-45243.200,-36389.812,-182858.554,-31649.832,-29252.345,-23118.547,-0.197,0.979,0.086,0.153,-1.953,0.580,73.333,267.000,1.000
-26559.730,-24985.121,-46064.706,-37185.116,-183082.606,-31510.674,-29126.615,-23007.855,-0.196,0.979,0.084,0.153,-1.953,0.641,73.333,268.000,1.000
-26436.237,-24881.011,-46881.727,-37977.526,-183297.454,-31372.813,-29003.023,-22897.916,-0.196,0.978,0.082,0.092,-1.862,0.671,73.333,269.000,1.000
-26312.739,-24777.462,-47694.288,-38767.569,-183502.191,-31234.821,-28880.571,-22788.165,-0.195,0.978,0.086,0.183,-1.862,0.671,73.333,270.000,1.000
-26188.858,-24673.464,-48501.912,-39552.805,-183696.754,-31095.983,-28757.495,-22678.097,-0.194,0.978,0.086,0.214,-1.740,0.671,73.333,271.000,1.000
-26063.986,-24568.053,-49304.152,-40331.071,-183881.631,-30956.757,-28633.233,-22567.488,-0.193,0.977,0.089,0.122,-1.801,0.671,73.333,272.000,1.000
-25937.931,-24461.632,-50101.234,-41103.335,-184057.585,-30817.574,-28508.551,-22456.367,-0.193,0.977,0.085,0.092,-1.709,0.702,73.333,273.000,1.000
-25811.551,-24356.024,-50893.979,-41872.444,-184225.719,-30678.362,-28384.383,-22345.220,-0.193,0.977,0.085,0.092,-1.709,0.702,73.333,274.000,1.000
-25686.197,-24252.845,-51683.004,-42639.583,-184387.123,-30539.449,-28261.100,-22235.051,-0.192,0.975,0.086,0.092,-1.617,0.793,73.333,275.000,1.000
-25562.478,-24151.983,-52468.138,-43403.096,-184542.090,-30402.125,-28138.717,-22126.852,-0.192,0.977,0.082,0.183,-1.556,0.732,73.333,276.000,1.000
-25439.682,-24051.824,-53248.728,-44160.941,-184689.894,-30267.470,-28017.198,-22020.762,-0.192,0.977,0.085,0.183,-1.617,0.854,73.333,277.000,1.000
-25316.281,-23950.477,-54024.372,-44913.250,-184829.088,-30134.381,-27895.878,-21915.333,-0.191,0.978,0.085,0.214,-1.495,0.946,73.333,278.000,1.000
-25191.164,-23846.855,-54795.203,-45661.719,-184958.457,-29999.867,-27773.237,-21808.095,-0.190,0.978,0.086,0.244,-1.495,1.038,73.333,279.000,1.000
-25064.525,-23740.992,-55561.493,-46407.067,-185078.012,-29861.871,-27647.971,-21697.505,-0.190,0.979,0.084,0.153,-1.312,0.946,73.333,280.000,1.000
-24937.536,-23633.605,-56323.255,-47148.135,-185188.834,-29721.148,-27520.249,-21584.553,-0.189,0.978,0.085,0.122,-1.312,1.068,73.333,281.000,1.000
-24811.292,-23525.618,-57080.365,-47883.677,-185292.014,-29580.368,-27391.924,-21472.249,-0.190,0.978,0.088,0.153,-1.282,1.099,73.333,282.000,1.000
-24686.322,-23418.162,-57832.927,-48614.197,-185387.962,-29441.985,-27265.522,-21363.327,-0.190,0.976,0.086,0.214,-1.099,1.160,73.333,283.000,1.000
-24562.943,-23312.600,-58581.324,-49341.363,-185476.957,-29307.009,-27142.825,-21258.532,-0.193,0.978,0.085,0.122,-0.977,1.160,73.333,284.000,1.000
-24441.213,-23209.605,-59325.812,-50065.858,-185559.524,-29174.936,-27023.682,-21156.405,-0.194,0.979,0.085,0.061,-0.916,1.099,73.333,285.000,1.000
-24320.400,-23108.236,-60066.172,-50786.546,-185635.796,-29044.217,-26906.007,-21054.344,-0.194,0.979,0.086,-0.031,-0.854,1.251,73.333,286.000,1.000
-24199.206,-23006.650,-60801.922,-51502.004,-185705.195,-28912.850,-26787.340,-20950.479,-0.194,0.977,0.089,0.031,-0.793,1.343,73.333,287.000,1.000
-24076.758,-22903.742,-61532.807,-52212.218,-185766.903,-28778.896,-26666.425,-20844.765,-0.193,0.976,0.088,0.122,-0.763,1.343,73.333,288.000,1.000
-23953.321,-22799.773,-62258.945,-52918.279,-185820.533,-28641.291,-26543.424,-20738.452,-0.194,0.977,0.087,0.061,-0.732,1.373,73.333,289.000,1.000
-23829.955,-22695.544,-62980.519,-53620.735,-185866.088,-28500.739,-26419.131,-20632.570,-0.196,0.978,0.090,0.122,-0.702,1.404,73.333,290.000,1.000
-23707.687,-22591.536,-63697.513,-54318.943,-185903.530,-28359.791,-26294.523,-20527.109,-0.196,0.977,0.088,0.092,-0.671,1.312,73.333,291.000,1.000
-23587.132,-22488.072,-64409.919,-55012.204,-185933.052,-28221.524,-26170.786,-20421.651,-0.195,0.976,0.087,0.000,-0.732,1.312,73.333,292.000,1.000
-23468.589,-22385.810,-65118.101,-55701.029,-185955.599,-28087.556,-26048.893,-20316.290,-0.193,0.978,0.086,0.000,-0.641,1.343,73.333,293.000,1.000
-23352.079,-22285.601,-65822.720,-56386.784,-185972.759,-27957.360,-25929.070,-20211.865,-0.193,0.977,0.083,0.031,-0.671,1.343,73.333,294.000,1.000
-23237.152,-22187.638,-66524.185,-57070.167,-185985.755,-27829.011,-25810.619,-20109.196,-0.195,0.978,0.084,0.031,-0.702,1.343,73.333,295.000,1.000
-23122.854,-22090.992,-67222.235,-57750.441,-185994.448,-27700.340,-25692.285,-20008.290,-0.195,0.977,0.087,-0.031,-0.671,1.251,73.333,296.000,1.000
-23008.017,-21994.168,-67916.079,-58426.249,-185997.427,-27569.885,-25573.086,-19908.384,-0.194,0.977,0.088,-0.061,-0.671,1.221,73.333,297.000,1.000
-22891.681,-21896.026,-68604.943,-59096.873,-185992.754,-27437.164,-25452.705,-19808.390,-0.193,0.978,0.086,-0.183,-0.610,1.160,73.333,298.000,1.000
-22773.593,-21796.402,-69288.524,-59762.560,-185978.996,-27302.593,-25331.382,-19707.637,-0.195,0.978,0.087,-0.244,-0.580,1.221,73.333,299.000,1.000
-22654.349,-21696.062,-69967.037,-60423.824,-185955.964,-27167.491,-25209.699,-19606.441,-0.195,0.978,0.086,-0.275,-0.580,1.312,73.333,300.000,1.000
-22534.886,-21596.011,-70640.935,-61080.856,-185924.580,-27033.850,-25088.433,-19505.780,-0.195,0.978,0.087,-0.244,-0.580,1.282,73.333,301.000,1.000
-22415.842,-21496.717,-71310.669,-61733.705,-185886.157,-26903.372,-24968.313,-19406.347,-0.194,0.977,0.086,-0.244,-0.549,1.221,73.333,302.000,1.000
-22297.468,-21397.960,-71976.580,-62382.673,-185841.596,-26776.116,-24849.534,-19307.922,-0.196,0.977,0.085,-0.336,-0.702,1.160,73.333,303.000,1.000
-22179.975,-21299.320,-72638.885,-63028.258,-185791.341,-26650.291,-24731.659,-19209.648,-0.196,0.977,0.087,-0.275,-0.610,1.007,73.333,304.000,1.000
-22063.462,-21200.485,-73297.585,-63670.644,-185735.633,-26523.443,-24613.890,-19110.399,-0.194,0.977,0.089,-0.275,-0.580,1.068,73.333,305.000,1.000
-21947.700,-21101.321,-73952.440,-64309.470,-185674.555,-26394.103,-24495.567,-19009.307,-0.195,0.977,0.090,-0.336,-0.580,1.038,73.333,306.000,1.000
-21832.338,-21002.037,-74603.171,-64944.239,-185608.273,-26262.638,-24376.730,-18906.651,-0.196,0.977,0.086,-0.397,-0.580,1.190,73.333,307.000,1.000
-21717.072,-20902.948,-75249.596,-65574.750,-185536.879,-26130.307,-24257.772,-18803.687,-0.194,0.976,0.083,-0.305,-0.671,1.099,73.333,308.000,1.000
-21601.725,-20804.186,-75891.618,-66201.097,-185460.134,-25998.105,-24138.947,-18701.697,-0.195,0.976,0.085,-0.183,-0.702,1.007,73.333,309.000,1.000
-21486.496,-20705.917,-76529.288,-66823.503,-185377.679,-25866.886,-24020.665,-18601.525,-0.196,0.976,0.086,-0.214,-0.702,1.068,73.333,310.000,1.000
-21371.965,-20608.487,-77162.825,-67442.151,-185289.232,-25737.590,-23903.592,-18503.509,-0.197,0.975,0.086,-0.214,-0.763,1.099,73.333,311.000,1.000
-21258.506,-20512.012,-77792.449,-68057.063,-185194.564,-25610.507,-23787.933,-18407.537,-0.194,0.976,0.086,-0.183,-0.702,1.160,73.333,312.000,1.000
-21145.646,-20415.930,-78418.184,-68668.106,-185093.436,-25484.549,-23672.895,-18313.168,-0.196,0.973,0.086,-0.061,-0.671,1.129,73.333,313.000,1.000
-21032.264,-20319.314,-79039.868,-69275.132,-184985.831,-25358.024,-23557.325,-18219.831,-0.196,0.977,0.086,-0.031,-0.824,1.068,73.333,314.000,1.000
-20917.402,-20221.601,-79657.329,-69878.116,-184872.124,-25229.995,-23440.602,-18126.761,-0.197,0.975,0.084,-0.031,-0.854,1.160,73.333,315.000,1.000
-20800.751,-20122.781,-80270.493,-70477.099,-184752.744,-25100.449,-23322.678,-18032.920,-0.196,0.976,0.085,0.061,-0.916,1.099,73.333,316.000,1.000
-20682.474,-20022.925,-80879.286,-71071.997,-184627.745,-24969.664,-23203.726,-17937.408,-0.196,0.973,0.087,0.122,-0.885,1.129,73.333,317.000,1.000
-20562.995,-19922.069,-81483.627,-71662.629,-184496.775,-24838.174,-23084.096,-17840.009,-0.196,0.975,0.086,0.153,-0.946,1.129,73.333,318.000,1.000
-20443.151,-19820.818,-82083.628,-72249.056,-184359.846,-24707.321,-22964.693,-17741.538,-0.195,0.975,0.085,0.275,-1.007,1.190,73.333,319.000,1.000
-20324.012,-19720.250,-82679.643,-72831.713,-184217.690,-24578.581,-22846.566,-17643.270,-0.196,0.976,0.089,0.153,-1.068,0.977,73.333,320.000,1.000
-20206.192,-19620.843,-83271.964,-73411.017,-184070.858,-24451.936,-22729.700,-17545.804,-0.197,0.977,0.086,0.275,-1.099,0.885,73.333,321.000,1.000
-20089.607,-19522.168,-83860.568,-73986.948,-183919.036,-24325.915,-22613.059,-17448.840,-0.196,0.978,0.089,0.275,-1.251,0.916,73.333,322.000,1.000
-19973.894,-19423.717,-84445.205,-74559.096,-183761.413,-24199.323,-22495.948,-17351.824,-0.197,0.978,0.088,0.214,-1.160,0.824,73.333,323.000,1.000
-19858.838,-19325.511,-85025.610,-75127.061,-183597.494,-24072.210,-22378.687,-17254.469,-0.196,0.978,0.090,0.244,-1.282,0.885,73.333,324.000,1.000
-19744.316,-19227.751,-85601.636,-75690.743,-183427.407,-23945.118,-22261.771,-17156.563,-0.197,0.979,0.088,0.183,-1.251,0.885,73.333,325.000,1.000
-19630.246,-19130.446,-86173.404,-76250.421,-183251.928,-23818.206,-22145.191,-17057.764,-0.195,0.980,0.088,0.214,-1.312,0.854,73.333,326.000,1.000
-19516.753,-19033.601,-86741.320,-76806.556,-183072.360,-23691.390,-22028.864,-16957.883,-0.196,0.979,0.087,0.122,-1.343,0.824,73.333,327.000,1.000
-19404.039,-18937.257,-87305.760,-77359.393,-182889.573,-23564.597,-21912.838,-16856.950,-0.195,0.981,0.088,0.061,-1.373,0.946,73.333,328.000,1.000
-19292.019,-18841.292,-87866.784,-77908.844,-182703.355,-23437.793,-21797.087,-16755.277,-0.194,0.979,0.085,0.122,-1.343,0.946,73.333,329.000,1.000
-19180.281,-18745.536,-88424.234,-78454.764,-182512.875,-23311.138,-21681.599,-16653.719,-0.192,0.978,0.088,0.000,-1.343,0.854,73.333,330.000,1.000
-19068.485,-18650.078,-88977.921,-78997.120,-182317.434,-23185.152,-21566.549,-16553.618,-0.193,0.979,0.087,0.061,-1.373,0.824,73.333,331.000,1.000
-18956.522,-18554.946,-89527.665,-79535.847,-182116.766,-23060.204,-21451.811,-16456.012,-0.195,0.979,0.085,0.092,-1.343,0.824,73.333,332.000,1.000
-18844.271,-18459.438,-90073.239,-80070.674,-181910.698,-22935.703,-21336.361,-16361.027,-0.196,0.977,0.086,0.122,-1.373,0.824,73.333,333.000,1.000
-18731.722,-18362.563,-90614.434,-80601.282,-181699.054,-22810.563,-21219.145,-16269.084,-0.196,0.975,0.087,0.000,-1.373,0.793,73.333,334.000,1.000
-18619.240,-18264.045,-91151.198,-81127.634,-181481.850,-22684.221,-21100.276,-16182.125,-0.194,0.975,0.085,0.061,-1.373,0.854,73.333,335.000,1.000
-18507.421,-18164.561,-91683.757,-81650.093,-181259.363,-22556.786,-20980.844,-16102.057,-0.195,0.976,0.085,0.153,-1.373,0.854,73.333,336.000,1.000
-18396.784,-18065.424,-92212.614,-82169.213,-181032.373,-22428.957,-20862.176,-16027.491,-0.195,0.977,0.086,0.153,-1.282,0.854,73.333,337.000,1.000
-18287.607,-17968.001,-92738.346,-82685.412,-180802.131,-22301.802,-20745.283,-15952.751,-0.195,0.976,0.086,0.214,-1.221,0.824,73.333,338.000,1.000
-18179.929,-17873.146,-93261.306,-83198.831,-180569.897,-22176.305,-20630.769,-15871.125,-0.196,0.977,0.087,0.183,-1.282,0.824,73.333,339.000,1.000
-18073.765,-17781.096,-93781.495,-83709.444,-180336.382,-22053.202,-20519.098,-15779.128,-0.196,0.978,0.086,0.214,-1.373,0.824,73.333,340.000,1.000
-17969.321,-17691.774,-94298.613,-84217.131,-180101.368,-21932.923,-20410.541,-15678.149,-0.195,0.977,0.087,0.214,-1.343,0.702,73.333,341.000,1.000
-17866.758,-17604.763,-94812.220,-84721.623,-179863.826,-21815.182,-20304.701,-15573.181,-0.197,0.977,0.086,0.153,-1.373,0.702,73.333,342.000,1.000
-17765.630,-17518.996,-95321.950,-85222.535,-179622.310,-21698.812,-20200.261,-15469.827,-0.198,0.976,0.085,0.244,-1.221,0.702,73.333,343.000,1.000
-17664.817,-17433.111,-95827.648,-85719.587,-179375.606,-21582.514,-20095.515,-15371.521,-0.198,0.976,0.083,0.366,-1.251,0.732,73.333,344.000,1.000
-17562.952,-17346.091,-96329.293,-86212.736,-179123.103,-21465.500,-19989.039,-15278.244,-0.194,0.975,0.086,0.336,-1.251,0.793,73.333,345.000,1.000
-17458.956,-17257.361,-96826.863,-86702.064,-178864.592,-21347.385,-19880.014,-15187.341,-0.196,0.975,0.085,0.305,-1.251,0.732,73.333,346.000,1.000
-17352.449,-17166.633,-97320.373,-87187.623,-178600.139,-21228.065,-19768.465,-15095.836,-0.195,0.973,0.087,0.397,-1.312,0.671,73.333,347.000,1.000
-17243.954,-17073.970,-97809.942,-87669.418,-178330.031,-21107.714,-19655.290,-15002.183,-0.196,0.976,0.084,0.458,-1.282,0.732,73.333,348.000,1.000
-17134.825,-16980.081,-98295.767,-88147.503,-178054.904,-20986.811,-19542.041,-14906.424,-0.196,0.975,0.085,0.458,-1.373,0.732,73.333,349.000,1.000
-17026.624,-16886.103,-98778.051,-88622.096,-177775.796,-20865.817,-19430.133,-14809.248,-0.196,0.976,0.085,0.488,-1.221,0.793,73.333,350.000,1.000
-16920.151,-16792.834,-99256.924,-89093.463,-177493.741,-20744.638,-19319.860,-14711.284,-0.197,0.977,0.086,0.519,-1.251,0.671,73.333,351.000,1.000
-16815.152,-16700.542,-99732.340,-89561.645,-177209.326,-20622.906,-19210.550,-14613.410,-0.196,0.977,0.085,0.458,-1.221,0.732,73.333,352.000,1.000
-16711.111,-16609.521,-100204.141,-90026.415,-176922.590,-20500.905,-19101.602,-14517.056,-0.198,0.979,0.087,0.458,-1.221,0.549,73.333,353.000,1.000
-16608.131,-16520.391,-100672.295,-90487.644,-176633.444,-20379.890,-18993.260,-14423.743,-0.199,0.979,0.084,0.458,-1.221,0.458,73.333,354.000,1.000
-16506.728,-16433.651,-101136.913,-90945.454,-176341.737,-20261.223,-18886.276,-14333.959,-0.196,0.981,0.083,0.366,-1.251,0.519,73.333,355.000,1.000
-16407.008,-16349.054,-101598.013,-91399.977,-176046.891,-20145.359,-18780.924,-14246.498,-0.197,0.979,0.083,0.397,-1.251,0.641,73.333,356.000,1.000
-16308.329,-16265.426,-102055.455,-91851.161,-175748.145,-20031.592,-18676.557,-14159.230,-0.195,0.981,0.084,0.244,-1.221,0.793,73.333,357.000,1.000
-16209.542,-16180.933,-102509.067,-92298.788,-175444.800,-19918.212,-18571.763,-14070.270,-0.193,0.979,0.085,0.214,-1.129,0.946,73.333,358.000,1.000
-16109.492,-16093.761,-102958.738,-92742.630,-175136.179,-19803.045,-18464.938,-13978.548,-0.191,0.980,0.082,0.244,-1.160,1.129,73.333,359.000,1.000
-16007.544,-16003.006,-103404.465,-93182.620,-174821.842,-19684.556,-18355.250,-13883.942,-0.190,0.978,0.081,0.214,-1.099,1.190,73.333,360.000,1.000
-15904.064,-15909.447,-103846.438,-93618.972,-174502.202,-19563.042,-18243.574,-13787.479,-0.192,0.980,0.084,0.183,-0.916,1.282,73.333,361.000,1.000
-15800.389,-15815.347,-104285.040,-94052.087,-174178.905,-19440.727,-18132.353,-13691.232,-0.192,0.979,0.082,0.122,-0.854,1.373,73.333,362.000,1.000
-15697.976,-15723.081,-104720.619,-94482.271,-173853.925,-19320.386,-18024.077,-13597.436,-0.194,0.977,0.084,0.214,-0.916,1.495,73.333,363.000,1.000
-15597.498,-15633.934,-105153.234,-94909.549,-173528.208,-19203.784,-17919.918,-13507.453,-0.194,0.978,0.084,0.214,-0.854,1.617,73.333,364.000,1.000
-15498.467,-15547.596,-105582.637,-95333.725,-173201.043,-19090.475,-17819.030,-13420.908,-0.194,0.977,0.083,0.366,-0.916,1.617,73.333,365.000,1.000
-15399.639,-15462.434,-106008.529,-95754.603,-172870.629,-18977.834,-17718.816,-13335.783,-0.195,0.977,0.083,0.244,-0.763,1.556,73.333,366.000,1.000
-15300.075,-15376.810,-106430.802,-96172.139,-172535.603,-18863.249,-17616.854,-13250.071,-0.197,0.977,0.085,0.397,-0.793,1.556,73.333,367.000,1.000
-15199.825,-15290.346,-106849.547,-96586.403,-172195.947,-18746.469,-17512.766,-13163.221,-0.195,0.974,0.086,0.427,-0.732,1.648,73.333,368.000,1.000
-15099.467,-15203.713,-107264.900,-96997.461,-171852.655,-18629.391,-17407.971,-13075.895,-0.196,0.973,0.087,0.519,-0.671,1.648,73.333,369.000,1.000
-14999.177,-15117.256,-107676.843,-97405.255,-171506.648,-18513.652,-17303.793,-12988.582,-0.196,0.974,0.085,0.580,-0.671,1.648,73.333,370.000,1.000
-14898.686,-15030.414,-108085.173,-97809.590,-171157.964,-18399.055,-17200.297,-12901.022,-0.198,0.974,0.083,0.763,-0.671,1.434,73.333,371.000,1.000
-14797.896,-14942.514,-108489.673,-98210.274,-170806.028,-18284.279,-17096.794,-12813.051,-0.198,0.974,0.084,0.702,-0.702,1.312,73.333,372.000,1.000
-14697.018,-14853.525,-108890.306,-98607.237,-170450.377,-18168.341,-16992.623,-12725.132,-0.198,0.974,0.083,0.793,-0.702,1.160,73.333,373.000,1.000
-14596.386,-14764.181,-109287.287,-99000.636,-170091.291,-18051.682,-16887.773,-12638.028,-0.199,0.977,0.088,0.671,-0.763,0.977,73.333,374.000,1.000
-14496.384,-14675.674,-109680.980,-99390.842,-169729.695,-17936.086,-16783.057,-12552.226,-0.199,0.978,0.089,0.610,-0.793,0.946,73.333,375.000,1.000
-14397.472,-14589.003,-110071.669,-99778.228,-169366.292,-17823.214,-16679.480,-12467.624,-0.198,0.980,0.087,0.519,-0.793,0.793,73.333,376.000,1.000
-14299.987,-14504.330,-110459.395,-100162.919,-169001.022,-17713.126,-16577.375,-12383.646,-0.200,0.979,0.087,0.458,-0.824,0.702,73.333,377.000,1.000
-14203.712,-14420.713,-110843.943,-100544.694,-168633.170,-17603.996,-16475.872,-12299.367,-0.201,0.980,0.085,0.366,-1.007,0.702,73.333,378.000,1.000
-14107.860,-14336.691,-111224.984,-100923.154,-168262.015,-17493.354,-16373.444,-12214.026,-0.201,0.982,0.083,0.305,-1.129,0.519,73.333,379.000,1.000
-14011.741,-14251.360,-111602.341,-101298.055,-167887.409,-17379.907,-16269.297,-12127.833,-0.198,0.984,0.083,0.305,-1.160,0.458,73.333,380.000,1.000
-13915.423,-14165.059,-111976.139,-101669.530,-167509.749,-17264.465,-16164.191,-12042.053,-0.199,0.985,0.086,0.183,-1.190,0.427,73.333,381.000,1.000
-13819.549,-14078.971,-112346.635,-102037.884,-167129.525,-17149.039,-16059.669,-11957.773,-0.197,0.986,0.085,0.061,-1.251,0.549,73.333,382.000,1.000
-13724.487,-13993.959,-112713.938,-102403.241,-166746.692,-17034.781,-15956.284,-11874.552,-0.197,0.987,0.082,-0.092,-1.129,0.519,73.333,383.000,1.000
-13630.033,-13910.066,-113078.054,-102765.561,-166360.893,-16921.370,-15853.397,-11791.095,-0.195,0.984,0.087,-0.153,-1.099,0.671,73.333,384.000,1.000
-13535.812,-13827.008,-113439.085,-103124.882,-165972.242,-16808.344,-15750.700,-11706.943,-0.195,0.981,0.088,-0.336,-1.129,0.732,73.333,385.000,1.000
-13441.669,-13744.754,-113797.189,-103481.359,-165581.284,-16696.181,-15648.924,-11622.911,-0.193,0.981,0.085,-0.397,-1.007,0.885,73.333,386.000,1.000
-13347.631,-13663.562,-114152.391,-103835.066,-165188.402,-16585.943,-15549.093,-11540.411,-0.195,0.978,0.085,-0.397,-0.977,1.038,73.333,387.000,1.000
-13253.504,-13583.198,-114504.475,-104185.829,-164793.294,-16477.823,-15451.089,-11460.164,-0.194,0.975,0.088,-0.397,-1.007,1.221,73.333,388.000,1.000
-13158.710,-13502.336,-114853.069,-104533.288,-164395.026,-16370.106,-15352.940,-11381.200,-0.195,0.976,0.086,-0.336,-0.977,1.312,73.333,389.000,1.000
-13062.729,-13419.425,-115197.894,-104877.163,-163992.729,-16260.235,-15252.131,-11301.411,-0.196,0.972,0.085,-0.336,-0.885,1.465,73.333,390.000,1.000
-12965.772,-13334.352,-115539.017,-105217.523,-163586.538,-16147.377,-15148.113,-11219.507,-0.197,0.970,0.085,-0.244,-0.793,1.526,73.333,391.000,1.000
-12868.845,-13248.750,-115876.854,-105554.768,-163177.814,-16033.564,-15043.126,-11136.132,-0.197,0.969,0.087,-0.183,-0.671,1.495,73.333,392.000,1.000
-12772.969,-13164.440,-116211.826,-105889.292,-162767.890,-15921.914,-14940.222,-11052.880,-0.197,0.967,0.087,-0.153,-0.732,1.556,73.333,393.000,1.000
-12678.338,-13081.861,-116544.060,-106221.200,-162356.898,-15814.006,-14840.842,-10970.788,-0.197,0.968,0.087,-0.122,-0.763,1.648,73.333,394.000,1.000
-12584.170,-12999.864,-116873.398,-106550.329,-161943.903,-15708.680,-14743.798,-10889.621,-0.196,0.969,0.090,-0.122,-0.793,1.587,73.333,395.000,1.000
-12489.291,-12916.724,-117199.548,-106876.404,-161527.811,-15603.022,-14646.126,-10808.161,-0.196,0.969,0.089,-0.031,-0.732,1.587,73.333,396.000,1.000
-12393.004,-12831.537,-117522.224,-107199.160,-161108.334,-15494.770,-14545.473,-10725.258,-0.196,0.970,0.085,0.031,-0.702,1.495,73.333,397.000,1.000
-12295.738,-12745.059,-117841.299,-107518.502,-160686.272,-15384.027,-14442.015,-10640.722,-0.194,0.970,0.085,0.031,-0.732,1.465,73.333,398.000,1.000
-12199.081,-12659.498,-118156.953,-107834.634,-160263.143,-15273.182,-14338.369,-10555.604,-0.196,0.970,0.087,0.061,-0.580,1.373,73.333,399.000,1.000
-12104.749,-12576.918,-118469.527,-108147.899,-159840.159,-15164.978,-14237.338,-10471.350,-0.196,0.971,0.088,0.061,-0.610,1.434,73.333,400.000,1.000
-12013.315,-12497.444,-118779.187,-108458.450,-159417.200,-15060.121,-14139.486,-10388.567,-0.195,0.973,0.090,0.153,-0.549,1.373,73.333,401.000,1.000
-11924.115,-12419.341,-119085.878,-108766.185,-158993.069,-14956.983,-14043.259,-10307.104,-0.195,0.975,0.090,0.061,-0.427,1.251,73.333,402.000,1.000
-11836.105,-12340.714,-119389.495,-109070.939,-158566.346,-14853.480,-13946.862,-10226.851,-0.195,0.974,0.089,0.092,-0.488,1.434,73.333,403.000,1.000
-11748.533,-12260.919,-119689.956,-109372.579,-158136.009,-14748.916,-13849.641,-10148.000,-0.197,0.975,0.090,0.153,-0.336,1.404,73.333,404.000,1.000
-11660.955,-12180.538,-119987.131,-109670.967,-157701.717,-14644.028,-13752.041,-10070.521,-0.197,0.976,0.089,0.122,-0.305,1.465,73.333,405.000,1.000
-11573.019,-12100.374,-120280.876,-109966.009,-157263.796,-14539.762,-13654.764,-9993.746,-0.194,0.977,0.089,0.000,-0.275,1.495,73.333,406.000,1.000
-11484.496,-12020.689,-120571.253,-110257.850,-156823.121,-14436.305,-13558.168,-9916.766,-0.196,0.977,0.087,-0.061,-0.275,1.465,73.333,407.000,1.000
-11395.431,-11941.157,-120858.571,-110546.855,-156380.592,-14332.879,-13462.077,-9839.024,-0.195,0.976,0.089,-0.061,-0.305,1.495,73.333,408.000,1.000
-11306.157,-11861.460,-121143.183,-110833.392,-155936.806,-14228.556,-13366.169,-9760.706,-0.195,0.978,0.088,-0.031,-0.275,1.587,73.333,409.000,1.000
-11217.161,-11781.889,-121425.313,-111117.651,-155492.189,-14123.400,-13270.500,-9682.593,-0.195,0.979,0.088,-0.153,-0.275,1.556,73.333,410.000,1.000
-11128.950,-11703.224,-121705.020,-111399.643,-155047.101,-14018.529,-13175.466,-9605.444,-0.194,0.978,0.087,-0.153,-0.305,1.526,73.333,411.000,1.000
-11041.893,-11626.012,-121982.234,-111679.242,-154601.704,-13914.999,-13081.288,-9529.444,-0.196,0.978,0.086,-0.244,-0.366,1.526,73.333,412.000,1.000
-10955.904,-11549.942,-122256.709,-111956.178,-154155.565,-13812.795,-12987.541,-9453.973,-0.199,0.980,0.088,-0.336,-0.305,1.617,73.333,413.000,1.000
-10870.318,-11474.036,-122528.064,-112230.089,-153707.702,-13711.052,-12893.487,-9378.103,-0.198,0.979,0.091,-0.336,-0.397,1.587,73.333,414.000,1.000
-10784.232,-11397.307,-122795.982,-112500.695,-153257.161,-13608.777,-12798.563,-9301.163,-0.198,0.979,0.089,-0.275,-0.458,1.709,73.333,415.000,1.000
-10697.039,-11319.206,-123060.385,-112767.935,-152803.482,-13505.197,-12702.430,-9222.852,-0.198,0.979,0.090,-0.366,-0.488,1.678,73.333,416.000,1.000
-10608.736,-11239.929,-123321.414,-113031.950,-152346.952,-13400.337,-12605.391,-9143.356,-0.199,0.979,0.088,-0.336,-0.641,1.617,73.333,417.000,1.000
-10519.952,-11160.537,-123579.271,-113292.952,-151888.398,-13295.511,-12508.787,-9063.287,-0.200,0.977,0.090,-0.366,-0.641,1.617,73.333,418.000,1.000
-10431.709,-11082.383,-123834.169,-113551.166,-151428.719,-13192.423,-12414.184,-8983.329,-0.201,0.976,0.086,-0.397,-0.641,1.556,73.333,419.000,1.000
-10344.692,-11005.937,-124086.306,-113806.783,-150968.229,-13091.459,-12321.962,-8903.742,-0.200,0.976,0.089,-0.397,-0.610,1.556,73.333,420.000,1.000
-10258.796,-10930.433,-124335.794,-114059.887,-150506.400,-12991.558,-12231.269,-8824.477,-0.199,0.977,0.088,-0.305,-0.763,1.526,73.333,421.000,1.000
-10173.337,-10854.630,-124582.596,-114310.424,-150042.489,-12891.559,-12141.194,-8745.895,-0.200,0.975,0.087,-0.275,-0.946,1.617,73.333,422.000,1.000
-10087.437,-10777.551,-124826.509,-114558.203,-149576.022,-12790.740,-12051.153,-8668.750,-0.200,0.976,0.086,-0.153,-0.977,1.648,73.333,423.000,1.000
-10000.609,-10699.001,-125067.311,-114803.002,-149107.019,-12688.884,-11960.792,-8593.616,-0.200,0.978,0.088,-0.092,-1.007,1.617,73.333,424.000,1.000
-9913.175,-10619.739,-125304.929,-115044.734,-148635.939,-12586.569,-11870.127,-8520.474,-0.199,0.975,0.090,-0.061,-1.068,1.648,73.333,425.000,1.000
-9825.910,-10540.930,-125539.434,-115283.477,-148163.200,-12485.014,-11779.557,-8448.773,-0.196,0.978,0.090,0.000,-1.190,1.587,73.333,426.000,1.000
-9739.340,-10463.374,-125770.985,-115519.432,-147689.066,-12385.321,-11689.612,-8377.892,-0.198,0.978,0.086,0.092,-1.190,1.678,73.333,427.000,1.000
-9653.480,-10387.113,-125999.853,-115752.892,-147213.892,-12287.630,-11600.482,-8307.311,-0.198,0.978,0.087,0.061,-1.190,1.678,73.333,428.000,1.000
-9568.024,-10311.603,-126226.311,-115984.105,-146738.219,-12191.043,-11511.897,-8236.653,-0.197,0.978,0.086,0.275,-1.282,1.740,73.333,429.000,1.000
-9482.486,-10235.976,-126450.349,-116213.010,-146262.237,-12094.157,-11423.249,-8165.548,-0.197,0.980,0.089,0.244,-1.282,1.801,73.333,430.000,1.000
-9396.515,-10159.455,-126671.618,-116439.213,-145785.387,-11995.820,-11333.769,-8093.423,-0.197,0.980,0.091,0.275,-1.312,1.831,73.333,431.000,1.000
-9310.465,-10082.204,-126889.729,-116662.314,-145307.036,-11896.262,-11243.235,-8019.875,-0.195,0.981,0.089,0.214,-1.282,1.892,73.333,432.000,1.000
-9225.390,-10005.522,-127104.571,-116882.242,-144827.034,-11797.414,-11152.447,-7945.109,-0.191,0.979,0.087,0.275,-1.190,1.892,73.333,433.000,1.000
-9142.226,-9930.781,-127316.419,-117099.322,-144345.679,-11701.454,-11062.738,-7870.156,-0.189,0.977,0.089,0.397,-1.190,2.045,73.333,434.000,1.000
-9061.012,-9858.271,-127525.699,-117313.989,-143863.343,-11608.855,-10974.975,-7796.507,-0.189,0.975,0.085,0.580,-1.190,2.106,73.333,435.000,1.000
-8980.826,-9787.113,-127732.597,-117526.400,-143379.979,-11517.985,-10888.888,-7724.866,-0.190,0.973,0.084,0.702,-1.129,2.197,73.333,436.000,1.000
-8900.349,-9715.917,-127936.973,-117736.373,-142895.148,-11426.340,-10803.200,-7654.195,-0.189,0.973,0.086,0.824,-1.038,2.075,73.333,437.000,1.000
-8818.597,-9643.474,-128138.542,-117943.632,-142408.355,-11331.970,-10716.360,-7582.307,-0.190,0.975,0.085,0.946,-0.916,1.984,73.333,438.000,1.000
-8735.654,-9569.468,-128337.062,-118147.977,-141919.417,-11234.507,-10627.595,-7507.726,-0.192,0.974,0.086,1.038,-0.916,1.953,73.333,439.000,1.000
-8652.689,-9494.620,-128532.401,-118349.317,-141428.496,-11135.157,-10537.292,-7430.796,-0.193,0.976,0.086,1.068,-0.824,1.801,73.333,440.000,1.000
-8570.920,-9419.983,-128724.571,-118547.665,-140935.823,-11035.668,-10446.411,-7353.202,-0.192,0.974,0.089,1.099,-0.854,1.648,73.333,441.000,1.000
-8490.680,-9346.271,-128913.787,-118743.204,-140441.797,-10937.545,-10355.986,-7277.037,-0.193,0.973,0.085,1.129,-0.793,1.495,73.333,442.000,1.000
-8411.383,-9273.577,-129100.392,-118936.220,-139946.962,-10841.703,-10266.707,-7203.803,-0.195,0.974,0.085,1.129,-0.732,1.343,73.333,443.000,1.000
-8332.093,-9201.424,-129284.607,-119126.899,-139451.635,-10748.190,-10178.569,-7133.676,-0.193,0.974,0.084,1.190,-0.702,1.251,73.333,444.000,1.000
-8252.222,-9129.340,-129466.393,-119315.224,-138955.829,-10656.491,-10091.236,-7065.798,-0.194,0.974,0.084,1.282,-0.793,1.160,73.333,445.000,1.000
-8171.972,-9057.488,-129645.580,-119501.107,-138459.497,-10566.211,-10004.671,-6999.275,-0.193,0.976,0.084,1.373,-0.732,0.946,73.333,446.000,1.000
-8092.013,-8986.284,-129822.051,-119684.501,-137962.595,-10476.820,-9918.761,-6933.393,-0.192,0.975,0.082,1.373,-0.610,0.916,73.333,447.000,1.000
-8012.650,-8915.415,-129995.715,-119865.323,-137464.720,-10386.629,-9832.386,-6866.846,-0.191,0.978,0.086,1.404,-0.580,0.885,73.333,448.000,1.000
-7933.659,-8844.071,-130166.466,-120043.438,-136965.352,-10293.574,-9744.203,-6798.099,-0.190,0.981,0.084,1.343,-0.580,0.854,73.333,449.000,1.000
-7854.758,-8772.067,-130334.301,-120218.784,-136464.508,-10197.413,-9654.449,-6726.933,-0.192,0.981,0.086,1.312,-0.641,0.793,73.333,450.000,1.000
-7775.971,-8700.154,-130499.391,-120391.466,-135962.785,-10100.246,-9565.075,-6654.989,-0.191,0.982,0.087,1.312,-0.488,0.885,73.333,451.000,1.000
-7697.627,-8629.350,-130661.987,-120561.688,-135460.945,-10004.822,-9478.174,-6584.579,-0.190,0.982,0.086,1.099,-0.519,0.977,73.333,452.000,1.000
-7619.965,-8560.086,-130822.218,-120729.570,-134959.274,-9912.558,-9394.437,-6516.875,-0.193,0.982,0.085,1.099,-0.366,0.946,73.333,453.000,1.000
-7542.728,-8491.865,-130980.004,-120895.064,-134457.348,-9822.937,-9312.959,-6451.292,-0.193,0.983,0.083,1.099,-0.397,0.977,73.333,454.000,1.000
-7465.302,-8423.570,-131135.230,-121058.111,-133954.463,-9734.210,-9232.070,-6386.159,-0.194,0.980,0.083,0.977,-0.366,1.129,73.333,455.000,1.000
-7387.295,-8354.238,-131287.950,-121218.812,-133450.166,-9644.582,-9150.305,-6319.760,-0.193,0.982,0.081,0.916,-0.305,1.190,73.333,456.000,1.000
-7308.786,-8283.636,-131438.294,-121377.311,-132944.391,-9553.114,-9066.967,-6251.185,-0.194,0.981,0.084,0.946,-0.305,1.282,73.333,457.000,1.000
-7230.010,-8212.032,-131586.213,-121533.532,-132437.035,-9459.738,-8981.904,-6180.493,-0.194,0.980,0.084,0.977,-0.366,1.251,73.333,458.000,1.000
-7151.205,-8139.841,-131731.473,-121687.211,-131927.924,-9364.998,-8895.346,-6108.674,-0.194,0.977,0.085,0.916,-0.366,1.251,73.333,459.000,1.000
-7072.741,-8067.658,-131873.845,-121838.119,-131417.298,-9269.943,-8808.082,-6037.450,-0.195,0.978,0.085,0.854,-0.427,1.251,73.333,460.000,1.000
-6995.114,-7996.239,-132013.291,-121986.227,-130905.883,-9175.726,-8721.164,-5968.565,-0.196,0.979,0.089,0.824,-0.427,1.282,73.333,461.000,1.000
-6918.728,-7926.263,-132150.055,-122131.761,-130394.522,-9083.109,-8635.395,-5902.988,-0.197,0.978,0.086,0.854,-0.580,1.251,73.333,462.000,1.000
-6843.518,-7857.969,-132284.491,-122275.050,-129883.463,-8992.116,-8551.012,-5840.208,-0.196,0.977,0.087,0.854,-0.610,1.373,73.333,463.000,1.000
-6768.823,-7790.901,-132416.785,-122416.276,-129372.081,-8902.102,-8467.750,-5778.312,-0.194,0.979,0.084,0.793,-0.580,1.343,73.333,464.000,1.000
-6693.880,-7724.132,-132546.893,-122555.430,-128859.464,-8812.237,-8385.194,-5715.126,-0.198,0.977,0.086,0.793,-0.610,1.312,73.333,465.000,1.000
-6618.411,-7656.732,-132674.627,-122692.348,-128345.050,-8721.797,-8302.990,-5649.462,-0.197,0.977,0.084,0.793,-0.580,1.282,73.333,466.000,1.000
-6542.575,-7588.022,-132799.659,-122826.694,-127828.727,-8630.138,-8220.728,-5581.477,-0.196,0.975,0.084,0.854,-0.702,1.282,73.333,467.000,1.000
-6466.649,-7517.794,-132921.657,-122958.110,-127310.609,-8537.085,-8137.976,-5512.171,-0.196,0.977,0.085,0.793,-0.732,1.221,73.333,468.000,1.000
-6391.056,-7446.846,-133040.637,-123086.608,-126791.245,-8443.853,-8054.963,-5443.009,-0.196,0.976,0.082,0.885,-0.885,1.129,73.333,469.000,1.000
-6316.306,-7376.952,-133157.072,-123212.693,-126271.876,-8352.830,-7972.831,-5375.505,-0.195,0.977,0.084,0.885,-0.854,1.160,73.333,470.000,1.000
-6242.552,-7309.751,-133271.552,-123336.993,-125753.941,-8265.737,-7892.681,-5310.437,-0.196,0.973,0.082,0.885,-0.916,1.221,73.333,471.000,1.000
-6169.389,-7245.604,-133384.332,-123459.779,-125238.192,-8182.160,-7814.594,-5247.501,-0.197,0.973,0.084,0.977,-1.007,1.251,73.333,472.000,1.000
-6096.232,-7183.454,-133495.177,-123580.783,-124724.016,-8099.941,-7737.621,-5185.783,-0.198,0.973,0.083,1.038,-1.038,1.190,73.333,473.000,1.000
-6022.821,-7121.605,-133603.577,-123699.418,-124209.794,-8016.900,-7660.726,-5124.614,-0.195,0.972,0.083,1.129,-1.160,1.160,73.333,474.000,1.000
-5949.302,-7058.655,-133709.083,-123815.176,-123693.982,-7932.129,-7583.656,-5063.839,-0.198,0.973,0.082,1.190,-1.282,1.190,73.333,475.000,1.000
-5876.038,-6994.100,-133811.568,-123927.931,-123175.948,-7846.067,-7506.936,-5003.414,-0.196,0.975,0.081,1.312,-1.312,1.129,73.333,476.000,1.000
-5803.296,-6928.269,-133911.270,-124037.976,-122656.213,-7759.656,-7431.029,-4942.912,-0.196,0.977,0.082,1.343,-1.282,1.099,73.333,477.000,1.000
-5730.912,-6861.666,-134008.558,-124145.716,-122135.741,-7673.091,-7355.266,-4881.212,-0.197,0.976,0.083,1.434,-1.312,1.068,73.333,478.000,1.000
-5658.517,-6794.713,-134103.672,-124251.393,-121615.193,-7585.744,-7278.242,-4817.306,-0.196,0.977,0.081,1.434,-1.312,1.068,73.333,479.000,1.000
-5585.994,-6727.933,-134196.650,-124355.035,-121094.712,-7497.461,-7199.408,-4751.515,-0.197,0.976,0.085,1.373,-1.373,1.038,73.333,480.000,1.000
-5513.372,-6661.761,-134287.343,-124456.491,-120573.764,-7409.198,-7119.515,-4685.241,-0.196,0.975,0.085,1.373,-1.434,0.977,73.333,481.000,1.000
-5440.729,-6596.357,-134375.504,-124555.522,-120051.529,-7322.388,-7039.833,-4619.856,-0.192,0.974,0.083,1.465,-1.465,0.854,73.333,482.000,1.000
-5368.550,-6531.862,-134461.028,-124652.027,-119527.848,-7238.093,-6961.511,-4556.147,-0.194,0.975,0.082,1.465,-1.465,0.916,73.333,483.000,1.000
-5297.554,-6468.291,-134544.093,-124746.190,-119003.670,-7156.309,-6885.082,-4494.165,-0.194,0.976,0.082,1.526,-1.404,0.916,73.333,484.000,1.000
-5227.820,-6404.927,-134624.955,-124838.283,-118480.133,-7075.462,-6809.739,-4432.799,-0.193,0.976,0.081,1.404,-1.373,0.854,73.333,485.000,1.000
-5158.554,-6340.510,-134703.685,-124928.376,-117957.384,-6993.144,-6733.545,-4370.053,-0.195,0.977,0.082,1.495,-1.404,0.824,73.333,486.000,1.000
-5088.830,-6274.347,-134780.166,-125016.351,-117434.681,-6907.954,-6654.973,-4304.568,-0.194,0.979,0.084,1.434,-1.495,0.885,73.333,487.000,1.000
-5018.326,-6207.029,-134854.276,-125102.078,-116911.259,-6820.599,-6574.215,-4236.854,-0.194,0.979,0.081,1.495,-1.465,0.885,73.333,488.000,1.000
-4947.493,-6140.128,-134926.009,-125185.541,-116386.930,-6733.461,-6493.199,-4169.193,-0.194,0.979,0.080,1.373,-1.373,0.641,73.333,489.000,1.000
-4876.946,-6074.818,-134995.376,-125266.713,-115861.773,-6648.690,-6413.905,-4103.933,-0.196,0.979,0.083,1.343,-1.312,0.671,73.333,490.000,1.000
-4806.666,-6010.693,-135062.270,-125345.453,-115335.550,-6566.283,-6336.506,-4041.659,-0.194,0.980,0.082,1.343,-1.343,0.702,73.333,491.000,1.000
-4736.146,-5946.433,-135126.616,-125421.700,-114808.155,-6484.598,-6259.885,-3981.429,-0.194,0.981,0.082,1.373,-1.373,0.732,73.333,492.000,1.000
-4665.205,-5881.418,-135188.551,-125495.650,-114280.224,-6402.324,-6183.349,-3922.163,-0.194,0.980,0.081,1.312,-1.282,0.671,73.333,493.000,1.000
-4594.303,-5816.343,-135248.397,-125567.670,-113752.913,-6319.386,-6107.130,-3863.265,-0.195,0.979,0.082,1.251,-1.373,0.763,73.333,494.000,1.000
-4524.223,-5752.544,-135306.470,-125638.092,-113227.109,-6236.515,-6031.656,-3804.383,-0.195,0.979,0.083,1.190,-1.251,0.732,73.333,495.000,1.000
-4455.642,-5690.888,-135362.882,-125707.017,-112702.692,-6154.479,-5956.905,-3745.292,-0.194,0.978,0.082,1.190,-1.343,0.854,73.333,496.000,1.000
-4388.708,-5631.038,-135417.455,-125774.226,-112178.653,-6073.426,-5882.380,-3686.098,-0.194,0.979,0.080,1.160,-1.160,0.824,73.333,497.000,1.000
-4322.788,-5571.558,-135469.794,-125839.257,-111653.672,-5992.607,-5807.323,-3627.031,-0.194,0.978,0.081,1.038,-1.129,1.007,73.333,498.000,1.000
-4256.798,-5510.910,-135519.466,-125901.621,-111126.718,-5911.132,-5731.325,-3568.208,-0.194,0.977,0.082,1.068,-1.129,0.946,73.333,499.000,1.000
-4189.809,-5448.296,-135566.187,-125961.051,-110597.384,-5828.893,-5654.768,-3509.609,-0.194,0.977,0.083,0.977,-1.038,1.068,73.333,500.000,1.000
-4121.455,-5383.763,-135609.936,-126017.606,-110065.818,-5746.377,-5578.414,-3451.131,-0.193,0.975,0.081,1.038,-1.007,0.946,73.333,501.000,1.000
-4052.124,-5318.052,-135650.957,-126071.606,-109532.753,-5664.131,-5502.977,-3392.762,-0.195,0.975,0.081,1.007,-1.099,1.007,73.333,502.000,1.000
-3982.717,-5252.264,-135689.689,-126123.493,-108999.310,-5582.575,-5428.937,-3334.569,-0.195,0.977,0.083,1.099,-1.038,0.946,73.333,503.000,1.000
-3914.025,-5187.261,-135726.616,-126173.706,-108466.543,-5501.848,-5356.269,-3276.626,-0.194,0.975,0.080,1.007,-1.068,0.977,73.333,504.000,1.000
-3846.313,-5123.241,-135762.068,-126222.543,-107935.136,-5421.608,-5284.202,-3218.856,-0.193,0.978,0.082,1.007,-1.068,1.099,73.333,505.000,1.000
-3779.502,-5060.070,-135796.099,-126270.058,-107405.354,-5341.417,-5211.648,-3161.055,-0.193,0.978,0.080,1.068,-1.007,1.221,73.333,506.000,1.000
-3713.508,-4997.900,-135828.507,-126316.054,-106877.048,-5261.624,-5138.292,-3103.321,-0.192,0.978,0.082,1.038,-0.916,1.160,73.333,507.000,1.000
-3648.253,-4937.059,-135858.950,-126360.159,-106349.483,-5183.371,-5064.863,-3045.974,-0.192,0.976,0.082,0.977,-0.977,1.190,73.333,508.000,1.000
-3583.472,-4877.386,-135887.093,-126401.996,-105821.576,-5107.262,-4992.112,-2988.956,-0.194,0.979,0.081,1.007,-0.854,1.160,73.333,509.000,1.000
-3518.659,-4817.938,-135912.680,-126441.321,-105292.386,-5032.111,-4919.884,-2931.633,-0.194,0.978,0.083,0.946,-0.671,1.251,73.333,510.000,1.000
-3453.422,-4757.708,-135935.580,-126478.081,-104761.442,-4955.727,-4847.652,-2873.484,-0.193,0.978,0.082,0.916,-0.824,1.129,73.333,511.000,1.000
-3387.885,-4696.690,-135955.854,-126512.423,-104229.128,-4877.255,-4775.779,-2814.870,-0.196,0.976,0.082,1.007,-0.732,1.190,73.333,512.000,1.000
-3322.479,-4635.858,-135973.748,-126544.591,-103696.446,-4797.986,-4705.309,-2756.583,-0.194,0.976,0.084,0.885,-0.763,1.312,73.333,513.000,1.000
-3257.467,-4576.133,-135989.576,-126574.830,-103164.418,-4719.828,-4636.643,-2699.005,-0.193,0.978,0.086,0.885,-0.885,1.343,73.333,514.000,1.000
-3192.755,-4517.579,-136003.601,-126603.348,-102633.673,-4643.567,-4568.913,-2641.947,-0.194,0.977,0.080,0.916,-0.763,1.373,73.333,515.000,1.000
-3127.962,-4459.362,-136015.929,-126630.255,-102104.117,-4568.379,-4500.481,-2584.904,-0.193,0.976,0.083,0.854,-0.824,1.373,73.333,516.000,1.000
-3062.655,-4400.306,-136026.497,-126655.491,-101575.036,-4492.744,-4430.152,-2527.489,-0.194,0.979,0.081,0.824,-0.763,1.312,73.333,517.000,1.000
-2996.699,-4339.682,-136035.115,-126678.813,-101045.591,-4415.843,-4358.048,-2469.747,-0.194,0.980,0.079,0.854,-0.793,1.312,73.333,518.000,1.000
-2930.491,-4277.788,-136041.514,-126699.904,-100515.423,-4338.138,-4285.422,-2412.302,-0.194,0.980,0.080,0.763,-0.824,1.343,73.333,519.000,1.000
-2864.884,-4215.922,-136045.503,-126718.647,-99984.882,-4260.765,-4213.701,-2356.093,-0.195,0.980,0.080,0.732,-0.641,1.343,73.333,520.000,1.000
-2800.823,-4155.659,-136047.186,-126735.323,-99454.637,-4184.658,-4143.697,-2301.686,-0.192,0.979,0.084,0.641,-0.641,1.465,73.333,521.000,1.000
-2738.801,-4097.808,-136046.910,-126750.369,-98925.145,-4110.152,-4075.469,-2248.861,-0.193,0.978,0.082,0.580,-0.702,1.404,73.333,522.000,1.000
-2678.478,-4041.803,-136044.913,-126763.879,-98396.217,-4036.922,-4008.450,-2196.794,-0.193,0.979,0.082,0.549,-0.702,1.434,73.333,523.000,1.000
-2618.923,-3986.278,-136041.141,-126775.576,-97867.216,-3964.363,-3941.815,-2144.650,-0.192,0.977,0.082,0.549,-0.641,1.434,73.333,524.000,1.000
-2559.171,-3930.182,-136035.418,-126785.299,-97337.767,-3892.029,-3874.938,-2091.884,-0.193,0.978,0.080,0.549,-0.702,1.373,73.333,525.000,1.000
-2498.516,-3873.163,-136027.608,-126793.203,-96807.905,-3819.426,-3807.426,-2037.985,-0.193,0.977,0.078,0.427,-0.610,1.434,73.333,526.000,1.000
-2436.599,-3815.175,-136017.605,-126799.386,-96277.736,-3745.695,-3738.964,-1982.437,-0.195,0.977,0.079,0.549,-0.641,1.312,73.333,527.000,1.000
-2373.467,-3756.066,-136005.321,-126803.559,-95747.142,-3669.803,-3669.311,-1925.080,-0.195,0.975,0.079,0.549,-0.610,1.373,73.333,528.000,1.000
-2309.588,-3695.706,-135990.768,-126805.421,-95215.915,-3591.414,-3598.693,-1866.482,-0.197,0.975,0.079,0.580,-0.702,1.434,73.333,529.000,1.000
-2245.789,-3634.595,-135974.163,-126805.463,-94684.260,-3511.931,-3528.222,-1807.784,-0.196,0.974,0.082,0.610,-0.702,1.282,73.333,530.000,1.000
-2183.045,-3574.045,-135955.884,-126805.080,-94153.025,-3434.164,-3459.382,-1749.992,-0.196,0.974,0.080,0.580,-0.732,1.129,73.333,531.000,1.000
-2121.929,-3515.342,-135936.243,-126805.124,-93623.220,-3360.084,-3392.667,-1693.340,-0.196,0.975,0.082,0.549,-0.671,1.190,73.333,532.000,1.000
-2062.176,-3458.774,-135915.257,-126804.468,-93094.998,-3289.040,-3326.937,-1637.279,-0.198,0.976,0.081,0.610,-0.671,1.190,73.333,533.000,1.000
-2002.968,-3403.706,-135892.652,-126801.784,-92567.370,-3218.807,-3260.684,-1581.477,-0.197,0.974,0.078,0.641,-0.793,1.099,73.333,534.000,1.000
-1943.541,-3349.179,-135868.160,-126801.434,-92038.988,-3147.771,-3193.407,-1526.412,-0.196,0.978,0.080,0.610,-0.885,1.038,73.333,535.000,1.000
-1883.449,-3294.237,-135841.834,-126815.388,-91509.024,-3075.681,-3125.448,-1472.681,-0.196,0.979,0.079,0.549,-0.916,1.007,73.333,536.000,1.000
-1822.608,-3238.281,-135813.764,-126849.481,-90977.662,-3003.186,-3057.365,-1420.385,-0.197,0.979,0.080,0.488,-0.854,1.007,73.333,537.000,1.000
-1761.378,-3181.530,-135783.569,-126888.498,-90445.939,-2931.128,-2989.654,-1369.261,-0.196,0.978,0.082,0.549,-0.916,0.977,73.333,538.000,1.000
-1700.484,-3124.917,-135750.790,-126910.577,-89915.179,-2859.881,-2922.601,-1318.924,-0.196,0.981,0.082,0.488,-0.946,1.007,73.333,539.000,1.000
-1640.500,-3069.163,-135715.785,-126919.623,-89386.145,-2788.949,-2856.079,-1268.718,-0.196,0.980,0.081,0.458,-1.007,0.977,73.333,540.000,1.000
-1581.558,-3014.297,-135679.669,-126948.550,-88858.653,-2717.455,-2789.795,-1218.052,-0.194,0.980,0.082,0.397,-1.038,0.916,73.333,541.000,1.000
-1523.623,-2960.273,-135643.193,-127019.555,-88332.302,-2645.452,-2724.190,-1167.484,-0.194,0.980,0.078,0.336,-1.068,0.977,73.333,542.000,1.000
-1466.663,-2907.377,-135605.917,-127111.503,-87806.965,-2574.347,-2660.456,-1118.698,-0.192,0.981,0.078,0.214,-1.007,0.977,73.333,543.000,1.000
-1410.517,-2855.783,-135566.739,-127184.618,-87282.532,-2505.732,-2599.366,-1073.005,-0.193,0.981,0.078,0.214,-1.068,1.038,73.333,544.000,1.000
-1354.748,-2804.994,-135524.880,-127230.580,-86758.495,-2439.623,-2540.151,-1029.717,-0.192,0.980,0.082,0.244,-1.068,1.068,73.333,545.000,1.000
-1298.730,-2753.955,-135480.029,-127278.900,-86233.875,-2374.102,-2480.676,-986.068,-0.194,0.979,0.082,0.214,-0.977,1.007,73.333,546.000,1.000
-1241.993,-2701.773,-135432.200,-127354.809,-85707.789,-2306.939,-2418.969,-939.118,-0.192,0.978,0.080,0.122,-0.946,1.099,73.333,547.000,1.000
-1184.275,-2647.965,-135381.819,-127446.854,-85179.783,-2236.767,-2354.093,-887.371,-0.196,0.976,0.083,0.122,-1.068,1.160,73.333,548.000,1.000
-1125.383,-2592.230,-135329.394,-127524.680,-84649.832,-2162.962,-2285.921,-831.029,-0.195,0.978,0.086,0.214,-1.068,1.129,73.333,549.000,1.000
-1065.472,-2534.746,-135274.973,-127578.278,-84118.720,-2085.976,-2215.347,-771.930,-0.196,0.976,0.084,0.153,-1.007,1.160,73.333,550.000,1.000
-1005.420,-2476.778,-135218.281,-127626.187,-83588.280,-2008.089,-2144.709,-713.224,-0.194,0.976,0.083,0.153,-0.977,1.190,73.333,551.000,1.000
-946.428,-2420.205,-135159.432,-127687.905,-83060.684,-1932.606,-2076.865,-658.011,-0.194,0.979,0.080,0.214,-0.946,1.129,73.333,552.000,1.000
-889.314,-2366.353,-135099.227,-127760.509,-82537.221,-1861.777,-2013.383,-607.845,-0.195,0.977,0.083,0.214,-0.916,1.190,73.333,553.000,1.000
-834.469,-2315.654,-135038.588,-127828.242,-82017.953,-1795.969,-1954.079,-562.637,-0.195,0.976,0.082,0.244,-0.977,1.251,73.333,554.000,1.000
-781.797,-2267.623,-134977.634,-127885.594,-81501.728,-1733.911,-1897.525,-521.114,-0.197,0.978,0.083,0.305,-1.038,1.312,73.333,555.000,1.000
-730.383,-2220.718,-134915.458,-127941.208,-80986.136,-1673.044,-1841.451,-481.122,-0.197,0.978,0.082,0.366,-1.007,1.312,73.333,556.000,1.000
-678.830,-2173.038,-134850.980,-128003.087,-80468.692,-1610.661,-1783.693,-440.293,-0.197,0.978,0.082,0.366,-1.099,1.190,73.333,557.000,1.000
-626.008,-2123.329,-134783.810,-128067.544,-79948.268,-1545.115,-1723.061,-396.527,-0.194,0.978,0.080,0.366,-1.129,1.282,73.333,558.000,1.000
-571.389,-2071.337,-134714.169,-128125.488,-79425.185,-1476.326,-1659.577,-348.509,-0.196,0.975,0.079,0.336,-1.068,1.251,73.333,559.000,1.000
-515.109,-2017.746,-134642.288,-128174.403,-78900.442,-1405.844,-1594.478,-296.470,-0.197,0.975,0.079,0.336,-1.068,1.160,73.333,560.000,1.000
-457.978,-1963.872,-134568.195,-128219.526,-78375.165,-1336.073,-1529.701,-242.346,-0.196,0.975,0.081,0.397,-1.099,1.160,73.333,561.000,1.000
-401.046,-1910.899,-134491.993,-128266.351,-77850.453,-1268.699,-1466.758,-188.820,-0.194,0.976,0.076,0.580,-1.129,1.068,73.333,562.000,1.000
-344.867,-1859.031,-134413.980,-128315.001,-77326.943,-1203.613,-1405.775,-137.595,-0.195,0.976,0.076,0.641,-1.129,1.160,73.333,563.000,1.000
-289.362,-1807.571,-134334.439,-128362.334,-76804.585,-1139.453,-1345.758,-88.543,-0.195,0.975,0.078,0.793,-1.129,1.099,73.333,564.000,1.000
-234.235,-1755.812,-134253.420,-128405.957,-76283.035,-1074.864,-1285.671,-40.436,-0.196,0.976,0.080,0.763,-1.160,1.007,73.333,565.000,1.000
-179.361,-1703.811,-134170.799,-128444.837,-75762.161,-1009.158,-1225.093,7.764,-0.197,0.977,0.081,0.793,-1.251,0.946,73.333,566.000,1.000
-124.986,-1652.405,-134086.581,-128479.957,-75242.335,-942.360,-1164.225,56.290,-0.198,0.977,0.079,0.793,-1.404,0.916,73.333,567.000,1.000
-71.573,-1602.356,-134001.037,-128514.594,-74724.015,-874.901,-1103.470,104.981,-0.199,0.975,0.081,0.793,-1.343,0.916,73.333,568.000,1.000
-19.439,-1553.775,-133914.389,-128552.105,-74207.122,-807.598,-1043.331,153.627,-0.197,0.975,0.078,0.732,-1.343,0.885,73.333,569.000,1.000
31.534,-1506.345,-133826.405,-128591.452,-73690.952,-741.688,-984.532,201.992,-0.194,0.976,0.079,0.824,-1.312,0.854,73.333,570.000,1.000
81.962,-1459.419,-133736.503,-128626.247,-73174.570,-678.061,-927.483,250.112,-0.194,0.976,0.079,0.763,-1.312,0.793,73.333,571.000,1.000
132.756,-1411.861,-133644.274,-128652.246,-72657.450,-616.379,-871.635,298.496,-0.192,0.978,0.077,0.732,-1.434,0.854,73.333,572.000,1.000
184.707,-1362.361,-133549.786,-128673.485,-72139.700,-555.100,-815.600,347.748,-0.194,0.979,0.078,0.793,-1.465,0.977,73.333,573.000,1.000
237.962,-1310.366,-133453.455,-128697.821,-71622.103,-492.470,-758.113,397.695,-0.194,0.976,0.078,0.793,-1.465,1.007,73.333,574.000,1.000
291.968,-1256.621,-133355.672,-128726.120,-71105.867,-427.620,-698.736,447.257,-0.191,0.977,0.079,0.824,-1.312,1.129,73.333,575.000,1.000
345.948,-1202.640,-133256.492,-128749.585,-70591.663,-361.011,-637.800,495.466,-0.192,0.979,0.078,0.824,-1.312,1.282,73.333,576.000,1.000
399.239,-1149.905,-133155.790,-128761.774,-70079.230,-294.360,-576.396,542.122,-0.193,0.980,0.076,0.946,-1.343,1.251,73.333,577.000,1.000
451.340,-1099.430,-133053.641,-128768.435,-69567.848,-229.913,-516.157,587.663,-0.195,0.981,0.077,0.854,-1.343,1.312,73.333,578.000,1.000
502.033,-1051.536,-132950.289,-128780.629,-69056.962,-169.152,-458.410,632.753,-0.197,0.980,0.077,0.793,-1.373,1.282,73.333,579.000,1.000
551.678,-1005.509,-132845.772,-128799.418,-68546.384,-111.766,-403.255,678.078,-0.196,0.979,0.075,0.824,-1.343,1.282,73.333,580.000,1.000
601.105,-959.725,-132739.814,-128813.101,-68036.048,-55.821,-349.472,724.049,-0.198,0.978,0.076,0.824,-1.495,1.221,73.333,581.000,1.000
651.024,-912.722,-132632.084,-128813.002,-67525.870,0.851,-295.509,770.374,-0.196,0.977,0.075,0.854,-1.526,1.251,73.333,582.000,1.000
701.700,-864.067,-132522.424,-128805.455,-67015.578,59.688,-240.228,816.469,-0.196,0.977,0.076,0.885,-1.526,1.160,73.333,583.000,1.000
753.087,-814.172,-132410.923,-128803.240,-66504.889,121.440,-182.934,862.163,-0.194,0.978,0.077,0.916,-1.587,1.129,73.333,584.000,1.000
805.026,-763.668,-132297.843,-128807.921,-65994.069,186.302,-123.484,907.552,-0.195,0.978,0.077,0.946,-1.648,1.099,73.333,585.000,1.000
857.293,-713.141,-132183.446,-128807.097,-65483.900,253.533,-62.704,952.492,-0.197,0.978,0.077,0.916,-1.617,0.946,73.333,586.000,1.000
909.522,-663.281,-132067.812,-128791.882,-64975.039,321.062,-2.540,996.474,-0.197,0.978,0.078,0.824,-1.678,0.824,73.333,587.000,1.000
961.195,-614.758,-131950.794,-128769.831,-64467.460,386.394,55.007,1039.078,-0.197,0.980,0.078,0.763,-1.740,0.763,73.333,588.000,1.000
1011.799,-567.821,-131832.144,-128755.200,-63960.690,448.301,109.335,1080.437,-0.197,0.981,0.077,0.702,-1.801,0.641,73.333,589.000,1.000
1061.034,-522.224,-131711.746,-128749.557,-63454.581,507.241,161.476,1121.286,-0.197,0.982,0.079,0.671,-1.831,0.488,73.333,590.000,1.000
1108.794,-477.534,-131589.691,-128739.040,-62949.487,564.277,213.076,1162.387,-0.197,0.981,0.078,0.458,-1.923,0.397,73.333,591.000,1.000
1155.152,-433.340,-131466.120,-128713.216,-62445.687,620.129,265.303,1203.827,-0.195,0.981,0.079,0.366,-1.923,0.214,73.333,592.000,1.000
1200.500,-389.247,-131341.058,-128678.990,-61942.951,675.225,318.626,1245.213,-0.196,0.982,0.078,0.275,-1.984,0.000,73.333,593.000,1.000
1245.516,-344.997,-131214.518,-128650.961,-61440.911,729.829,372.893,1286.238,-0.194,0.983,0.076,0.153,-1.923,0.061,73.333,594.000,1.000
1290.949,-300.507,-131086.652,-128631.561,-60939.384,784.127,427.493,1326.926,-0.193,0.983,0.076,-0.061,-2.014,0.031,73.333,595.000,1.000
1337.320,-255.738,-130957.649,-128607.679,-60438.143,838.656,481.919,1367.497,-0.193,0.984,0.078,-0.122,-1.923,0.000,73.333,596.000,1.000
1384.589,-210.762,-130827.505,-128569.164,-59936.979,894.338,536.136,1407.950,-0.191,0.983,0.077,-0.275,-1.892,0.183,73.333,597.000,1.000
1432.224,-165.741,-130695.913,-128522.623,-59435.787,951.923,590.564,1448.134,-0.193,0.984,0.080,-0.458,-1.801,0.153,73.333,598.000,1.000
1479.681,-120.756,-130562.443,-128482.053,-58934.494,1011.246,645.598,1488.049,-0.191,0.985,0.079,-0.488,-1.801,0.183,73.333,599.000,1.000
1526.736,-75.787,-130426.917,-128449.874,-58433.202,1071.008,700.921,1527.728,-0.191,0.981,0.081,-0.610,-1.648,0.305,73.333,600.000,1.000
1573.488,-30.738,-130289.544,-128413.816,-57932.305,1129.746,755.652,1567.155,-0.190,0.979,0.080,-0.671,-1.495,0.427,73.333,601.000,1.000
1620.240,14.575,-130150.648,-128364.045,-57432.386,1187.040,809.238,1606.496,-0.191,0.978,0.077,-0.641,-1.282,0.580,73.333,602.000,1.000
1667.319,60.337,-130010.327,-128305.971,-56933.781,1243.589,861.989,1646.244,-0.192,0.975,0.078,-0.641,-1.312,0.549,73.333,603.000,1.000
1714.829,106.543,-129868.461,-128252.101,-56436.294,1300.249,914.553,1686.739,-0.193,0.972,0.075,-0.580,-1.190,0.641,73.333,604.000,1.000
1762.517,152.932,-129724.993,-128204.991,-55939.438,1357.236,967.049,1727.631,-0.193,0.972,0.076,-0.549,-1.038,0.824,73.333,605.000,1.000
1809.777,199.042,-129580.134,-128154.218,-55442.952,1414.040,1018.871,1767.961,-0.193,0.970,0.080,-0.427,-0.946,0.885,73.333,606.000,1.000
1856.062,244.468,-129434.245,-128091.405,-54947.083,1469.959,1069.340,1806.884,-0.195,0.970,0.081,-0.305,-1.038,0.824,73.333,607.000,1.000
1901.567,289.277,-129287.473,-128021.276,-54452.108,1524.921,1118.702,1844.695,-0.193,0.969,0.078,-0.336,-1.038,0.946,73.333,608.000,1.000
1947.067,333.821,-129139.654,-127954.755,-53958.020,1579.499,1168.077,1882.677,-0.198,0.968,0.078,-0.214,-0.885,0.916,73.333,609.000,1.000
1992.974,378.130,-128990.567,-127894.598,-53464.775,1634.081,1218.327,1921.766,-0.197,0.966,0.078,-0.122,-0.946,0.916,73.333,610.000,1.000
2038.989,421.845,-128840.112,-127832.397,-52972.381,1688.227,1269.199,1961.704,-0.198,0.967,0.080,0.031,-0.824,0.977,73.333,611.000,1.000
2084.656,464.744,-128688.281,-127760.911,-52480.902,1740.971,1319.540,2001.405,-0.197,0.966,0.080,0.122,-0.916,0.885,73.333,612.000,1.000
2129.876,507.150,-128535.082,-127683.516,-51990.392,1792.059,1368.562,2040.053,-0.193,0.967,0.079,0.183,-0.916,0.824,73.333,613.000,1.000
2174.708,549.544,-128380.547,-127608.915,-51500.986,1842.482,1416.537,2077.570,-0.197,0.967,0.077,0.214,-0.885,0.763,73.333,614.000,1.000
2219.129,592.086,-128224.750,-127539.231,-51012.953,1893.719,1464.320,2114.445,-0.198,0.969,0.079,0.305,-0.977,0.793,73.333,615.000,1.000
2263.207,634.731,-128067.665,-127467.061,-50526.146,1946.864,1512.781,2151.505,-0.195,0.970,0.081,0.427,-0.854,0.732,73.333,616.000,1.000
2307.038,677.218,-127909.090,-127385.903,-50039.951,2001.777,1562.083,2189.244,-0.195,0.971,0.080,0.366,-0.793,0.732,73.333,617.000,1.000
2350.431,718.974,-127748.814,-127298.567,-49553.963,2056.830,1611.302,2227.402,-0.197,0.975,0.080,0.336,-0.824,0.854,73.333,618.000,1.000
2393.094,759.638,-127586.843,-127212.672,-49068.329,2110.189,1659.286,2265.455,-0.197,0.975,0.081,0.305,-0.793,0.946,73.333,619.000,1.000
2435.102,799.687,-127423.435,-127130.387,-48583.444,2161.527,1705.887,2303.285,-0.198,0.977,0.080,0.275,-0.763,0.916,73.333,620.000,1.000
2476.977,840.210,-127258.892,-127046.033,-48099.515,2212.251,1752.206,2341.260,-0.195,0.978,0.081,0.183,-0.793,0.946,73.333,621.000,1.000
2519.373,882.086,-127093.371,-126954.536,-47616.550,2264.276,1799.760,2379.882,-0.196,0.980,0.082,0.153,-0.763,0.946,73.333,622.000,1.000
2562.672,925.368,-126926.883,-126857.797,-47134.442,2318.633,1849.408,2419.418,-0.197,0.982,0.079,0.092,-0.854,1.038,73.333,623.000,1.000
2606.506,969.050,-126759.387,-126761.459,-46653.102,2374.546,1900.459,2459.299,-0.198,0.980,0.079,-0.031,-0.793,1.099,73.333,624.000,1.000
2649.846,1011.579,-126590.759,-126667.375,-46172.366,2429.890,1950.945,2498.158,-0.199,0.981,0.080,-0.153,-0.854,1.068,73.333,625.000,1.000
2691.837,1052.013,-126420.762,-126571.434,-45691.885,2483.013,1999.292,2535.016,-0.198,0.981,0.081,-0.305,-0.946,1.160,73.333,626.000,1.000
2732.347,1090.539,-126249.217,-126469.932,-45211.765,2533.837,2045.375,2569.884,-0.198,0.981,0.082,-0.366,-0.946,1.343,73.333,627.000,1.000
2771.844,1128.111,-126076.122,-126364.417,-44732.794,2583.453,2090.157,2603.295,-0.198,0.980,0.081,-0.458,-0.946,1.404,73.333,628.000,1.000
2811.011,1165.847,-125901.585,-126259.068,-44255.679,2633.003,2134.671,2635.727,-0.201,0.983,0.082,-0.549,-1.007,1.434,73.333,629.000,1.000
2850.445,1204.596,-125725.768,-126155.158,-43780.446,2682.904,2179.425,2667.681,-0.200,0.983,0.080,-0.610,-0.946,1.373,73.333,630.000,1.000
2890.513,1244.735,-125548.825,-126049.531,-43306.539,2732.976,2224.693,2700.030,-0.198,0.982,0.076,-0.763,-0.977,1.373,73.333,631.000,1.000
2931.349,1286.186,-125370.760,-125939.111,-42833.263,2783.082,2270.842,2733.741,-0.199,0.981,0.079,-0.702,-1.007,1.434,73.333,632.000,1.000
2972.964,1328.616,-125191.331,-125824.225,-42359.934,2833.494,2318.128,2769.204,-0.200,0.982,0.082,-0.824,-1.068,1.434,73.333,633.000,1.000
3015.190,1371.478,-125010.225,-125707.388,-41886.091,2884.453,2366.150,2805.747,-0.203,0.981,0.082,-0.793,-0.977,1.495,73.333,634.000,1.000
3057.606,1413.987,-124827.413,-125590.148,-41411.972,2935.562,2413.934,2841.955,-0.200,0.980,0.081,-0.916,-1.038,1.434,73.333,635.000,1.000
3099.757,1455.471,-124643.251,-125471.528,-40938.422,2986.244,2460.911,2876.816,-0.198,0.980,0.083,-1.007,-1.068,1.312,73.333,636.000,1.000
3141.484,1495.907,-124458.193,-125350.146,-40466.271,3036.719,2507.556,2910.525,-0.197,0.979,0.080,-1.038,-1.160,1.343,73.333,637.000,1.000
3182.916,1535.945,-124272.518,-125226.073,-39995.739,3087.931,2554.856,2944.119,-0.197,0.978,0.079,-1.068,-1.129,1.373,73.333,638.000,1.000
3224.133,1576.263,-124086.234,-125100.557,-39526.465,3140.303,2603.141,2978.242,-0.195,0.979,0.078,-1.007,-1.221,1.404,73.333,639.000,1.000
3265.062,1617.079,-123899.027,-124974.419,-39057.905,3193.176,2651.748,3012.542,-0.194,0.979,0.077,-0.885,-1.221,1.434,73.333,640.000,1.000
3305.569,1658.128,-123710.345,-124846.854,-38589.614,3245.372,2699.650,3046.157,-0.193,0.978,0.077,-0.916,-1.160,1.434,73.333,641.000,1.000
3345.495,1698.716,-123519.792,-124716.926,-38121.697,3295.604,2745.898,3078.270,-0.195,0.979,0.081,-0.854,-1.068,1.495,73.333,642.000,1.000
3384.853,1738.138,-123327.455,-124584.598,-37654.816,3342.957,2789.969,3108.711,-0.195,0.978,0.078,-0.793,-1.038,1.587,73.333,643.000,1.000
3424.051,1776.422,-123133.816,-124450.368,-37189.579,3387.821,2832.291,3138.387,-0.195,0.979,0.080,-0.763,-0.885,1.617,73.333,644.000,1.000
3463.838,1814.653,-122939.388,-124314.466,-36725.804,3432.226,2874.469,3169.010,-0.194,0.978,0.080,-0.732,-0.793,1.526,73.333,645.000,1.000
3504.927,1854.292,-122744.413,-124176.199,-36262.369,3478.727,2918.606,3202.070,-0.193,0.978,0.078,-0.641,-0.763,1.587,73.333,646.000,1.000
3547.403,1895.872,-122548.832,-124035.041,-35798.250,3528.454,2965.662,3237.629,-0.192,0.978,0.080,-0.641,-0.702,1.587,73.333,647.000,1.000
3590.570,1938.490,-122352.406,-123891.181,-35333.560,3580.299,3014.570,3274.249,-0.193,0.975,0.079,-0.549,-0.671,1.587,73.333,648.000,1.000
3633.477,1980.614,-122154.799,-123745.323,-34869.476,3631.999,3063.285,3310.094,-0.193,0.975,0.080,-0.458,-0.580,1.740,73.333,649.000,1.000
3675.563,2021.219,-121955.663,-123598.363,-34407.352,3681.932,3110.485,3344.105,-0.195,0.975,0.081,-0.366,-0.610,1.801,73.333,650.000,1.000
3716.858,2060.183,-121754.853,-123450.526,-33947.767,3729.852,3156.004,3376.340,-0.195,0.975,0.081,-0.366,-0.519,1.770,73.333,651.000,1.000
3757.713,2097.960,-121552.595,-123301.395,-33490.304,3776.152,3199.886,3407.355,-0.194,0.978,0.082,-0.305,-0.458,1.556,73.333,652.000,1.000
3798.411,2135.199,-121349.329,-123150.024,-33034.053,3821.191,3242.020,3437.757,-0.195,0.976,0.082,-0.305,-0.458,1.526,73.333,653.000,1.000
3838.993,2172.516,-121145.451,-122995.831,-32578.448,3865.525,3282.813,3468.233,-0.194,0.976,0.083,-0.275,-0.336,1.434,73.333,654.000,1.000
3879.525,2210.402,-120941.128,-122839.526,-32123.614,3910.190,3323.536,3499.665,-0.194,0.976,0.081,-0.244,-0.458,1.343,73.333,655.000,1.000
3920.294,2249.166,-120736.152,-122682.158,-31669.746,3956.229,3365.642,3532.949,-0.195,0.977,0.082,-0.183,-0.488,1.282,73.333,656.000,1.000
3961.456,2288.694,-120529.983,-122524.196,-31216.609,4003.698,3409.579,3568.356,-0.192,0.976,0.080,-0.183,-0.549,1.251,73.333,657.000,1.000
4002.559,2328.208,-120322.152,-122365.087,-30763.837,4051.317,3454.349,3605.174,-0.194,0.976,0.080,-0.153,-0.488,1.099,73.333,658.000,1.000
4042.642,2366.498,-120112.706,-122204.172,-30311.543,4097.288,3498.182,3642.014,-0.194,0.976,0.082,-0.275,-0.458,1.068,73.333,659.000,1.000
4080.941,2402.718,-119902.151,-122041.893,-29860.312,4140.651,3539.714,3677.436,-0.195,0.976,0.081,-0.336,-0.488,0.977,73.333,660.000,1.000
4117.322,2436.940,-119690.974,-121879.201,-29410.601,4181.970,3578.809,3710.415,-0.194,0.975,0.080,-0.305,-0.366,0.916,73.333,661.000,1.000
4152.207,2470.029,-119479.275,-121716.556,-28962.510,4222.881,3616.513,3740.656,-0.195,0.976,0.080,-0.244,-0.366,0.824,73.333,662.000,1.000
4186.412,2503.178,-119266.733,-121552.862,-28515.682,4265.101,3654.443,3768.914,-0.193,0.976,0.083,-0.244,-0.336,0.854,73.333,663.000,1.000
4220.784,2537.107,-119052.783,-121386.496,-28069.411,4309.182,3693.654,3796.407,-0.192,0.979,0.080,-0.305,-0.366,0.885,73.333,664.000,1.000
4255.771,2571.575,-118837.029,-121217.523,-27623.257,4354.086,3734.051,3823.894,-0.194,0.979,0.081,-0.366,-0.336,0.916,73.333,665.000,1.000
4291.432,2606.060,-118619.615,-121047.326,-27177.273,4398.568,3775.317,3852.002,-0.195,0.979,0.078,-0.305,-0.275,0.916,73.333,666.000,1.000
4327.757,2640.750,-118401.071,-120876.748,-26731.662,4442.616,3817.732,3881.710,-0.194,0.979,0.079,-0.366,-0.244,1.038,73.333,667.000,1.000
4364.806,2676.446,-118181.816,-120704.626,-26286.475,4487.017,3861.406,3913.588,-0.193,0.980,0.080,-0.366,-0.122,1.099,73.333,668.000,1.000
4402.284,2713.322,-117961.965,-120529.257,-25842.011,4531.631,3905.086,3946.617,-0.194,0.979,0.081,-0.397,-0.153,1.099,73.333,669.000,1.000
4439.148,2750.217,-117741.470,-120351.030,-25399.264,4574.884,3946.533,3978.633,-0.196,0.980,0.082,-0.366,-0.183,1.129,73.333,670.000,1.000
4474.163,2785.593,-117520.164,-120172.004,-24959.322,4615.335,3984.367,4008.192,-0.195,0.981,0.083,-0.458,-0.214,1.221,73.333,671.000,1.000
4506.933,2818.935,-117297.799,-119993.719,-24522.398,4653.201,4019.185,4035.494,-0.194,0.979,0.083,-0.366,-0.092,1.221,73.333,672.000,1.000
4538.277,2851.080,-117074.176,-119815.296,-24087.456,4690.366,4053.197,4061.888,-0.195,0.979,0.082,-0.366,-0.061,1.190,73.333,673.000,1.000
4569.630,2883.443,-116849.245,-119634.448,-23652.846,4729.159,4088.832,4088.893,-0.194,0.978,0.082,-0.275,-0.153,1.282,73.333,674.000,1.000
4602.090,2917.055,-116623.073,-119450.155,-23217.324,4770.939,4127.263,4117.448,-0.195,0.979,0.084,-0.366,-0.122,1.282,73.333,675.000,1.000
4635.760,2951.990,-116395.809,-119263.234,-22780.606,4815.416,4167.947,4147.553,-0.196,0.977,0.084,-0.305,-0.183,1.190,73.333,676.000,1.000
4669.765,2987.291,-116167.699,-119075.355,-22343.555,4860.939,4209.289,4178.270,-0.196,0.977,0.082,-0.366,-0.092,1.221,73.333,677.000,1.000
4702.946,3021.630,-115939.054,-118887.162,-21907.710,4905.560,4249.789,4208.294,-0.196,0.977,0.083,-0.458,-0.092,1.221,73.333,678.000,1.000
4734.673,3054.258,-115710.089,-118697.980,-21474.239,4948.193,4288.864,4236.742,-0.198,0.976,0.083,-0.519,-0.061,1.251,73.333,679.000,1.000
4765.137,3085.463,-115480.720,-118507.278,-21043.274,4989.121,4326.919,4263.683,-0.195,0.976,0.082,-0.458,-0.122,1.129,73.333,680.000,1.000
4794.824,3115.986,-115250.603,-118315.295,-20614.146,5029.212,4364.504,4289.748,-0.194,0.972,0.082,-0.397,-0.214,1.160,73.333,681.000,1.000
4823.773,3145.984,-115019.414,-118122.862,-20186.189,5068.478,4401.197,4314.987,-0.194,0.973,0.082,-0.427,-0.305,1.221,73.333,682.000,1.000
4851.744,3175.143,-114786.969,-117929.979,-19758.915,5106.219,4436.070,4338.832,-0.197,0.975,0.081,-0.336,-0.244,1.099,73.333,683.000,1.000
4878.954,3203.706,-114553.172,-117735.626,-19331.824,5142.560,4469.278,4361.183,-0.196,0.974,0.081,-0.305,-0.336,0.885,73.333,684.000,1.000
4906.179,3232.654,-114318.009,-117539.301,-18904.616,5178.801,4502.223,4382.831,-0.198,0.975,0.085,-0.275,-0.458,0.885,73.333,685.000,1.000
4934.110,3262.785,-114081.575,-117341.311,-18477.422,5216.035,4536.063,4404.816,-0.197,0.973,0.084,-0.214,-0.336,0.854,73.333,686.000,1.000
4962.711,3293.901,-113844.089,-117142.341,-18050.894,5253.974,4570.642,4427.518,-0.198,0.975,0.082,-0.153,-0.580,0.793,73.333,687.000,1.000
4991.195,3325.011,-113605.872,-116942.560,-17625.913,5291.500,4605.069,4450.473,-0.198,0.975,0.081,0.000,-0.458,0.854,73.333,688.000,1.000
5018.691,3355.262,-113367.170,-116741.632,-17202.939,5327.926,4638.722,4472.914,-0.198,0.973,0.083,0.031,-0.519,0.702,73.333,689.000,1.000
5044.967,3384.645,-113127.934,-116539.479,-16781.585,5363.462,4671.546,4494.521,-0.195,0.972,0.082,-0.061,-0.549,0.641,73.333,690.000,1.000
5070.402,3413.740,-112887.899,-116336.189,-16360.986,5398.882,4703.982,4515.725,-0.197,0.973,0.084,0.000,-0.671,0.641,73.333,691.000,1.000
5095.435,3442.962,-112646.898,-116132.029,-15940.793,5435.068,4736.714,4537.157,-0.197,0.974,0.080,0.122,-0.610,0.702,73.333,692.000,1.000
5120.355,3472.232,-112404.977,-115926.801,-15521.487,5472.583,4770.246,4559.169,-0.198,0.975,0.081,0.183,-0.702,0.488,73.333,693.000,1.000
5145.474,3501.170,-112162.219,-115719.865,-15103.682,5511.141,4804.416,4581.807,-0.198,0.974,0.082,0.366,-0.763,0.519,73.333,694.000,1.000
5171.316,3529.651,-111918.542,-115510.997,-14687.386,5549.779,4838.592,4605.081,-0.199,0.974,0.085,0.427,-0.854,0.549,73.333,695.000,1.000
5198.495,3558.236,-111673.762,-115300.270,-14272.043,5587.795,4872.482,4629.174,-0.199,0.975,0.084,0.397,-0.946,0.519,73.333,696.000,1.000
5227.209,3587.804,-111427.893,-115087.938,-13857.381,5625.133,4906.386,4654.245,-0.199,0.976,0.080,0.458,-1.038,0.397,73.333,697.000,1.000
5256.913,3618.823,-111181.216,-114873.864,-13443.720,5662.244,4940.923,4680.374,-0.201,0.977,0.079,0.488,-1.221,0.488,73.333,698.000,1.000
5286.528,3650.864,-110933.998,-114657.808,-13031.468,5699.613,4976.434,4707.531,-0.203,0.977,0.081,0.549,-1.312,0.549,73.333,699.000,1.000
5314.937,3682.529,-110686.251,-114440.507,-12620.747,5736.941,5012.261,4735.273,-0.202,0.977,0.085,0.580,-1.343,0.549,73.333,700.000,1.000
5341.446,3712.136,-110437.798,-114223.261,-12211.508,5773.089,5046.929,4762.670,-0.202,0.979,0.083,0.580,-1.404,0.488,73.333,701.000,1.000
5366.232,3738.936,-110188.435,-114006.898,-11803.756,5807.255,5079.299,4788.804,-0.201,0.979,0.081,0.458,-1.617,0.549,73.333,702.000,1.000
5390.481,3763.868,-109937.959,-113790.566,-11397.241,5840.131,5109.603,4813.478,-0.203,0.979,0.082,0.488,-1.709,0.488,73.333,703.000,1.000
5415.703,3788.973,-109686.297,-113572.401,-10991.377,5873.521,5139.270,4837.156,-0.201,0.978,0.083,0.458,-1.740,0.458,73.333,704.000,1.000
5442.859,3816.132,-109433.618,-113351.263,-10585.592,5909.064,5169.997,4860.579,-0.199,0.978,0.083,0.458,-1.801,0.427,73.333,705.000,1.000
5472.118,3846.166,-109180.232,-113126.878,-10179.464,5947.361,5202.838,4884.695,-0.201,0.977,0.082,0.458,-1.831,0.458,73.333,706.000,1.000
5502.952,3878.511,-108926.405,-112899.789,-9773.082,5987.532,5237.376,4910.241,-0.201,0.977,0.084,0.397,-1.953,0.427,73.333,707.000,1.000
5534.415,3911.748,-108672.209,-112670.654,-9367.128,6027.580,5272.055,4937.422,-0.202,0.977,0.084,0.488,-2.075,0.519,73.333,708.000,1.000
5565.579,3944.627,-108417.469,-112439.859,-8962.358,6065.622,5305.593,4965.901,-0.199,0.975,0.083,0.366,-2.014,0.519,73.333,709.000,1.000
5595.790,3976.565,-108161.942,-112207.991,-8559.254,6101.002,5337.843,4994.734,-0.198,0.975,0.084,0.397,-2.045,0.519,73.333,710.000,1.000
5624.800,4007.564,-107905.513,-111975.545,-8157.928,6134.513,5369.551,5022.608,-0.200,0.974,0.083,0.427,-2.075,0.580,73.333,711.000,1.000
5652.847,4037.927,-107648.193,-111742.812,-7758.173,6167.639,5401.496,5048.490,-0.198,0.976,0.081,0.427,-2.167,0.488,73.333,712.000,1.000
5680.493,4068.012,-107390.010,-111509.457,-7359.545,6201.595,5433.912,5072.314,-0.198,0.976,0.082,0.488,-2.228,0.610,73.333,713.000,1.000
5708.221,4098.041,-107130.983,-111274.716,-6961.666,6236.884,5466.628,5095.032,-0.197,0.976,0.082,0.427,-2.197,0.763,73.333,714.000,1.000
5736.085,4127.947,-106871.137,-111038.370,-6564.672,6273.348,5499.446,5117.915,-0.196,0.977,0.082,0.397,-2.106,0.793,73.333,715.000,1.000
5763.705,4157.457,-106610.494,-110800.750,-6169.087,6310.450,5532.302,5141.784,-0.195,0.980,0.078,0.397,-2.106,0.946,73.333,716.000,1.000
5790.673,4186.381,-106349.068,-110562.488,-5775.218,6347.579,5565.193,5166.721,-0.194,0.979,0.078,0.336,-2.136,0.916,73.333,717.000,1.000
5816.935,4214.699,-106086.874,-110323.695,-5382.790,6384.197,5598.035,5192.405,-0.195,0.978,0.083,0.275,-2.106,0.854,73.333,718.000,1.000
5842.681,4242.270,-105823.961,-110084.015,-4991.431,6419.730,5630.442,5218.392,-0.193,0.977,0.083,0.275,-2.075,0.946,73.333,719.000,1.000
5868.174,4268.999,-105560.418,-109843.358,-4601.098,6453.960,5662.077,5244.321,-0.194,0.977,0.080,0.214,-2.075,1.038,73.333,720.000,1.000
5893.788,4295.332,-105296.291,-109601.555,-4211.654,6487.675,5693.385,5270.184,-0.194,0.978,0.078,0.122,-1.953,0.977,73.333,721.000,1.000
5919.744,4321.944,-105031.507,-109358.538,-3822.729,6522.020,5725.197,5295.991,-0.194,0.979,0.079,0.000,-1.892,1.007,73.333,722.000,1.000
5945.736,4348.923,-104765.959,-109114.315,-3434.167,6557.162,5757.638,5321.389,-0.193,0.978,0.078,0.000,-1.801,1.160,73.333,723.000,1.000
5970.976,4375.522,-104499.688,-108869.144,-3046.561,6591.973,5789.732,5345.756,-0.193,0.979,0.080,-0.183,-1.709,1.190,73.333,724.000,1.000
5994.811,4400.813,-104232.904,-108623.769,-2661.118,6625.027,5820.100,5368.579,-0.193,0.980,0.080,-0.214,-1.617,1.099,73.333,725.000,1.000
6017.433,4424.715,-103965.721,-108378.432,-2278.455,6655.914,5848.225,5389.869,-0.193,0.978,0.082,-0.183,-1.526,1.129,73.333,726.000,1.000
6039.957,4448.281,-103697.983,-108132.602,-1897.912,6685.632,5875.001,5410.220,-0.191,0.979,0.080,-0.244,-1.373,1.190,73.333,727.000,1.000
6063.783,4473.003,-103429.414,-107885.050,-1518.186,6715.912,5902.167,5430.625,-0.193,0.979,0.080,-0.336,-1.434,1.068,73.333,728.000,1.000
6089.699,4499.806,-103159.930,-107634.619,-1138.503,6748.060,5931.199,5451.988,-0.194,0.977,0.079,-0.305,-1.312,1.129,73.333,729.000,1.000
6117.415,4528.556,-102889.667,-107381.220,-759.064,6782.230,5962.417,5474.505,-0.194,0.976,0.080,-0.427,-1.251,1.099,73.333,730.000,1.000
6145.854,4558.306,-102618.702,-107125.370,-380.308,6817.473,5994.862,5497.499,-0.194,0.975,0.079,-0.488,-1.282,0.946,73.333,731.000,1.000
6173.814,4587.887,-102346.892,-106867.989,-2.319,6852.297,6026.915,5519.744,-0.192,0.976,0.082,-0.519,-1.068,0.916,73.333,732.000,1.000
6200.616,4616.635,-102074.122,-106609.930,375.030,6885.827,6057.509,5540.227,-0.193,0.975,0.082,-0.458,-1.038,0.977,73.333,733.000,1.000
6226.271,4644.548,-101800.568,-106351.641,751.657,6918.406,6086.681,5558.655,-0.193,0.976,0.082,-0.397,-0.916,1.068,73.333,734.000,1.000
6251.026,4671.615,-101526.596,-106093.406,1127.111,6950.520,6114.764,5575.266,-0.195,0.975,0.081,-0.397,-0.977,1.007,73.333,735.000,1.000
6274.932,4697.338,-101252.464,-105835.142,1500.797,6981.667,6141.706,5590.562,-0.196,0.976,0.082,-0.336,-0.854,1.007,73.333,736.000,1.000
6298.052,4721.308,-100978.158,-105576.692,1872.241,7011.019,6167.572,5605.425,-0.196,0.976,0.081,-0.336,-0.824,1.038,73.333,737.000,1.000
6320.918,4744.154,-100703.359,-105317.505,2241.537,7039.003,6193.359,5621.235,-0.195,0.977,0.083,-0.488,-0.824,0.885,73.333,738.000,1.000
6344.354,4767.432,-100427.586,-105056.734,2609.468,7067.328,6220.493,5639.195,-0.198,0.978,0.084,-0.549,-0.732,0.977,73.333,739.000,1.000
6368.848,4792.471,-100150.575,-104794.104,2976.846,7097.398,6249.491,5659.452,-0.197,0.978,0.082,-0.519,-0.702,1.068,73.333,740.000,1.000
6394.196,4819.437,-99872.529,-104529.850,3343.903,7129.106,6279.584,5681.143,-0.197,0.978,0.084,-0.519,-0.610,1.038,73.333,741.000,1.000
6419.643,4847.332,-99593.936,-104264.690,3710.285,7161.040,6309.488,5703.072,-0.197,0.977,0.083,-0.519,-0.641,0.916,73.333,742.000,1.000
6444.333,4874.759,-99315.154,-103999.215,4075.632,7191.638,6338.392,5724.384,-0.197,0.978,0.084,-0.702,-0.549,0.885,73.333,743.000,1.000
6467.719,4900.655,-99036.217,-103733.716,4439.867,7220.055,6366.191,5744.517,-0.195,0.978,0.083,-0.671,-0.488,1.068,73.333,744.000,1.000
6489.740,4924.572,-98756.987,-103468.601,4802.882,7246.261,6393.082,5762.854,-0.197,0.978,0.085,-0.702,-0.458,1.038,73.333,745.000,1.000
6510.776,4946.727,-98477.351,-103203.847,5164.476,7271.014,6419.430,5778.978,-0.197,0.977,0.084,-0.671,-0.488,1.007,73.333,746.000,1.000
6531.320,4967.872,-98197.268,-102939.101,5524.581,7295.692,6445.727,5793.059,-0.198,0.976,0.085,-0.702,-0.519,1.038,73.333,747.000,1.000
6551.727,4989.042,-97916.631,-102673.700,5883.600,7321.790,6472.533,5806.004,-0.198,0.977,0.087,-0.702,-0.488,1.007,73.333,748.000,1.000
6572.344,5011.239,-97635.143,-102406.705,6242.342,7350.297,6500.406,5819.400,-0.200,0.978,0.087,-0.671,-0.610,0.946,73.333,749.000,1.000
6593.734,5035.294,-97352.428,-102137.172,6601.575,7381.571,6529.877,5835.162,-0.199,0.976,0.086,-0.702,-0.549,0.916,73.333,750.000,1.000
6616.437,5061.644,-97068.295,-101864.203,6961.740,7415.448,6561.191,5854.459,-0.199,0.974,0.084,-0.671,-0.519,0.946,73.333,751.000,1.000
6640.412,5089.824,-96782.916,-101588.017,7322.596,7450.879,6593.628,5876.427,-0.198,0.974,0.086,-0.549,-0.610,1.038,73.333,752.000,1.000
6664.834,5118.388,-96496.754,-101310.012,7683.143,7485.910,6625.558,5898.648,-0.200,0.975,0.084,-0.458,-0.580,1.038,73.333,753.000,1.000
6688.325,5145.411,-96210.362,-101032.057,8041.978,7518.476,6655.310,5918.984,-0.198,0.974,0.083,-0.488,-0.671,0.946,73.333,754.000,1.000
6709.637,5169.357,-95924.210,-100755.826,8397.736,7547.403,6681.918,5936.725,-0.199,0.974,0.081,-0.488,-0.732,1.007,73.333,755.000,1.000
6728.598,5189.970,-95638.519,-100481.612,8749.683,7573.006,6705.536,5952.513,-0.200,0.975,0.082,-0.458,-0.732,0.946,73.333,756.000,1.000
6746.253,5208.252,-95353.230,-100208.635,9097.884,7596.512,6727.066,5967.436,-0.201,0.977,0.082,-0.427,-0.732,0.946,73.333,757.000,1.000
6763.933,5225.564,-95068.081,-99935.787,9442.859,7618.801,6747.318,5982.142,-0.200,0.974,0.083,-0.305,-0.763,1.038,73.333,758.000,1.000
6782.470,5243.102,-94782.706,-99662.032,9785.364,7640.129,6766.911,5996.746,-0.202,0.974,0.083,-0.305,-0.824,1.007,73.333,759.000,1.000
6802.356,5262.139,-94496.653,-99386.412,10126.702,7661.194,6787.019,6011.616,-0.203,0.975,0.081,-0.153,-0.916,0.946,73.333,760.000,1.000
6823.827,5283.743,-94209.513,-99107.751,10468.691,7683.569,6809.313,6027.794,-0.202,0.976,0.083,-0.183,-0.916,0.946,73.333,761.000,1.000
6846.428,5307.844,-93921.142,-98825.717,10812.512,7708.523,6834.669,6046.134,-0.199,0.975,0.083,-0.153,-1.007,0.977,73.333,762.000,1.000
6869.214,5333.290,-93631.681,-98541.029,11158.053,7736.212,6862.615,6066.560,-0.198,0.975,0.086,-0.183,-0.916,1.068,73.333,763.000,1.000
6891.542,5358.871,-93341.388,-98254.795,11504.419,7765.943,6891.901,6088.201,-0.200,0.972,0.085,-0.092,-0.977,1.099,73.333,764.000,1.000
6913.384,5383.929,-93050.498,-97968.107,11850.525,7796.484,6921.088,6109.953,-0.203,0.973,0.083,0.061,-1.068,1.099,73.333,765.000,1.000
6934.890,5408.110,-92759.156,-97681.517,12195.319,7826.224,6948.967,6131.028,-0.200,0.975,0.082,0.092,-1.190,1.160,73.333,766.000,1.000
6955.960,5431.029,-92467.411,-97395.468,12537.829,7853.676,6974.893,6151.110,-0.201,0.975,0.083,0.122,-1.282,1.099,73.333,767.000,1.000
6976.397,5452.563,-92175.238,-97110.119,12877.551,7878.301,6999.001,6170.306,-0.201,0.974,0.082,0.336,-1.282,1.160,73.333,768.000,1.000
6996.141,5473.055,-91882.634,-96825.098,13214.699,7900.626,7021.755,6188.676,-0.199,0.975,0.083,0.336,-1.251,1.160,73.333,769.000,1.000
7015.362,5493.151,-91589.667,-96539.821,13549.966,7921.778,7043.483,6205.929,-0.200,0.976,0.083,0.336,-1.221,1.038,73.333,770.000,1.000
7034.551,5513.666,-91296.431,-96253.296,13884.231,7943.304,7064.787,6222.072,-0.200,0.975,0.082,0.336,-1.312,1.038,73.333,771.000,1.000
7054.325,5535.313,-91003.030,-95964.857,14218.025,7966.724,7086.722,6237.962,-0.202,0.977,0.084,0.214,-1.434,1.007,73.333,772.000,1.000
7074.919,5558.219,-90709.510,-95674.524,14551.286,7992.588,7110.030,6254.787,-0.203,0.976,0.084,0.275,-1.404,0.885,73.333,773.000,1.000
7095.840,5581.623,-90415.806,-95382.906,14883.694,8019.772,7134.257,6272.802,-0.201,0.977,0.084,0.214,-1.434,0.824,73.333,774.000,1.000
7116.240,5604.377,-90121.973,-95090.949,15215.189,8046.068,7157.981,6290.922,-0.197,0.978,0.083,0.183,-1.373,0.793,73.333,775.000,1.000
7135.720,5625.912,-89828.455,-94798.983,15546.164,8069.803,7180.062,6307.875,-0.198,0.978,0.081,0.092,-1.404,0.854,73.333,776.000,1.000
7154.503,5646.499,-89535.520,-94506.969,15876.912,8090.818,7200.374,6323.313,-0.196,0.979,0.083,0.122,-1.373,0.946,73.333,777.000,1.000
7173.029,5666.860,-89242.280,-94214.750,16207.230,8110.517,7219.852,6337.916,-0.196,0.977,0.084,0.153,-1.251,1.129,73.333,778.000,1.000
7191.686,5687.665,-88947.254,-93922.010,16536.600,8131.114,7239.978,6352.629,-0.196,0.975,0.082,0.061,-1.251,1.251,73.333,779.000,1.000
7210.561,5708.902,-88650.070,-93627.250,16864.374,8153.997,7261.552,6367.694,-0.196,0.976,0.080,0.061,-1.312,1.373,73.333,780.000,1.000
7229.079,5729.535,-88351.784,-93325.160,17189.818,8178.442,7283.716,6382.298,-0.197,0.975,0.079,0.153,-1.312,1.465,73.333,781.000,1.000
7246.295,5748.252,-88053.581,-93009.137,17512.134,8202.367,7304.560,6395.268,-0.198,0.975,0.081,0.153,-1.312,1.434,73.333,782.000,1.000
7261.982,5764.934,-87755.783,-92679.295,17831.071,8224.628,7323.158,6406.555,-0.197,0.976,0.081,0.275,-1.251,1.434,73.333,783.000,1.000
7276.942,5780.853,-87458.128,-92345.431,18147.461,8245.950,7340.607,6417.628,-0.197,0.976,0.081,0.366,-1.221,1.404,73.333,784.000,1.000
7292.129,5797.348,-87160.304,-92018.216,18462.715,8267.550,7358.825,6430.179,-0.198,0.977,0.080,0.397,-1.251,1.465,73.333,785.000,1.000
7307.898,5814.805,-86861.794,-91697.946,18777.821,8289.735,7378.867,6444.828,-0.200,0.977,0.079,0.458,-1.251,1.495,73.333,786.000,1.000
7324.155,5832.910,-86562.058,-91376.264,19092.738,8312.003,7400.441,6460.933,-0.198,0.977,0.080,0.488,-1.251,1.465,73.333,787.000,1.000
7340.870,5851.437,-86261.353,-91047.853,19406.922,8334.049,7422.725,6477.512,-0.197,0.974,0.082,0.549,-1.221,1.251,73.333,788.000,1.000
7358.157,5870.392,-85960.590,-90716.024,19720.068,8356.203,7445.063,6494.050,-0.197,0.975,0.081,0.610,-1.251,1.160,73.333,789.000,1.000
7375.990,5889.664,-85660.058,-90385.936,20032.018,8378.978,7466.864,6510.303,-0.195,0.973,0.080,0.549,-1.160,1.160,73.333,790.000,1.000
7393.988,5908.899,-85358.977,-90056.968,20342.427,8402.360,7487.408,6525.818,-0.197,0.973,0.081,0.519,-1.129,0.977,73.333,791.000,1.000
7411.439,5927.617,-85056.852,-89725.605,20650.748,8425.445,7505.950,6539.934,-0.197,0.974,0.083,0.488,-1.129,0.854,73.333,792.000,1.000
7427.725,5945.496,-84754.648,-89391.580,20956.851,8447.066,7522.339,6552.427,-0.200,0.975,0.081,0.366,-1.099,0.671,73.333,793.000,1.000
7442.741,5962.606,-84453.644,-89057.856,21261.464,8466.880,7537.492,6563.878,-0.201,0.977,0.081,0.244,-1.190,0.549,73.333,794.000,1.000
7456.866,5979.366,-84153.463,-88726.128,21565.597,8485.685,7552.964,6575.379,-0.202,0.976,0.083,0.244,-1.221,0.427,73.333,795.000,1.000
7470.689,5996.267,-83852.228,-88395.202,21869.768,8504.724,7569.994,6588.001,-0.202,0.980,0.081,0.244,-1.282,0.305,73.333,796.000,1.000
7484.727,6013.412,-83548.818,-88063.705,22173.797,8524.429,7588.543,6602.049,-0.201,0.982,0.083,0.122,-1.404,0.214,73.333,797.000,1.000
7499.182,6030.371,-83244.254,-87730.317,22477.081,8543.931,7607.192,6616.742,-0.201,0.985,0.081,0.122,-1.434,0.183,73.333,798.000,1.000
7513.743,6046.501,-82940.393,-87393.170,22778.741,8561.808,7624.171,6630.696,-0.200,0.986,0.081,-0.092,-1.465,0.122,73.333,799.000,1.000
7527.743,6061.497,-82637.679,-87052.447,23077.938,8577.501,7638.850,6643.081,-0.198,0.985,0.083,-0.214,-1.495,0.031,73.333,800.000,1.000
7540.727,6075.825,-82334.874,-86712.498,23374.852,8592.372,7652.557,6654.461,-0.196,0.982,0.083,-0.397,-1.465,-0.031,73.333,801.000,1.000
7552.861,6090.507,-82030.489,-86379.075,23670.802,8608.961,7667.591,6666.122,-0.194,0.983,0.083,-0.519,-1.465,0.092,73.333,802.000,1.000
7564.843,6106.358,-81723.777,-86051.896,23967.124,8628.853,7685.313,6678.769,-0.194,0.981,0.084,-0.610,-1.373,0.214,73.333,803.000,1.000
7577.386,6123.304,-81415.042,-85723.320,24264.097,8651.285,7705.027,6691.991,-0.193,0.980,0.082,-0.763,-1.373,0.275,73.333,804.000,1.000
7590.762,6140.424,-81105.595,-85387.657,24560.999,8673.783,7724.584,6704.775,-0.195,0.978,0.081,-0.702,-1.221,0.244,73.333,805.000,1.000
7604.882,6156.778,-80797.000,-85048.621,24857.219,8694.159,7742.192,6716.419,-0.197,0.976,0.080,-0.702,-1.251,0.458,73.333,806.000,1.000
7619.563,6172.116,-80489.957,-84715.561,25152.725,8711.894,7757.563,6726.700,-0.199,0.975,0.084,-0.702,-1.190,0.610,73.333,807.000,1.000
7634.597,6186.870,-80183.904,-84392.690,25447.513,8728.099,7771.632,6735.637,-0.199,0.974,0.082,-0.580,-1.129,0.702,73.333,808.000,1.000
7649.713,6201.707,-79877.728,-84075.069,25741.175,8744.330,7785.528,6743.573,-0.197,0.973,0.080,-0.519,-1.129,0.854,73.333,809.000,1.000
7664.615,6217.188,-79570.795,-83755.671,26033.208,8761.403,7799.956,6751.420,-0.202,0.972,0.079,-0.488,-1.221,0.977,73.333,810.000,1.000
7679.035,6233.639,-79263.250,-83433.017,26323.662,8779.245,7815.343,6760.300,-0.201,0.969,0.083,-0.427,-1.129,1.007,73.333,811.000,1.000
7692.856,6251.059,-78955.396,-83110.995,26613.131,8797.339,7831.813,6770.565,-0.201,0.970,0.084,-0.305,-1.129,1.038,73.333,812.000,1.000
7706.418,6269.247,-78647.066,-82792.080,26902.079,8815.188,7849.055,6781.680,-0.200,0.970,0.084,-0.305,-1.099,1.007,73.333,813.000,1.000
7720.381,6287.887,-78337.961,-82474.069,27190.059,8832.498,7866.436,6792.985,-0.202,0.970,0.084,-0.336,-1.099,0.977,73.333,814.000,1.000
7735.230,6306.655,-78028.339,-82154.034,27476.044,8849.360,7883.554,6804.369,-0.202,0.969,0.085,-0.183,-1.160,0.946,73.333,815.000,1.000
7751.128,6325.504,-77718.875,-81832.142,27759.865,8866.458,7900.874,6816.411,-0.201,0.969,0.086,-0.183,-1.221,0.885,73.333,816.000,1.000
7767.872,6344.453,-77409.884,-81511.266,28042.503,8884.387,7919.044,6829.511,-0.201,0.969,0.083,-0.336,-1.312,0.916,73.333,817.000,1.000
7784.755,6363.113,-77100.975,-81193.097,28324.967,8902.890,7937.745,6842.976,-0.200,0.970,0.083,-0.214,-1.251,0.824,73.333,818.000,1.000
7800.764,6380.830,-76791.538,-80876.283,28607.375,8921.129,7955.753,6855.159,-0.202,0.972,0.082,-0.122,-1.312,0.732,73.333,819.000,1.000
7815.282,6397.431,-76481.418,-80558.784,28889.090,8938.656,7972.159,6864.663,-0.201,0.971,0.086,-0.275,-1.282,0.702,73.333,820.000,1.000
7828.650,6413.609,-76170.954,-80240.021,29169.626,8956.201,7987.549,6871.694,-0.201,0.971,0.082,-0.275,-1.282,0.702,73.333,821.000,1.000
7841.656,6430.081,-75860.512,-79921.248,29448.893,8974.910,8003.382,6877.800,-0.199,0.973,0.084,-0.214,-1.312,0.671,73.333,822.000,1.000
7854.628,6446.548,-75550.089,-79603.685,29726.834,8994.525,8020.052,6884.153,-0.199,0.975,0.083,-0.244,-1.373,0.702,73.333,823.000,1.000
7867.430,6462.112,-75239.349,-79286.983,30003.458,9013.239,8036.474,6890.774,-0.198,0.977,0.086,-0.366,-1.404,0.793,73.333,824.000,1.000
7880.045,6476.496,-74928.067,-78970.139,30278.943,9029.712,8051.703,6897.582,-0.197,0.977,0.084,-0.488,-1.373,0.854,73.333,825.000,1.000
7892.581,6490.268,-74616.474,-78652.798,30553.410,9044.389,8066.013,6905.208,-0.196,0.978,0.083,-0.488,-1.251,0.916,73.333,826.000,1.000
7904.885,6504.106,-74304.986,-78335.823,30826.727,9058.771,8080.265,6914.433,-0.197,0.979,0.081,-0.488,-1.251,0.885,73.333,827.000,1.000
