EEG 1,EEG 2,EEG 3,EEG 4,EEG 5,EEG 6,EEG 7,EEG 8,Accelerometer X,Accelerometer Y,Accelerometer Z,Gyroscope X,Gyroscope Y,Gyroscope Z,Battery Level,Counter,Validation Indicator
4899.787,1037.269,-9519.052,-8821.647,49888.277,4421.699,-2115.245,1323.188,-0.260,0.989,0.101,0.000,0.000,0.000,73.333,1.000,1.000
34552.563,6536.205,-19125.630,-60746.906,77115.835,35638.597,-15688.764,7399.681,-0.272,0.989,0.095,0.000,0.000,0.000,73.333,2.000,1.000
111683.654,18230.598,-47257.036,-202475.742,151685.714,120907.325,-52456.045,22464.004,-0.278,0.985,0.092,0.000,0.000,0.000,73.333,3.000,1.000
233371.843,37930.977,-96679.641,-433662.476,277211.084,262173.326,-112576.127,49506.001,-0.284,0.980,0.094,0.000,0.000,0.000,73.333,4.000,1.000
368199.802,77685.243,-150861.692,-669078.289,425911.871,418615.876,-177321.568,93853.550,-0.289,0.976,0.094,0.000,0.000,0.000,73.333,5.000,1.000
483217.431,156520.039,-179178.553,-777598.061,557057.360,529641.419,-217459.362,158304.929,-0.292,0.969,0.098,-8.118,4.761,-1.068,73.333,6.000,1.000
560353.782,278628.812,-156182.189,-672447.121,638795.473,556612.608,-207110.033,235044.170,-0.292,0.965,0.094,-27.588,16.632,-6.104,73.333,7.000,1.000
596263.772,422712.195,-77568.505,-373165.559,660252.929,510555.649,-135497.827,314688.548,-0.292,0.961,0.098,-32.959,19.928,-7.935,73.333,8.000,1.000
601291.686,554043.926,37464.126,7938.677,634911.660,443642.502,-10437.368,396275.162,-0.289,0.960,0.104,-35.309,21.088,-8.606,73.333,9.000,1.000
594694.948,642462.431,156450.108,331403.666,592588.583,412533.638,148360.304,478368.736,-0.289,0.957,0.108,-36.652,21.423,-9.003,73.333,10.000,1.000
590720.335,674532.785,251141.604,504962.645,561114.951,443418.824,316426.907,551158.763,-0.292,0.956,0.118,-37.628,21.362,-9.186,73.333,11.000,1.000
586710.068,657409.043,311594.122,527034.193,550595.480,519797.407,468019.514,601300.678,-0.297,0.952,0.131,-38.666,21.088,-9.064,73.333,12.000,1.000
567062.186,611031.054,346061.501,469872.627,553520.554,597865.843,582167.213,616244.668,-0.302,0.940,0.146,-39.825,20.752,-8.972,73.333,13.000,1.000
519726.687,552757.522,368552.375,416409.125,558230.931,638589.168,648715.253,586586.847,-0.309,0.926,0.156,-41.077,20.294,-8.759,73.333,14.000,1.000
446991.610,488009.454,386654.375,403991.714,560193.450,630320.375,668186.168,512540.122,-0.317,0.907,0.167,-42.084,19.653,-8.636,73.333,15.000,1.000
360690.221,413808.784,399145.947,418536.033,561083.365,584759.547,648439.720,408720.146,-0.326,0.893,0.179,-42.572,18.951,-8.545,73.333,16.000,1.000
272471.713,329832.771,402526.629,432270.177,561457.589,517698.499,602059.732,299537.580,-0.329,0.884,0.184,-42.603,17.944,-8.850,73.333,17.000,1.000
191896.865,246028.084,397962.669,437462.990,558525.418,437649.596,543534.909,207866.443,-0.332,0.880,0.196,-42.267,16.785,-9.033,73.333,18.000,1.000
129127.345,178433.569,391203.550,443322.014,550906.764,350826.579,484470.013,145623.723,-0.331,0.874,0.211,-42.023,15.594,-9.155,73.333,19.000,1.000
92278.570,136905.042,386834.582,452645.132,542107.330,270348.177,429635.813,112055.188,-0.327,0.871,0.226,-41.748,14.465,-9.186,73.333,20.000,1.000
80350.708,118133.923,384585.650,454787.260,537087.120,213350.671,379187.198,98832.886,-0.310,0.866,0.250,-40.955,13.031,-9.003,73.333,21.000,1.000
81921.276,110956.902,381748.243,442097.924,536509.356,186976.880,334788.143,96346.547,-0.292,0.865,0.260,-39.978,12.512,-8.606,73.333,22.000,1.000
83480.584,106565.434,377655.241,423370.302,536382.776,180771.778,300810.253,96848.957,-0.276,0.872,0.270,-38.849,12.268,-8.057,73.333,23.000,1.000
78991.752,102395.387,374301.868,414446.126,533277.224,176320.230,278773.155,94964.620,-0.262,0.879,0.283,-37.537,12.268,-7.233,73.333,24.000,1.000
70841.701,98251.806,373061.173,419114.730,528103.872,163677.364,263470.733,88120.110,-0.251,0.892,0.289,-36.530,12.421,-5.920,73.333,25.000,1.000
63058.120,92401.282,372522.686,425887.583,524030.219,146333.813,247139.908,77176.054,-0.238,0.903,0.290,-35.492,12.878,-4.700,73.333,26.000,1.000
56041.835,82956.395,370327.823,423601.188,522041.777,131557.036,226877.070,65505.391,-0.230,0.911,0.293,-34.485,13.519,-3.357,73.333,27.000,1.000
48096.618,71235.262,366224.002,414391.296,520090.702,120191.002,206131.418,56242.730,-0.223,0.920,0.300,-33.234,14.343,-2.045,73.333,28.000,1.000
39542.468,61244.617,362212.606,408383.424,516302.209,107792.211,189057.393,50042.917,-0.219,0.927,0.307,-32.227,15.320,-0.641,73.333,29.000,1.000
32959.541,55440.482,359863.773,409493.262,511462.468,92750.281,175425.815,45437.535,-0.218,0.934,0.312,-31.250,16.266,0.732,73.333,30.000,1.000
29655.023,52265.868,358501.256,411512.480,507680.967,79133.362,162037.299,40953.656,-0.220,0.940,0.317,-30.060,17.273,2.045,73.333,31.000,1.000
27741.340,48471.315,356406.884,407749.088,505518.390,71031.659,147592.346,36409.383,-0.228,0.946,0.325,-29.114,18.219,3.387,73.333,32.000,1.000
24455.254,42946.547,353109.497,399821.465,503489.994,66957.258,134145.841,32291.299,-0.233,0.953,0.326,-28.320,18.829,4.669,73.333,33.000,1.000
19374.555,37315.251,349750.251,394523.965,500211.441,61804.000,123789.042,28590.281,-0.239,0.959,0.328,-27.679,19.226,6.012,73.333,34.000,1.000
14382.530,33202.294,347382.702,394553.947,496062.954,53171.864,115632.107,24749.725,-0.242,0.965,0.333,-27.130,19.653,7.172,73.333,35.000,1.000
10935.607,30149.165,345663.461,395748.819,492390.252,43646.993,107061.469,20541.882,-0.247,0.968,0.335,-26.398,19.989,8.392,73.333,36.000,1.000
8467.057,26609.319,343496.726,393253.424,489692.467,36803.703,97121.731,16466.593,-0.251,0.972,0.340,-25.909,20.203,9.399,73.333,37.000,1.000
5619.060,22162.858,340505.298,387488.595,487213.914,32773.629,87393.459,13127.603,-0.251,0.969,0.342,-25.299,20.355,10.376,73.333,38.000,1.000
2132.080,17912.456,337374.972,382654.195,484127.752,28782.606,79596.686,10500.097,-0.255,0.969,0.352,-24.841,20.355,11.139,73.333,39.000,1.000
-1111.771,14874.138,334851.515,381006.337,480521.709,23056.614,73428.686,8041.076,-0.255,0.972,0.365,-24.109,20.264,11.597,73.333,40.000,1.000
-3494.197,12727.900,332848.650,380622.965,477065.875,16735.803,67283.270,5385.273,-0.257,0.984,0.380,-23.376,20.172,12.207,73.333,41.000,1.000
-5387.474,10405.428,330707.086,378547.433,474102.588,11905.586,60430.553,2683.285,-0.248,0.999,0.391,-22.797,20.172,12.512,73.333,42.000,1.000
-7467.420,7450.735,328065.190,374403.306,471367.421,8892.771,53680.109,260.437,-0.245,1.004,0.397,-22.430,20.020,13.123,73.333,43.000,1.000
-9855.103,4380.097,325205.320,370213.788,468450.729,6173.574,48021.123,-1830.708,-0.237,1.014,0.400,-22.552,19.867,13.702,73.333,44.000,1.000
-12187.081,1858.010,322603.522,367610.989,465245.256,2440.302,43343.960,-3802.859,-0.229,1.011,0.397,-22.614,19.806,14.343,73.333,45.000,1.000
-14205.358,-73.200,320370.057,366201.231,461938.337,-2003.852,38787.283,-5809.506,-0.223,1.009,0.399,-22.675,19.775,15.045,73.333,46.000,1.000
-15957.389,-1873.666,318209.129,364465.349,458765.855,-5911.788,33905.392,-7787.065,-0.209,1.007,0.400,-22.308,19.775,15.564,73.333,47.000,1.000
-17560.578,-3894.969,315808.394,361513.518,455832.023,-8610.850,29053.076,-9598.868,-0.205,1.011,0.401,-21.881,19.897,16.296,73.333,48.000,1.000
-19079.525,-6066.405,313160.880,357791.844,453041.313,-10594.489,24749.875,-11209.248,-0.193,1.018,0.404,-21.332,20.203,16.693,73.333,49.000,1.000
-20615.514,-8079.219,310526.484,354457.461,450149.123,-12829.996,21056.446,-12682.438,-0.187,1.027,0.403,-20.691,20.538,17.426,73.333,50.000,1.000
-22248.830,-9726.585,308140.653,352235.350,446986.177,-15735.222,17647.853,-14091.673,-0.174,1.036,0.398,-20.294,20.844,17.914,73.333,51.000,1.000
-23835.470,-11078.737,305971.943,350698.843,443695.078,-18827.146,14241.265,-15477.695,-0.174,1.037,0.395,-19.775,21.210,18.433,73.333,52.000,1.000
-25096.104,-12413.151,303755.981,348633.828,440631.437,-21281.315,10802.700,-16846.054,-0.168,1.037,0.393,-19.409,21.637,18.799,73.333,53.000,1.000
-26029.292,-13958.822,301282.734,345338.109,437927.631,-22835.849,7471.765,-18153.862,-0.168,1.024,0.392,-18.768,22.156,19.318,73.333,54.000,1.000
-27030.770,-15643.668,298647.552,341558.280,435259.405,-24125.423,4429.287,-19330.769,-0.165,1.013,0.397,-18.402,22.675,19.684,73.333,55.000,1.000
-28396.606,-17130.149,296162.730,338760.102,432218.201,-26005.234,1765.527,-20366.147,-0.170,0.997,0.400,-17.670,23.102,19.989,73.333,56.000,1.000
-29849.087,-18194.335,293985.774,337311.696,428873.241,-28525.198,-646.853,-21355.293,-0.171,0.986,0.404,-17.029,23.376,20.233,73.333,57.000,1.000
-30846.183,-19041.813,291901.353,335845.196,425736.742,-30791.973,-3095.478,-22397.850,-0.177,0.968,0.409,-15.900,23.560,20.660,73.333,58.000,1.000
-31345.925,-20105.097,289568.105,332894.477,423093.941,-32036.999,-5711.517,-23453.877,-0.177,0.956,0.410,-14.862,23.407,20.844,73.333,59.000,1.000
-31937.732,-21492.944,286959.638,328876.823,420582.227,-32643.067,-8245.811,-24373.319,-0.183,0.943,0.414,-13.489,23.285,21.118,73.333,60.000,1.000
-33061.442,-22804.522,284424.394,325697.612,417646.349,-33741.345,-10330.449,-25097.875,-0.180,0.940,0.414,-12.115,23.102,21.240,73.333,61.000,1.000
-34365.823,-23628.867,282244.005,324263.917,414299.261,-35765.176,-11986.436,-25765.348,-0.182,0.944,0.415,-10.590,22.766,21.606,73.333,62.000,1.000
-35155.170,-24115.965,280249.679,323174.350,411135.532,-37830.746,-13676.862,-26544.357,-0.184,0.952,0.415,-9.064,22.369,21.637,73.333,63.000,1.000
-35359.372,-24821.508,278026.413,320503.270,408533.471,-38859.998,-15729.670,-27403.015,-0.181,0.963,0.418,-7.721,21.881,21.637,73.333,64.000,1.000
-35667.534,-25973.365,275463.427,316411.086,406123.913,-39034.359,-17868.086,-28139.613,-0.178,0.977,0.417,-6.531,21.423,21.515,73.333,65.000,1.000
-36593.206,-27141.928,272915.622,313009.125,403278.066,-39609.400,-19547.005,-28657.982,-0.172,0.991,0.417,-5.707,20.813,21.515,73.333,66.000,1.000
-37753.190,-27802.175,270737.027,311537.340,399967.699,-41258.269,-20704.845,-29113.785,-0.161,1.000,0.415,-5.096,20.416,21.423,73.333,67.000,1.000
-38384.440,-28054.647,268801.086,310648.667,396813.083,-43147.237,-21894.295,-29713.769,-0.147,1.004,0.412,-4.486,19.928,21.484,73.333,68.000,1.000
-38403.109,-28511.210,266663.266,308196.998,394238.351,-44034.204,-23554.188,-30431.377,-0.135,1.003,0.409,-4.120,19.775,21.729,73.333,69.000,1.000
-38531.791,-29472.138,264158.889,304150.763,391890.109,-43946.611,-25395.321,-31036.451,-0.122,0.993,0.404,-3.632,19.653,21.973,73.333,70.000,1.000
-39305.813,-30510.947,261628.043,300652.090,389121.196,-44161.816,-26773.902,-31410.272,-0.113,0.983,0.397,-2.777,19.592,22.339,73.333,71.000,1.000
-40333.423,-31048.023,259456.976,299110.647,385875.146,-45489.399,-27573.332,-31712.058,-0.108,0.971,0.390,-1.587,19.623,22.614,73.333,72.000,1.000
-40836.891,-31139.572,257556.073,298291.557,382757.007,-47176.933,-28380.196,-32162.012,-0.103,0.964,0.385,-0.305,19.867,22.797,73.333,73.000,1.000
-40723.612,-31402.914,255483.845,296007.489,380201.156,-47932.401,-29691.646,-32739.669,-0.099,0.965,0.381,1.068,19.928,22.888,73.333,74.000,1.000
-40706.414,-32177.599,253046.089,292091.144,377884.706,-47674.632,-31234.568,-33214.275,-0.096,0.969,0.382,2.533,20.050,22.919,73.333,75.000,1.000
-41318.151,-33068.796,250541.805,288581.670,375174.263,-47632.011,-32339.160,-33463.498,-0.096,0.979,0.375,3.937,20.386,22.858,73.333,76.000,1.000
-42190.149,-33492.674,248295.409,286880.798,371950.558,-48669.919,-32859.228,-33639.621,-0.092,0.987,0.368,4.913,20.508,22.766,73.333,77.000,1.000
-42577.596,-33470.860,246107.547,285772.683,368659.971,-50134.616,-33373.764,-33957.609,-0.086,0.993,0.363,5.798,20.691,22.583,73.333,78.000,1.000
-42384.640,-33591.297,243399.300,282995.573,365562.107,-50769.364,-34395.714,-34402.785,-0.083,1.003,0.367,6.378,20.782,22.278,73.333,79.000,1.000
-42277.051,-34204.439,239880.803,278193.420,362259.725,-50423.300,-35679.800,-34759.631,-0.079,1.019,0.385,6.775,20.935,22.003,73.333,80.000,1.000
-42756.787,-34960.722,235874.762,273266.171,358181.468,-50227.642,-36574.361,-34914.330,-0.067,1.048,0.400,6.531,20.966,20.996,73.333,81.000,1.000
-43491.548,-35305.724,231914.264,269772.031,353374.434,-51042.126,-36919.438,-35010.380,-0.057,1.083,0.400,5.737,21.301,20.203,73.333,82.000,1.000
-43799.425,-35235.049,228177.141,266989.616,348539.509,-52314.265,-37255.209,-35248.246,-0.053,1.098,0.392,5.219,21.454,19.867,73.333,83.000,1.000
-43585.289,-35281.365,224462.135,263172.017,344251.369,-52870.805,-38072.735,-35612.207,-0.046,1.109,0.369,3.845,22.003,19.531,73.333,84.000,1.000
-43442.208,-35778.264,220643.739,258105.775,340376.787,-52508.408,-39150.887,-35898.215,-0.046,1.090,0.344,1.892,22.614,19.287,73.333,85.000,1.000
-43818.921,-36419.773,216931.096,253432.948,336407.221,-52219.969,-39877.238,-35994.736,-0.041,1.045,0.323,0.275,22.766,19.043,73.333,86.000,1.000
-44422.863,-36696.771,213589.525,250396.187,332196.647,-52813.452,-40087.268,-36027.881,-0.027,0.994,0.317,-0.427,22.797,18.799,73.333,87.000,1.000
-44652.368,-36587.268,210548.610,248172.813,328113.084,-53845.457,-40269.426,-36181.680,-0.011,0.948,0.322,-0.275,23.163,18.646,73.333,88.000,1.000
-44421.348,-36563.015,207461.541,245031.080,324468.439,-54279.657,-40883.626,-36450.341,0.005,0.916,0.330,0.702,23.926,18.524,73.333,89.000,1.000
-44245.779,-36936.533,204140.756,240643.037,321061.868,-53903.153,-41748.236,-36658.290,0.020,0.904,0.337,2.167,24.994,18.433,73.333,90.000,1.000
-44518.800,-37455.666,200780.223,236417.340,317455.167,-53570.330,-42317.259,-36706.566,0.027,0.902,0.331,3.845,26.215,18.341,73.333,91.000,1.000
-44994.985,-37673.213,197676.978,233522.056,313566.756,-54011.625,-42432.233,-36702.062,0.029,0.911,0.314,5.371,27.283,18.433,73.333,92.000,1.000
-45160.730,-37553.930,194841.209,231359.526,309763.524,-54872.926,-42514.939,-36802.632,0.031,0.919,0.294,6.531,28.381,18.646,73.333,93.000,1.000
-44937.447,-37495.728,192010.227,228483.034,306352.979,-55248.828,-42971.847,-37002.129,0.031,0.930,0.284,7.568,29.510,19.012,73.333,94.000,1.000
-44755.727,-37773.387,189017.570,224573.382,303186.539,-54911.379,-43652.311,-37147.343,0.033,0.941,0.277,8.514,30.426,19.196,73.333,95.000,1.000
-44946.227,-38182.664,186004.347,220780.993,299890.201,-54563.586,-44083.995,-37151.381,0.035,0.958,0.275,9.705,31.464,19.287,73.333,96.000,1.000
-45309.045,-38344.974,183205.661,218095.947,296370.758,-54848.727,-44124.980,-37106.695,0.037,0.968,0.273,10.284,32.257,19.562,73.333,97.000,1.000
-45420.685,-38222.261,180627.048,216047.609,292909.110,-55510.060,-44134.555,-37152.366,0.040,0.972,0.273,10.620,33.203,19.745,73.333,98.000,1.000
-45212.767,-38143.541,178048.612,213430.318,289753.334,-55797.384,-44464.133,-37287.782,0.041,0.973,0.263,10.742,34.149,19.989,73.333,99.000,1.000
-45032.719,-38343.266,175327.907,209943.049,286791.333,-55491.367,-44991.472,-37383.974,0.040,0.969,0.255,10.712,34.943,20.172,73.333,100.000,1.000
-45149.726,-38659.541,172579.104,206509.227,283727.475,-55150.107,-45315.939,-37363.344,0.040,0.967,0.241,10.712,35.675,20.142,73.333,101.000,1.000
-45407.884,-38779.342,170001.511,203962.268,280485.633,-55315.526,-45309.346,-37297.305,0.039,0.963,0.230,10.712,36.224,20.264,73.333,102.000,1.000
-45471.240,-38663.047,167610.615,201961.019,277287.743,-55806.317,-45265.537,-37299.573,0.035,0.958,0.226,10.529,36.774,20.386,73.333,103.000,1.000
-45283.141,-38573.850,165232.213,199538.353,274334.215,-56017.920,-45481.524,-37373.935,0.030,0.948,0.219,10.040,37.109,20.599,73.333,104.000,1.000
-45114.994,-38707.627,162744.400,196418.690,271542.562,-55751.105,-45869.810,-37422.386,0.021,0.935,0.215,9.979,37.354,20.844,73.333,105.000,1.000
-45178.825,-38943.743,160229.567,193310.619,268681.127,-55437.771,-46110.074,-37387.249,0.015,0.922,0.210,10.559,37.537,20.569,73.333,106.000,1.000
-45355.081,-39031.603,157846.613,190888.873,265684.003,-55521.273,-46091.995,-37324.831,0.012,0.919,0.203,12.054,37.567,20.264,73.333,107.000,1.000
-45382.463,-38929.080,155615.512,188919.437,262717.118,-55878.132,-46040.350,-37319.250,0.008,0.926,0.200,13.550,37.231,19.806,73.333,108.000,1.000
-45213.619,-38836.554,153402.869,186652.850,259935.764,-56031.402,-46187.257,-37366.082,0.009,0.936,0.201,14.832,36.713,19.379,73.333,109.000,1.000
-45052.942,-38911.270,151108.287,183846.127,257283.374,-55800.699,-46464.075,-37382.838,0.011,0.943,0.202,15.656,36.285,19.226,73.333,110.000,1.000
-45061.919,-39066.487,148789.681,181021.577,254588.089,-55502.289,-46616.998,-37321.728,0.009,0.947,0.201,16.357,35.889,18.951,73.333,111.000,1.000
-45154.672,-39109.359,146570.868,178708.602,251796.728,-55488.995,-46557.029,-37229.122,0.009,0.951,0.197,17.029,35.400,18.585,73.333,112.000,1.000
-45140.137,-39003.584,144473.686,176760.581,249027.055,-55695.831,-46464.054,-37179.830,0.011,0.948,0.193,17.792,34.668,18.097,73.333,113.000,1.000
-44983.996,-38901.840,142399.595,174619.548,246393.581,-55775.081,-46531.118,-37181.797,0.015,0.946,0.186,18.799,34.088,17.609,73.333,114.000,1.000
-44834.668,-38930.600,140267.805,172077.367,243859.922,-55579.116,-46717.479,-37175.786,0.020,0.947,0.186,19.897,33.478,17.273,73.333,115.000,1.000
-44809.327,-39033.049,138114.638,169496.692,241303.705,-55330.197,-46830.726,-37119.997,0.026,0.950,0.183,20.691,32.898,16.998,73.333,116.000,1.000
-44847.459,-39064.200,136031.843,167276.215,238682.491,-55294.912,-46793.993,-37040.232,0.030,0.952,0.178,21.667,32.379,16.693,73.333,117.000,1.000
-44811.799,-38984.959,134042.545,165339.694,236075.192,-55438.518,-46730.495,-36985.935,0.032,0.957,0.172,22.552,32.013,16.296,73.333,118.000,1.000
-44673.545,-38896.080,132080.359,163295.595,233564.250,-55504.138,-46779.481,-36963.061,0.034,0.965,0.167,23.285,31.616,15.839,73.333,119.000,1.000
-44532.914,-38891.239,130084.269,160972.992,231131.247,-55364.147,-46915.510,-36933.883,0.040,0.974,0.158,23.865,31.433,15.411,73.333,120.000,1.000
-44473.576,-38941.015,128073.517,158603.308,228695.103,-55163.918,-47003.623,-36873.844,0.042,0.984,0.157,24.292,31.097,14.893,73.333,121.000,1.000
-44461.800,-38949.589,126111.089,156470.965,226221.796,-55103.682,-46987.697,-36803.106,0.048,0.991,0.156,24.506,30.884,14.252,73.333,122.000,1.000
-44409.877,-38886.109,124217.761,154551.016,223756.743,-55181.719,-46951.375,-36754.868,0.051,0.999,0.154,24.506,30.823,13.733,73.333,123.000,1.000
-44294.997,-38813.602,122351.419,152587.602,221353.620,-55225.233,-46990.986,-36730.095,0.051,1.008,0.154,24.445,30.823,13.336,73.333,124.000,1.000
-44174.032,-38794.892,120467.711,150444.603,219007.004,-55127.141,-47089.295,-36698.609,0.056,1.018,0.155,24.139,30.853,13.000,73.333,125.000,1.000
-44095.836,-38812.973,118574.511,148250.832,216670.630,-54964.280,-47151.111,-36638.474,0.057,1.027,0.155,23.712,31.036,12.665,73.333,126.000,1.000
-44041.989,-38803.715,116713.996,146198.125,214320.911,-54873.000,-47133.025,-36559.633,0.058,1.035,0.153,22.766,31.128,12.238,73.333,127.000,1.000
-43964.305,-38742.229,114905.747,144300.292,211979.024,-54875.934,-47090.071,-36486.325,0.058,1.043,0.156,21.759,31.372,11.963,73.333,128.000,1.000
-43850.708,-38666.955,113126.336,142409.596,209675.142,-54877.002,-47093.323,-36426.709,0.054,1.048,0.156,20.325,31.403,11.932,73.333,129.000,1.000
-43731.327,-38623.116,111343.612,140419.711,207411.416,-54798.768,-47141.962,-36368.338,0.051,1.046,0.151,18.799,31.525,11.810,73.333,130.000,1.000
-43632.727,-38608.989,109555.069,138378.620,205166.416,-54671.450,-47179.087,-36299.372,0.048,1.034,0.146,17.792,31.555,11.566,73.333,131.000,1.000
-43549.352,-38587.435,107784.770,136401.715,202923.853,-54577.377,-47170.947,-36223.285,0.042,1.021,0.135,16.876,31.647,11.200,73.333,132.000,1.000
-43459.924,-38534.418,106050.866,134529.688,200687.250,-54544.069,-47139.700,-36150.017,0.039,1.007,0.130,16.449,31.647,10.925,73.333,133.000,1.000
-43354.477,-38461.277,104346.389,132700.704,198470.750,-54519.772,-47121.501,-36080.603,0.032,0.991,0.127,16.510,31.586,10.742,73.333,134.000,1.000
-43238.777,-38393.904,102651.341,130837.101,196283.499,-54442.937,-47118.900,-36006.621,0.028,0.976,0.124,16.632,31.494,10.498,73.333,135.000,1.000
-43122.769,-38342.855,100956.028,128927.743,194122.575,-54310.241,-47105.709,-35921.741,0.025,0.969,0.118,17.151,31.433,10.162,73.333,136.000,1.000
-43013.086,-38296.866,99268.726,127026.375,191975.904,-54170.660,-47064.236,-35828.229,0.024,0.965,0.117,17.639,31.311,9.918,73.333,137.000,1.000
-42911.306,-38238.816,97603.295,125187.849,189832.115,-54066.235,-47002.225,-35732.206,0.023,0.966,0.113,18.280,31.189,9.644,73.333,138.000,1.000
-42811.176,-38163.135,95963.282,123412.357,187691.909,-53988.955,-46936.427,-35636.474,0.023,0.972,0.112,18.951,31.006,9.369,73.333,139.000,1.000
-42700.190,-38079.226,94338.984,121647.162,185569.525,-53893.778,-46871.779,-35538.934,0.022,0.977,0.103,19.562,30.731,9.094,73.333,140.000,1.000
-42572.408,-38000.437,92718.874,119842.905,183477.932,-53748.243,-46799.118,-35435.375,0.021,0.983,0.100,19.989,30.426,8.881,73.333,141.000,1.000
-42439.263,-37929.516,91102.704,118010.169,181411.829,-53566.809,-46706.437,-35322.921,0.017,0.993,0.094,20.264,30.334,8.667,73.333,142.000,1.000
-42318.803,-37855.237,89501.872,116212.139,179351.445,-53395.276,-46590.229,-35203.210,0.017,1.001,0.090,20.386,30.029,8.575,73.333,143.000,1.000
-42211.983,-37765.633,87925.857,114491.438,177286.731,-53260.576,-46460.182,-35083.226,0.016,1.009,0.085,20.203,29.663,8.423,73.333,144.000,1.000
-42099.037,-37664.690,86369.796,112812.968,175231.703,-53140.793,-46334.216,-34970.580,0.016,1.014,0.082,19.897,29.419,8.240,73.333,145.000,1.000
-41966.135,-37571.623,84818.668,111100.425,173206.873,-52993.451,-46224.827,-34866.349,0.020,1.013,0.073,19.470,29.175,8.087,73.333,146.000,1.000
-41827.490,-37499.907,83264.681,109331.724,171210.383,-52811.957,-46127.492,-34764.200,0.023,1.009,0.072,18.860,28.839,8.087,73.333,147.000,1.000
-41708.708,-37440.098,81716.982,107572.278,169217.719,-52639.329,-46025.965,-34658.376,0.021,1.005,0.069,18.494,28.534,8.087,73.333,148.000,1.000
-41610.692,-37369.955,80190.241,105893.609,167213.347,-52516.291,-45912.619,-34551.050,0.022,1.002,0.065,17.975,28.381,8.270,73.333,149.000,1.000
-41504.985,-37281.743,78685.337,104277.096,165212.419,-52426.334,-45799.388,-34448.616,0.022,0.995,0.062,17.487,28.107,8.453,73.333,150.000,1.000
-41370.777,-37191.682,77187.488,102633.686,163241.464,-52311.656,-45701.848,-34351.034,0.020,0.991,0.063,17.090,27.802,8.698,73.333,151.000,1.000
-41223.943,-37117.287,75685.601,100921.221,161302.692,-52144.905,-45614.940,-34249.367,0.019,0.987,0.062,16.449,27.496,9.155,73.333,152.000,1.000
-41096.041,-37051.556,74188.019,99204.481,159370.841,-51964.004,-45514.568,-34136.637,0.015,0.983,0.062,15.808,27.039,9.583,73.333,153.000,1.000
-40990.582,-36970.291,72712.788,97572.042,157427.902,-51821.792,-45387.794,-34018.477,0.013,0.978,0.060,15.015,26.550,10.101,73.333,154.000,1.000
-40877.958,-36865.492,71263.805,96016.878,155488.114,-51716.370,-45253.776,-33909.107,0.008,0.969,0.056,14.313,25.970,10.803,73.333,155.000,1.000
-40737.451,-36759.793,69824.417,94442.749,153578.152,-51596.192,-45144.679,-33816.574,0.004,0.959,0.055,13.702,25.391,11.169,73.333,156.000,1.000
-40587.879,-36679.577,68378.121,92791.755,151699.424,-51433.433,-45067.492,-33734.938,0.000,0.947,0.046,13.214,24.841,11.597,73.333,157.000,1.000
-40463.011,-36620.665,66929.547,91122.016,149824.777,-51265.246,-44996.204,-33652.350,-0.002,0.936,0.041,13.062,24.139,11.658,73.333,158.000,1.000
-40364.590,-36552.838,65497.800,89529.155,147934.896,-51144.804,-44905.816,-33563.941,-0.002,0.930,0.036,13.214,23.376,11.719,73.333,159.000,1.000
-40258.122,-36458.464,64090.942,88017.159,146044.681,-51067.688,-44803.515,-33473.440,-0.001,0.930,0.034,13.611,22.583,11.505,73.333,160.000,1.000
-40118.361,-36354.214,62695.617,86493.746,144183.144,-50974.723,-44715.787,-33383.348,-0.001,0.934,0.032,14.038,21.759,11.261,73.333,161.000,1.000
-39962.767,-36267.253,61295.372,84895.992,142354.157,-50829.240,-44650.196,-33288.956,0.002,0.944,0.031,14.404,21.027,11.078,73.333,162.000,1.000
-39827.608,-36199.027,59892.603,83274.727,140531.508,-50665.613,-44585.330,-33185.717,0.003,0.956,0.033,14.496,20.233,10.742,73.333,163.000,1.000
-39719.970,-36125.761,58504.499,81723.666,138694.422,-50543.867,-44502.769,-33079.299,0.004,0.969,0.032,14.343,19.409,10.437,73.333,164.000,1.000
-39610.884,-36033.474,57138.915,80251.528,136854.646,-50471.173,-44415.648,-32982.260,0.005,0.979,0.030,13.947,18.646,10.010,73.333,165.000,1.000
-39477.013,-35938.322,55783.451,78771.565,135039.020,-50395.038,-44352.711,-32899.720,0.004,0.986,0.023,13.336,17.731,9.583,73.333,166.000,1.000
-39332.060,-35864.198,54422.614,77220.613,133252.816,-50275.132,-44318.650,-32822.465,0.005,0.990,0.022,12.665,16.907,9.186,73.333,167.000,1.000
-39205.527,-35808.887,53059.055,75643.602,131473.746,-50135.565,-44285.611,-32737.311,0.007,0.994,0.019,12.238,16.449,8.972,73.333,168.000,1.000
-39100.539,-35745.935,51709.646,74130.018,129683.150,-50028.939,-44228.703,-32642.229,0.007,0.997,0.015,11.444,15.625,8.667,73.333,169.000,1.000
-38989.541,-35659.555,50382.492,72692.504,127890.994,-49963.194,-44156.942,-32546.640,0.010,0.996,0.009,10.651,14.801,8.148,73.333,170.000,1.000
-38852.115,-35564.180,49066.620,71253.051,126121.530,-49890.200,-44097.467,-32456.915,0.012,0.991,0.005,9.888,14.008,7.782,73.333,171.000,1.000
-38702.191,-35483.003,47747.541,69751.180,124380.380,-49770.129,-44056.584,-32367.753,0.015,0.980,0.002,9.308,13.275,7.324,73.333,172.000,1.000
-38568.673,-35416.629,46426.673,68223.932,122647.886,-49623.805,-44012.039,-32271.126,0.015,0.964,0.003,8.575,12.543,6.958,73.333,173.000,1.000
-38456.910,-35343.914,45118.587,66751.799,120906.444,-49503.047,-43945.229,-32168.630,0.014,0.950,0.006,8.118,11.810,6.500,73.333,174.000,1.000
-38342.820,-35251.433,43830.743,65349.012,119163.551,-49420.882,-43867.130,-32069.221,0.012,0.944,0.009,7.660,11.078,5.890,73.333,175.000,1.000
-38206.385,-35151.072,42553.291,63947.241,117439.734,-49336.600,-43803.081,-31976.429,0.011,0.944,0.011,7.355,10.223,5.341,73.333,176.000,1.000
-38058.269,-35063.419,41272.177,62489.842,115739.574,-49213.412,-43758.890,-31883.666,0.009,0.948,0.011,7.141,9.491,4.547,73.333,177.000,1.000
-37923.975,-34990.461,39987.590,61005.605,114046.167,-49067.732,-43714.312,-31783.821,0.006,0.955,0.010,6.836,8.575,3.693,73.333,178.000,1.000
-37809.054,-34914.222,38713.052,59563.525,112345.135,-48944.608,-43651.369,-31679.545,0.003,0.959,0.002,6.317,7.782,2.594,73.333,179.000,1.000
-37693.514,-34822.422,37456.804,58170.553,110643.885,-48857.051,-43578.752,-31580.369,0.004,0.963,-0.006,5.859,6.897,1.678,73.333,180.000,1.000
-37560.967,-34725.797,36210.814,56745.692,108960.460,-48772.710,-43520.377,-31491.110,0.008,0.966,-0.012,5.402,6.073,0.763,73.333,181.000,1.000
-37420.623,-34643.645,34961.693,55198.814,107298.768,-48661.797,-43484.333,-31406.778,0.011,0.969,-0.015,5.219,5.341,-0.122,73.333,182.000,1.000
-37292.990,-34577.869,33708.119,53508.652,105644.087,-48537.290,-43453.626,-31319.419,0.020,0.972,-0.017,5.035,4.578,-1.099,73.333,183.000,1.000
-37181.147,-34510.859,32461.730,51709.232,103983.627,-48434.331,-43410.006,-31227.266,0.024,0.981,-0.021,4.852,4.089,-1.984,73.333,184.000,1.000
-37067.404,-34429.212,31231.706,49824.522,102323.318,-48361.019,-43358.139,-31135.329,0.027,0.990,-0.019,4.547,3.540,-3.143,73.333,185.000,1.000
-36938.028,-34340.286,30014.374,47850.064,100678.897,-48288.076,-43318.070,-31047.865,0.028,0.993,-0.019,4.120,3.082,-4.120,73.333,186.000,1.000
-36800.827,-34260.067,28800.531,45797.208,99054.961,-48188.411,-43297.459,-30962.682,0.027,0.990,-0.015,3.418,2.655,-4.913,73.333,187.000,1.000
-36672.874,-34190.943,27588.804,43721.878,97440.293,-48071.733,-43282.035,-30874.755,0.023,0.980,-0.017,2.655,2.319,-5.859,73.333,188.000,1.000
-36557.335,-34119.951,26386.520,41686.334,95823.876,-47969.900,-43256.415,-30784.398,0.022,0.963,-0.022,2.014,1.984,-6.683,73.333,189.000,1.000
-36440.928,-34038.055,25198.059,39701.733,94208.606,-47895.762,-43225.581,-30698.513,0.021,0.942,-0.026,1.740,1.617,-7.568,73.333,190.000,1.000
-36313.326,-33952.786,24017.662,37728.968,92605.207,-47830.396,-43207.805,-30622.490,0.016,0.923,-0.031,1.831,1.343,-8.423,73.333,191.000,1.000
-36180.664,-33877.431,22836.451,35737.634,91016.587,-47751.687,-43209.742,-30553.215,0.017,0.910,-0.038,2.258,0.977,-9.308,73.333,192.000,1.000
-36055.814,-33812.720,21653.630,33746.926,89434.320,-47662.926,-43217.684,-30482.263,0.015,0.904,-0.046,2.991,0.580,-10.132,73.333,193.000,1.000
-35940.408,-33745.962,20476.920,31799.371,87850.782,-47584.477,-43215.336,-30404.863,0.013,0.902,-0.049,3.784,0.275,-10.986,73.333,194.000,1.000
-35823.169,-33667.555,19312.493,29907.178,86269.517,-47523.179,-43202.787,-30323.188,0.014,0.903,-0.053,4.669,0.061,-11.841,73.333,195.000,1.000
-35695.501,-33582.238,18158.103,28041.493,84700.284,-47462.118,-43192.420,-30241.265,0.016,0.907,-0.054,5.493,-0.153,-12.848,73.333,196.000,1.000
-35562.417,-33501.361,17007.619,26173.467,83146.487,-47383.042,-43189.976,-30159.558,0.015,0.911,-0.060,6.226,-0.305,-13.550,73.333,197.000,1.000
-35434.811,-33427.898,15859.737,24309.547,81601.881,-47289.238,-43186.909,-30075.464,0.013,0.913,-0.066,6.805,-0.488,-14.282,73.333,198.000,1.000
-35314.952,-33353.939,14719.113,22476.927,80059.693,-47198.826,-43172.590,-29987.406,0.014,0.913,-0.075,7.385,-0.580,-15.106,73.333,199.000,1.000
-35194.906,-33272.514,13589.309,20683.403,78520.989,-47120.240,-43148.551,-29896.843,0.008,0.914,-0.082,7.874,-0.641,-15.747,73.333,200.000,1.000
-35068.349,-33186.860,12467.758,18906.509,76991.831,-47043.295,-43125.824,-29806.133,0.006,0.914,-0.093,8.362,-0.732,-16.388,73.333,201.000,1.000
-34938.499,-33105.072,11349.314,17123.784,75474.518,-46954.917,-43109.979,-29715.541,0.002,0.914,-0.103,8.911,-0.885,-16.937,73.333,202.000,1.000
-34812.478,-33028.718,10232.960,15341.303,73964.985,-46856.293,-43094.540,-29623.738,-0.008,0.916,-0.114,9.613,-1.038,-17.822,73.333,203.000,1.000
-34691.399,-32951.188,9122.633,13583.709,72458.823,-46759.530,-43070.605,-29530.823,-0.019,0.913,-0.120,10.345,-1.434,-18.799,73.333,204.000,1.000
-34569.428,-32866.741,8021.744,11862.217,70957.015,-46670.370,-43038.123,-29438.757,-0.033,0.914,-0.126,11.017,-1.892,-19.928,73.333,205.000,1.000
-34441.767,-32777.257,6929.071,10163.531,69464.084,-46580.521,-43003.799,-29348.318,-0.040,0.907,-0.129,11.749,-2.655,-21.057,73.333,206.000,1.000
-34310.423,-32688.586,5841.039,8471.179,67982.002,-46478.564,-42970.288,-29257.271,-0.049,0.906,-0.132,12.421,-3.632,-22.308,73.333,207.000,1.000
-34180.964,-32602.794,4756.513,6788.099,66508.054,-46364.045,-42932.419,-29162.719,-0.054,0.904,-0.134,12.939,-4.517,-23.193,73.333,208.000,1.000
-34055.646,-32516.743,3677.649,5131.561,65038.668,-46247.136,-42884.972,-29064.650,-0.062,0.898,-0.141,13.214,-5.402,-24.109,73.333,209.000,1.000
-33931.907,-32427.653,2606.410,3510.305,63573.633,-46135.942,-42830.272,-28966.061,-0.068,0.892,-0.149,13.855,-6.287,-25.238,73.333,210.000,1.000
-33806.911,-32337.171,1541.930,1914.861,62115.598,-46028.220,-42775.166,-28869.573,-0.071,0.889,-0.156,14.771,-7.233,-26.306,73.333,211.000,1.000
-33681.194,-32248.890,481.790,331.347,60666.192,-45916.685,-42722.279,-28774.877,-0.081,0.888,-0.166,15.656,-8.301,-27.374,73.333,212.000,1.000
-33556.821,-32163.217,-574.946,-1241.123,59224.121,-45798.780,-42667.011,-28679.384,-0.090,0.890,-0.173,16.418,-9.552,-28.351,73.333,213.000,1.000
-33433.499,-32076.296,-1626.666,-2790.891,57787.410,-45677.686,-42602.855,-28580.434,-0.097,0.893,-0.176,17.303,-10.651,-29.572,73.333,214.000,1.000
-33308.467,-31984.361,-2671.183,-4309.536,56356.216,-45555.582,-42528.074,-28477.011,-0.110,0.897,-0.178,18.250,-11.780,-30.792,73.333,215.000,1.000
-33179.956,-31887.890,-3708.164,-5802.078,54932.464,-45429.840,-42446.251,-28369.962,-0.125,0.904,-0.179,19.043,-12.909,-31.952,73.333,216.000,1.000
-33049.264,-31790.589,-4739.163,-7279.854,53517.306,-45296.798,-42361.205,-28261.030,-0.138,0.907,-0.177,19.562,-14.221,-33.417,73.333,217.000,1.000
-32919.340,-31695.362,-5765.621,-8747.072,52109.856,-45157.391,-42273.460,-28152.051,-0.153,0.912,-0.183,19.897,-15.594,-34.973,73.333,218.000,1.000
-32791.927,-31601.997,-6787.378,-10197.607,50708.498,-45016.569,-42181.326,-28044.243,-0.167,0.915,-0.188,20.203,-17.120,-36.530,73.333,219.000,1.000
-32666.205,-31507.983,-7803.200,-11623.929,49312.790,-44876.681,-42083.048,-27937.148,-0.183,0.917,-0.193,20.569,-18.890,-38.208,73.333,220.000,1.000
-32539.940,-31410.920,-8812.290,-13026.065,47923.743,-44733.709,-41977.296,-27828.381,-0.201,0.920,-0.197,20.752,-20.630,-39.917,73.333,221.000,1.000
-32411.588,-31310.255,-9814.962,-14410.354,46542.546,-44581.538,-41862.882,-27715.203,-0.221,0.922,-0.197,20.966,-22.522,-41.718,73.333,222.000,1.000
-32281.556,-31207.370,-10812.122,-15781.375,45169.255,-44419.179,-41739.630,-27597.144,-0.248,0.919,-0.199,20.966,-24.597,-43.671,73.333,223.000,1.000
-32151.863,-31104.552,-11804.547,-17137.656,43802.523,-44252.738,-41609.889,-27477.238,-0.278,0.917,-0.201,20.782,-26.917,-45.837,73.333,224.000,1.000
-32024.218,-31003.305,-12792.561,-18474.910,42440.642,-44089.897,-41477.633,-27359.711,-0.306,0.914,-0.205,20.752,-29.327,-48.279,73.333,225.000,1.000
-31898.214,-30903.061,-13776.091,-19791.199,41083.056,-43932.536,-41344.780,-27245.926,-0.327,0.912,-0.214,20.844,-32.043,-50.903,73.333,226.000,1.000
-31771.834,-30802.067,-14755.079,-21087.639,39730.872,-43775.653,-41209.387,-27133.369,-0.337,0.913,-0.222,20.966,-35.156,-53.436,73.333,227.000,1.000
-31643.551,-30699.523,-15730.007,-22364.468,38385.793,-43613.422,-41068.085,-27018.461,-0.337,0.912,-0.231,21.057,-38.177,-55.878,73.333,228.000,1.000
-31513.344,-30595.653,-16701.581,-23616.597,37048.574,-43444.341,-40918.670,-26898.980,-0.334,0.914,-0.237,21.179,-41.016,-57.922,73.333,229.000,1.000
-31382.063,-30490.139,-17669.201,-24832.852,35718.602,-43270.576,-40760.428,-26774.398,-0.328,0.913,-0.241,21.332,-43.488,-59.509,73.333,230.000,1.000
-31250.443,-30382.176,-18630.394,-26001.589,34394.833,-43094.811,-40594.292,-26645.992,-0.327,0.912,-0.247,21.484,-45.624,-60.883,73.333,231.000,1.000
-31118.624,-30272.029,-19582.825,-27119.583,33076.910,-42918.110,-40422.976,-26516.547,-0.326,0.914,-0.249,21.637,-47.638,-62.103,73.333,232.000,1.000
-30986.644,-30161.630,-20526.301,-28195.275,31765.257,-42740.048,-40249.817,-26388.794,-0.326,0.917,-0.255,21.881,-49.469,-63.080,73.333,233.000,1.000
-30855.333,-30053.216,-21462.441,-29243.578,30460.136,-42560.615,-40076.876,-26263.778,-0.325,0.917,-0.258,22.095,-51.117,-63.843,73.333,234.000,1.000
-30726.141,-29947.349,-22393.403,-30279.743,29160.822,-42381.117,-39903.831,-26140.637,-0.326,0.920,-0.257,22.125,-52.673,-64.331,73.333,235.000,1.000
-30599.818,-29842.628,-23321.219,-31317.129,27866.135,-42202.777,-39728.849,-26017.688,-0.323,0.917,-0.256,22.034,-54.047,-64.545,73.333,236.000,1.000
-30475.343,-29737.160,-24247.191,-32364.933,26576.012,-42024.623,-39550.224,-25893.319,-0.320,0.911,-0.258,21.881,-55.298,-64.575,73.333,237.000,1.000
-30350.578,-29629.785,-25171.057,-33423.490,25292.015,-41843.074,-39366.613,-25766.020,-0.316,0.904,-0.257,21.729,-56.427,-64.362,73.333,238.000,1.000
-30224.179,-29519.984,-26090.920,-34482.427,24015.767,-41654.568,-39176.386,-25634.560,-0.312,0.896,-0.256,21.637,-57.251,-63.965,73.333,239.000,1.000
-30096.320,-29407.213,-27004.443,-35526.915,22747.217,-41459.087,-38978.149,-25498.858,-0.308,0.887,-0.257,21.576,-57.861,-63.416,73.333,240.000,1.000
-29967.539,-29291.164,-27910.447,-36548.391,21484.978,-41260.645,-38772.740,-25360.940,-0.302,0.884,-0.251,21.637,-58.289,-62.592,73.333,241.000,1.000
-29837.695,-29172.883,-28809.490,-37549.656,20228.193,-41063.755,-38564.193,-25224.655,-0.295,0.885,-0.252,21.881,-58.716,-61.584,73.333,242.000,1.000
-29706.529,-29054.931,-29703.090,-38539.609,18977.350,-40869.816,-38357.644,-25093.521,-0.286,0.887,-0.250,21.912,-58.838,-60.516,73.333,243.000,1.000
-29574.996,-28939.927,-30592.536,-39524.359,17732.976,-40677.659,-38155.982,-24968.485,-0.281,0.890,-0.248,21.820,-58.716,-59.265,73.333,244.000,1.000
-29445.116,-28828.774,-31478.277,-40504.451,16494.270,-40486.899,-37958.617,-24847.958,-0.276,0.893,-0.245,21.576,-58.502,-57.922,73.333,245.000,1.000
-29317.912,-28720.331,-32360.098,-41479.554,15259.840,-40299.111,-37763.375,-24729.895,-0.273,0.893,-0.243,21.118,-58.105,-56.458,73.333,246.000,1.000
-29192.265,-28613.047,-33237.731,-42453.698,14029.499,-40115.495,-37569.422,-24613.644,-0.271,0.890,-0.242,20.477,-57.678,-55.023,73.333,247.000,1.000
-29066.350,-28506.650,-34111.228,-43434.641,12804.551,-39934.883,-37378.195,-24499.847,-0.272,0.886,-0.240,19.867,-57.129,-53.467,73.333,248.000,1.000
-28939.746,-28401.975,-34980.599,-44428.939,11586.250,-39755.655,-37191.973,-24389.071,-0.274,0.879,-0.237,19.073,-56.488,-52.002,73.333,249.000,1.000
-28813.938,-28300.193,-35845.361,-45441.859,10374.461,-39580.269,-37013.821,-24282.021,-0.274,0.872,-0.229,18.433,-55.939,-50.720,73.333,250.000,1.000
-28691.319,-28203.895,-36705.177,-46488.440,9167.778,-39418.597,-36852.167,-24182.772,-0.278,0.863,-0.221,17.639,-55.603,-49.408,73.333,251.000,1.000
-28574.089,-28118.936,-37561.104,-47606.650,7964.569,-39287.132,-36725.964,-24101.237,-0.277,0.855,-0.217,16.815,-55.298,-48.126,73.333,252.000,1.000
-28463.403,-28051.977,-38415.375,-48846.217,6763.945,-39201.247,-36658.989,-24048.079,-0.282,0.844,-0.208,15.900,-54.871,-46.997,73.333,253.000,1.000
-28358.212,-28002.878,-39269.150,-50223.408,5566.189,-39162.202,-36660.012,-24022.978,-0.282,0.838,-0.203,14.923,-54.474,-46.173,73.333,254.000,1.000
-28254.825,-27960.582,-40120.716,-51684.979,4372.637,-39150.774,-36707.561,-24009.153,-0.281,0.844,-0.211,14.130,-54.199,-45.471,73.333,255.000,1.000
-28148.234,-27908.799,-40966.362,-53126.945,3185.344,-39135.266,-36757.668,-23981.825,-0.277,0.860,-0.224,13.702,-53.955,-44.708,73.333,256.000,1.000
-28034.258,-27835.535,-41802.975,-54448.858,2006.721,-39085.241,-36766.047,-23921.535,-0.271,0.884,-0.238,13.367,-53.741,-44.098,73.333,257.000,1.000
-27911.490,-27738.216,-42629.825,-55595.880,838.687,-38981.182,-36705.464,-23821.541,-0.261,0.917,-0.252,12.848,-53.558,-43.518,73.333,258.000,1.000
-27782.188,-27622.519,-43448.322,-56569.211,-318.676,-38819.048,-36570.945,-23687.859,-0.255,0.952,-0.265,12.054,-53.314,-42.938,73.333,259.000,1.000
-27650.665,-27496.819,-44260.324,-57408.694,-1467.359,-38608.886,-36374.075,-23533.749,-0.251,0.983,-0.274,10.834,-53.101,-42.419,73.333,260.000,1.000
-27519.714,-27366.361,-45066.634,-58161.142,-2609.653,-38366.486,-36131.301,-23371.436,-0.248,1.010,-0.280,9.399,-52.826,-42.145,73.333,261.000,1.000
-27388.703,-27231.811,-45867.124,-58856.094,-3746.239,-38103.626,-35854.643,-23206.809,-0.247,1.033,-0.287,7.660,-52.368,-41.962,73.333,262.000,1.000
-27255.566,-27092.553,-46661.975,-59505.669,-4876.409,-37825.326,-35550.828,-23040.906,-0.249,1.052,-0.282,5.646,-52.155,-41.962,73.333,263.000,1.000
-27120.275,-26950.578,-47452.181,-60124.571,-5999.854,-37535.912,-35227.378,-22875.586,-0.252,1.058,-0.277,3.021,-52.124,-41.962,73.333,264.000,1.000
-26985.992,-26811.921,-48238.890,-60750.156,-7117.780,-37247.576,-34900.034,-22718.077,-0.252,1.049,-0.266,0.214,-52.185,-42.023,73.333,265.000,1.000
-26857.265,-26685.534,-49022.952,-61443.493,-8232.361,-36982.871,-34595.632,-22580.771,-0.251,1.028,-0.259,-2.808,-52.277,-42.175,73.333,266.000,1.000
-26737.189,-26579.739,-49805.253,-62266.458,-9345.330,-36766.459,-34345.346,-22475.235,-0.248,1.000,-0.246,-5.707,-52.429,-42.480,73.333,267.000,1.000
-26625.784,-26497.595,-50586.840,-63249.887,-10457.074,-36611.338,-34170.036,-22404.402,-0.247,0.968,-0.237,-8.301,-52.521,-42.786,73.333,268.000,1.000
-26520.730,-26435.288,-51368.258,-64380.141,-11566.978,-36512.936,-34070.500,-22360.889,-0.243,0.941,-0.238,-10.437,-52.429,-43.121,73.333,269.000,1.000
-26419.044,-26384.634,-52148.752,-65613.591,-12674.191,-36455.734,-34031.283,-22332.839,-0.235,0.925,-0.239,-11.963,-52.460,-43.518,73.333,270.000,1.000
-26317.582,-26336.106,-52926.251,-66898.689,-13777.667,-36421.583,-34030.065,-22309.025,-0.225,0.924,-0.254,-12.878,-52.521,-43.976,73.333,271.000,1.000
-26213.293,-26281.509,-53698.538,-68191.618,-14875.933,-36392.996,-34044.682,-22279.963,-0.206,0.957,-0.285,-13.092,-52.673,-44.098,73.333,272.000,1.000
-26104.616,-26217.057,-54464.582,-69465.544,-15967.493,-36355.662,-34058.442,-22239.401,-0.185,1.021,-0.325,-12.543,-52.582,-44.098,73.333,273.000,1.000
-25992.327,-26143.082,-55224.374,-70700.715,-17051.381,-36299.300,-34059.227,-22184.585,-0.164,1.109,-0.371,-11.292,-51.971,-43.976,73.333,274.000,1.000
-25877.934,-26058.774,-55977.564,-71857.541,-18127.061,-36212.601,-34029.637,-22111.552,-0.144,1.216,-0.425,-9.949,-51.422,-43.640,73.333,275.000,1.000
-25760.868,-25957.841,-56722.730,-72868.759,-19193.801,-36077.356,-33940.356,-22010.537,-0.137,1.331,-0.465,-9.247,-50.537,-42.908,73.333,276.000,1.000
-25637.441,-25830.561,-57458.039,-73667.281,-20250.244,-35870.191,-33757.273,-21868.159,-0.152,1.426,-0.474,-10.193,-49.561,-41.687,73.333,277.000,1.000
-25503.395,-25671.012,-58182.605,-74224.337,-21295.041,-35573.311,-33457.381,-21675.767,-0.203,1.460,-0.419,-13.702,-49.347,-40.680,73.333,278.000,1.000
-25358.051,-25483.679,-58897.400,-74570.304,-22328.371,-35188.513,-33042.816,-21438.376,-0.253,1.404,-0.312,-21.088,-50.293,-39.917,73.333,279.000,1.000
-25205.499,-25283.377,-59605.023,-74787.359,-23352.739,-34743.887,-32544.341,-21177.067,-0.285,1.260,-0.178,-31.097,-51.971,-39.398,73.333,280.000,1.000
-25051.654,-25087.539,-60308.533,-74972.041,-24371.899,-34285.004,-32010.183,-20920.446,-0.304,1.058,-0.036,-41.931,-53.772,-39.062,73.333,281.000,1.000
-24900.756,-24906.793,-61010.183,-75182.842,-25388.698,-33854.588,-31486.045,-20689.621,-0.308,0.837,0.090,-51.636,-55.969,-39.398,73.333,282.000,1.000
-24753.929,-24740.122,-61710.680,-75407.448,-26403.687,-33473.534,-30998.225,-20486.502,-0.295,0.621,0.173,-59.052,-58.105,-40.161,73.333,283.000,1.000
-24609.416,-24576.640,-62409.210,-75574.851,-27415.580,-33134.623,-30549.078,-20293.216,-0.272,0.427,0.220,-63.446,-59.845,-40.955,73.333,284.000,1.000
-24463.964,-24402.693,-63104.208,-75602.144,-28422.957,-32812.029,-30125.805,-20084.066,-0.248,0.268,0.231,-64.819,-61.554,-41.473,73.333,285.000,1.000
-24314.652,-24209.429,-63794.211,-75440.257,-29425.837,-32477.456,-29712.035,-19840.941,-0.226,0.152,0.212,-63.477,-62.897,-41.382,73.333,286.000,1.000
-24160.013,-23995.995,-64478.139,-75091.044,-30427.834,-32110.657,-29291.796,-19560.627,-0.210,0.079,0.173,-59.814,-64.026,-40.833,73.333,287.000,1.000
-24000.443,-23767.910,-65155.339,-74594.827,-31440.444,-31701.801,-28848.220,-19252.979,-0.193,0.046,0.136,-54.230,-65.491,-40.009,73.333,288.000,1.000
-23837.911,-23532.788,-65825.929,-74004.619,-32484.348,-31250.010,-28363.499,-18934.760,-0.176,0.048,0.112,-47.485,-66.864,-38.879,73.333,289.000,1.000
-23674.878,-23296.037,-66490.718,-73363.362,-33579.647,-30760.453,-27820.993,-18621.984,-0.153,0.077,0.114,-40.131,-68.237,-37.354,73.333,290.000,1.000
-23512.439,-23057.671,-67150.084,-72687.498,-34727.300,-30237.228,-27205.317,-18322.547,-0.127,0.135,0.134,-33.264,-69.641,-35.706,73.333,291.000,1.000
-23348.031,-22810.293,-67802.840,-71954.396,-35893.575,-29672.877,-26498.184,-18031.450,-0.095,0.221,0.162,-27.863,-70.496,-33.905,73.333,292.000,1.000
-23175.837,-22542.197,-68446.694,-71108.888,-37010.884,-29048.227,-25679.577,-17734.125,-0.062,0.329,0.189,-23.834,-70.526,-31.982,73.333,293.000,1.000
-22992.095,-22247.811,-69080.540,-70106.561,-38004.651,-28351.082,-24743.020,-17419.929,-0.039,0.454,0.219,-21.240,-70.038,-29.968,73.333,294.000,1.000
-22800.382,-21937.175,-69706.618,-68974.154,-38837.185,-27598.123,-23714.341,-17095.243,-0.023,0.596,0.251,-20.813,-69.031,-27.893,73.333,295.000,1.000
-22611.337,-21635.881,-70330.372,-67843.434,-39537.027,-26840.528,-22658.481,-16786.056,-0.019,0.727,0.288,-22.919,-67.810,-25.787,73.333,296.000,1.000
-22438.396,-21377.354,-70958.291,-66937.854,-40189.399,-26152.675,-21671.714,-16532.321,-0.017,0.834,0.332,-27.893,-67.017,-23.499,73.333,297.000,1.000
-22293.864,-21194.409,-71595.959,-66525.462,-40901.019,-25615.781,-20865.207,-16379.388,-0.021,0.901,0.379,-35.370,-66.071,-21.057,73.333,298.000,1.000
-22186.294,-21112.567,-72247.216,-66857.337,-41775.242,-25303.687,-20344.575,-16366.741,-0.022,0.920,0.424,-44.586,-65.369,-18.524,73.333,299.000,1.000
-22117.634,-21142.629,-72913.624,-68098.812,-42910.152,-25266.543,-20184.950,-16513.451,-0.021,0.899,0.451,-54.382,-64.636,-15.717,73.333,300.000,1.000
-22081.919,-21275.222,-73593.987,-70269.380,-44399.560,-25513.411,-20408.286,-16807.906,-0.013,0.855,0.461,-63.293,-63.721,-12.634,73.333,301.000,1.000
-22068.502,-21483.936,-74284.630,-73225.028,-46318.191,-26007.397,-20977.902,-17211.013,-0.001,0.800,0.451,-70.312,-62.531,-9.705,73.333,302.000,1.000
-22066.416,-21734.039,-74980.299,-76699.834,-48692.630,-26677.000,-21811.239,-17668.007,0.006,0.758,0.439,-74.799,-61.462,-6.683,73.333,303.000,1.000
-22065.202,-21988.784,-75674.830,-80380.413,-51474.032,-27432.733,-22798.551,-18118.484,0.016,0.731,0.436,-77.057,-60.577,-3.693,73.333,304.000,1.000
-22053.732,-22211.744,-76361.443,-83961.294,-54530.701,-28179.659,-23818.358,-18503.078,0.030,0.725,0.441,-78.400,-59.845,-1.129,73.333,305.000,1.000
-22020.888,-22369.442,-77033.382,-87163.222,-57671.365,-28825.901,-24748.761,-18770.458,0.049,0.730,0.465,-78.979,-58.899,1.526,73.333,306.000,1.000
-21960.054,-22441.284,-77686.047,-89771.394,-60706.351,-29300.331,-25489.242,-18891.358,0.066,0.747,0.497,-79.803,-57.556,4.395,73.333,307.000,1.000
-21874.672,-22434.206,-78319.889,-91730.161,-63531.639,-29584.307,-26000.995,-18877.911,0.077,0.768,0.528,-81.299,-55.603,7.294,73.333,308.000,1.000
-21778.029,-22384.296,-78940.764,-93203.860,-66177.493,-29728.662,-26332.684,-18786.672,0.078,0.778,0.548,-83.008,-53.558,9.857,73.333,309.000,1.000
-21686.452,-22339.139,-79556.781,-94509.292,-68777.568,-29830.676,-26597.764,-18694.175,0.074,0.790,0.559,-84.595,-51.514,12.421,73.333,310.000,1.000
-21612.207,-22336.315,-80174.510,-95966.238,-71484.657,-29988.104,-26919.471,-18664.022,0.064,0.802,0.562,-86.182,-49.347,14.618,73.333,311.000,1.000
-21559.103,-22390.029,-80796.697,-97767.642,-74391.078,-30259.410,-27378.361,-18724.055,0.045,0.807,0.568,-87.494,-47.485,16.296,73.333,312.000,1.000
-21520.910,-22487.027,-81421.807,-99917.004,-77494.148,-30642.960,-27981.263,-18857.803,0.026,0.801,0.573,-88.348,-46.265,17.517,73.333,313.000,1.000
-21484.495,-22593.861,-82045.280,-102246.424,-80714.356,-31081.783,-28663.476,-19014.743,0.005,0.800,0.581,-88.776,-45.532,18.463,73.333,314.000,1.000
-21436.998,-22674.728,-82661.766,-104512.886,-83943.509,-31494.859,-29326.160,-19137.686,-0.011,0.803,0.596,-88.989,-45.074,19.196,73.333,315.000,1.000
-21371.519,-22708.326,-83267.235,-106525.353,-87094.729,-31817.440,-29886.566,-19190.040,-0.025,0.815,0.623,-89.325,-44.922,20.050,73.333,316.000,1.000
-21288.040,-22692.901,-83860.400,-108222.213,-90134.020,-32025.260,-30309.877,-19166.971,-0.029,0.829,0.650,-90.088,-45.044,20.935,73.333,317.000,1.000
-21191.491,-22640.855,-84442.936,-109653.304,-93077.728,-32132.801,-30608.474,-19088.262,-0.036,0.835,0.669,-91.003,-45.166,21.698,73.333,318.000,1.000
-21088.545,-22568.919,-85017.954,-110900.152,-95959.023,-32172.371,-30816.263,-18980.189,-0.039,0.839,0.683,-91.858,-45.319,22.125,73.333,319.000,1.000
-20983.830,-22488.643,-85587.777,-112012.955,-98793.775,-32169.905,-30960.477,-18859.654,-0.043,0.841,0.697,-92.773,-45.624,22.339,73.333,320.000,1.000
-20878.298,-22403.100,-86153.060,-113006.906,-101574.751,-32134.998,-31052.008,-18731.267,-0.056,0.835,0.703,-93.414,-45.959,22.583,73.333,321.000,1.000
-20771.143,-22311.145,-86713.505,-113890.476,-104289.970,-32067.795,-31093.995,-18594.548,-0.071,0.820,0.718,-93.903,-46.814,22.491,73.333,322.000,1.000
-20662.223,-22212.355,-87268.720,-114677.655,-106938.447,-31968.296,-31091.412,-18450.794,-0.087,0.801,0.730,-93.994,-47.852,22.125,73.333,323.000,1.000
-20552.065,-22107.390,-87818.432,-115375.928,-109528.660,-31837.498,-31050.711,-18304.042,-0.105,0.787,0.746,-94.025,-48.645,21.240,73.333,324.000,1.000
-20441.033,-21996.976,-88362.527,-115979.251,-112069.745,-31675.957,-30975.794,-18158.264,-0.121,0.777,0.759,-93.933,-49.652,20.233,73.333,325.000,1.000
-20329.771,-21883.156,-88901.345,-116482.880,-114570.079,-31487.589,-30869.978,-18015.640,-0.134,0.777,0.770,-93.475,-50.964,18.982,73.333,326.000,1.000
-20219.081,-21769.039,-89435.695,-116899.638,-117041.638,-31282.014,-30738.920,-17875.726,-0.140,0.783,0.777,-92.682,-52.277,17.731,73.333,327.000,1.000
-20108.108,-21654.604,-89966.211,-117253.036,-119499.104,-31067.314,-30585.721,-17733.366,-0.136,0.800,0.782,-91.644,-53.864,16.602,73.333,328.000,1.000
-19994.239,-21534.985,-90492.784,-117556.671,-121952.001,-30842.046,-30405.472,-17579.965,-0.125,0.817,0.790,-90.912,-55.420,15.991,73.333,329.000,1.000
-19875.920,-21405.202,-91014.788,-117808.263,-124398.553,-30598.398,-30190.196,-17411.437,-0.109,0.824,0.798,-90.393,-56.763,15.442,73.333,330.000,1.000
-19754.509,-21265.456,-91531.680,-118004.541,-126828.005,-30332.430,-29939.210,-17234.689,-0.094,0.821,0.801,-90.240,-57.770,15.167,73.333,331.000,1.000
-19632.688,-21120.764,-92043.364,-118155.491,-129228.708,-30048.981,-29662.077,-17063.408,-0.081,0.809,0.794,-90.302,-58.228,14.954,73.333,332.000,1.000
-19511.799,-20976.274,-92550.136,-118280.599,-131593.495,-29756.726,-29371.285,-16906.759,-0.071,0.791,0.786,-90.088,-58.594,14.832,73.333,333.000,1.000
-19391.480,-20833.954,-93052.408,-118395.428,-133918.488,-29460.289,-29074.110,-16763.490,-0.062,0.772,0.782,-89.478,-58.777,14.679,73.333,334.000,1.000
-19271.459,-20693.734,-93550.511,-118507.797,-136200.901,-29159.058,-28772.684,-16626.874,-0.056,0.761,0.786,-88.715,-58.716,14.648,73.333,335.000,1.000
-19152.775,-20556.665,-94044.977,-118627.534,-138442.277,-28853.616,-28470.455,-16492.919,-0.057,0.755,0.795,-87.891,-58.350,14.526,73.333,336.000,1.000
-19037.301,-20426.061,-94536.915,-118775.635,-140653.605,-28551.178,-28176.729,-16363.658,-0.058,0.745,0.802,-87.250,-57.861,14.160,73.333,337.000,1.000
-18926.432,-20305.537,-95027.485,-118979.930,-142852.953,-28263.273,-27904.363,-16245.236,-0.068,0.740,0.799,-86.823,-57.251,13.702,73.333,338.000,1.000
-18820.123,-20196.391,-95516.875,-119261.001,-145055.688,-27999.021,-27662.888,-16143.039,-0.079,0.727,0.789,-86.060,-56.671,13.092,73.333,339.000,1.000
-18716.978,-20097.166,-96004.384,-119622.774,-147268.026,-27761.800,-27453.838,-16056.786,-0.091,0.721,0.775,-84.991,-56.335,12.451,73.333,340.000,1.000
-18615.368,-20005.448,-96489.554,-120055.101,-149489.680,-27550.850,-27272.291,-15980.571,-0.100,0.725,0.766,-83.435,-56.122,11.688,73.333,341.000,1.000
-18514.624,-19919.342,-96972.658,-120541.968,-151718.677,-27363.238,-27111.382,-15907.748,-0.104,0.747,0.764,-81.970,-56.183,10.956,73.333,342.000,1.000
-18414.907,-19836.973,-97453.849,-121065.993,-153950.383,-27193.638,-26964.087,-15834.123,-0.106,0.781,0.763,-80.872,-56.152,10.071,73.333,343.000,1.000
-18316.025,-19755.544,-97932.381,-121609.332,-156174.675,-27034.601,-26822.511,-15757.443,-0.107,0.815,0.764,-80.292,-56.061,9.247,73.333,344.000,1.000
-18217.232,-19672.382,-98407.243,-122157.197,-158379.379,-26879.899,-26679.398,-15677.308,-0.108,0.855,0.759,-80.109,-55.939,8.575,73.333,345.000,1.000
-18118.449,-19587.270,-98878.584,-122703.399,-160557.326,-26728.461,-26532.002,-15596.311,-0.115,0.887,0.755,-80.597,-55.603,7.874,73.333,346.000,1.000
-18020.649,-19502.683,-99351.684,-123251.037,-162708.361,-26584.482,-26383.249,-15518.874,-0.118,0.907,0.751,-81.757,-55.542,7.050,73.333,347.000,1.000
-17924.533,-19421.015,-99850.780,-123806.147,-164835.336,-26452.943,-26237.849,-15447.099,-0.120,0.917,0.750,-83.252,-55.420,6.256,73.333,348.000,1.000
-17829.594,-19342.219,-100438.281,-124370.071,-166939.876,-26334.708,-26097.813,-15378.360,-0.121,0.920,0.755,-84.656,-55.176,5.432,73.333,349.000,1.000
-17734.714,-19264.422,-101212.367,-124936.728,-169021.045,-26225.438,-25962.190,-15308.259,-0.125,0.915,0.766,-85.907,-54.871,4.700,73.333,350.000,1.000
-17638.967,-19185.630,-102269.382,-125495.215,-171075.729,-26117.644,-25829.090,-15234.575,-0.125,0.912,0.780,-87.006,-54.535,3.784,73.333,351.000,1.000
-17541.909,-19104.392,-103655.524,-126035.105,-173100.004,-26003.419,-25696.421,-15157.024,-0.131,0.905,0.802,-88.257,-53.925,3.113,73.333,352.000,1.000
-17443.591,-19019.993,-105338.438,-126552.021,-175091.929,-25877.604,-25562.524,-15074.975,-0.133,0.893,0.819,-89.325,-53.406,2.472,73.333,353.000,1.000
-17344.333,-18932.680,-107212.265,-127050.195,-177054.221,-25740.199,-25427.705,-14987.052,-0.135,0.879,0.833,-90.027,-52.795,1.984,73.333,354.000,1.000
-17244.678,-18843.629,-109137.606,-127539.324,-178994.026,-25595.761,-25294.587,-14892.732,-0.138,0.860,0.847,-90.790,-52.368,1.526,73.333,355.000,1.000
-17145.602,-18754.556,-110999.217,-128027.171,-180919.769,-25450.182,-25166.261,-14793.481,-0.138,0.841,0.861,-91.278,-51.788,1.251,73.333,356.000,1.000
-17047.779,-18666.652,-112745.758,-128513.654,-182837.534,-25307.230,-25043.939,-14691.906,-0.136,0.824,0.881,-91.797,-51.147,1.068,73.333,357.000,1.000
-16950.432,-18579.599,-114386.523,-128991.674,-184749.202,-25166.996,-24926.403,-14590.377,-0.137,0.808,0.904,-92.133,-50.446,0.916,73.333,358.000,1.000
-16852.040,-18492.366,-115956.782,-129454.048,-186653.794,-25027.417,-24811.466,-14490.416,-0.135,0.790,0.918,-92.346,-49.591,0.702,73.333,359.000,1.000
-16752.408,-18405.024,-117487.445,-129900.398,-188551.071,-24887.429,-24697.745,-14392.487,-0.133,0.779,0.930,-92.255,-48.614,0.488,73.333,360.000,1.000
-16653.120,-18319.057,-119000.116,-130338.550,-190444.298,-24748.537,-24585.325,-14296.452,-0.134,0.771,0.941,-91.583,-47.455,0.641,73.333,361.000,1.000
-16555.947,-18236.118,-120517.317,-130781.343,-192341.032,-24614.120,-24475.524,-14202.745,-0.132,0.769,0.944,-90.576,-46.631,0.793,73.333,362.000,1.000
-16461.796,-18157.553,-122066.519,-131243.945,-194252.720,-24488.695,-24370.960,-14113.513,-0.128,0.780,0.947,-89.325,-45.868,1.099,73.333,363.000,1.000
-16370.925,-18084.755,-123671.044,-131742.074,-196192.526,-24377.457,-24275.579,-14032.739,-0.122,0.790,0.950,-88.348,-44.830,1.373,73.333,364.000,1.000
-16282.782,-18018.140,-125339.886,-132286.516,-198171.121,-24283.960,-24192.590,-13963.867,-0.113,0.802,0.951,-87.463,-43.732,1.953,73.333,365.000,1.000
-16195.525,-17955.284,-127068.396,-132875.067,-200192.161,-24206.784,-24121.131,-13906.230,-0.106,0.820,0.949,-86.761,-42.419,2.625,73.333,366.000,1.000
-16107.026,-17891.809,-128843.743,-133491.434,-202249.606,-24139.686,-24056.182,-13855.166,-0.097,0.835,0.951,-86.029,-41.138,3.448,73.333,367.000,1.000
-16017.013,-17825.381,-130642.651,-134115.648,-204329.312,-24076.492,-23993.082,-13807.176,-0.088,0.852,0.947,-85.266,-39.673,4.425,73.333,368.000,1.000
-15927.444,-17758.009,-132423.919,-134735.929,-206415.051,-24015.610,-23931.693,-13764.223,-0.079,0.861,0.938,-84.625,-38.116,5.310,73.333,369.000,1.000
-15840.336,-17693.462,-134127.912,-135348.830,-208493.665,-23958.691,-23874.626,-13731.331,-0.063,0.870,0.927,-83.527,-36.499,6.317,73.333,370.000,1.000
-15755.631,-17632.729,-135690.057,-135949.038,-210554.584,-23904.621,-23820.763,-13712.263,-0.050,0.884,0.922,-82.245,-34.698,7.233,73.333,371.000,1.000
-15671.057,-17572.267,-137065.595,-136523.091,-212586.673,-23845.902,-23762.093,-13713.568,-0.037,0.900,0.920,-81.207,-32.623,8.270,73.333,372.000,1.000
-15583.648,-17506.331,-138250.762,-137055.264,-214578.499,-23771.871,-23688.282,-13754.201,-0.028,0.908,0.913,-80.444,-30.609,9.369,73.333,373.000,1.000
-15491.642,-17430.903,-139283.814,-137538.242,-216522.810,-23675.331,-23593.698,-13868.961,-0.023,0.914,0.905,-79.529,-28.442,10.559,73.333,374.000,1.000
-15395.164,-17345.642,-140224.470,-137976.285,-218419.222,-23555.920,-23479.507,-14093.550,-0.019,0.919,0.902,-78.613,-26.337,11.749,73.333,375.000,1.000
-15295.325,-17252.756,-141126.224,-138378.936,-220270.855,-23418.030,-23349.975,-14419.809,-0.016,0.925,0.897,-77.728,-24.261,13.245,73.333,376.000,1.000
-15193.654,-17155.440,-142019.065,-138754.416,-222079.594,-23267.540,-23208.768,-14757.147,-0.011,0.932,0.898,-76.538,-22.369,14.221,73.333,377.000,1.000
-15092.465,-17057.485,-142908.483,-139108.267,-223845.782,-23110.570,-23058.937,-14965.491,-0.008,0.940,0.905,-75.653,-20.447,15.289,73.333,378.000,1.000
-14994.086,-16962.265,-143783.693,-139443.614,-225570.768,-22952.210,-22903.806,-14940.912,-0.009,0.938,0.914,-74.890,-18.616,16.388,73.333,379.000,1.000
-14899.175,-16871.270,-144627.878,-139760.712,-227258.380,-22795.173,-22746.790,-14673.568,-0.011,0.925,0.917,-74.707,-16.998,17.273,73.333,380.000,1.000
-14806.486,-16784.021,-145427.161,-140057.317,-228914.389,-22640.367,-22590.689,-14245.755,-0.011,0.902,0.920,-74.280,-15.564,18.097,73.333,381.000,1.000
-14713.836,-16698.559,-146175.087,-140329.906,-230544.174,-22487.450,-22435.762,-13785.879,-0.010,0.878,0.921,-73.029,-14.221,19.012,73.333,382.000,1.000
-14619.071,-16612.015,-146872.731,-140575.805,-232150.214,-22334.372,-22278.676,-13404.703,-0.010,0.866,0.923,-71.167,-12.878,19.867,73.333,383.000,1.000
-14520.950,-16521.998,-147527.554,-140796.248,-233732.155,-22178.366,-22115.054,-13146.512,-0.006,0.869,0.929,-69.122,-11.719,20.386,73.333,384.000,1.000
-14419.833,-16428.089,-148151.402,-140998.050,-235289.544,-22018.319,-21943.072,-12984.526,-0.003,0.878,0.936,-67.230,-10.651,21.240,73.333,385.000,1.000
-14317.832,-16332.440,-148756.717,-141192.400,-236824.245,-21856.343,-21765.274,-12861.823,0.007,0.881,0.942,-65.948,-9.674,22.247,73.333,386.000,1.000
-14217.685,-16238.634,-149352.682,-141391.460,-238340.235,-21697.428,-21587.789,-12739.836,0.014,0.872,0.942,-64.575,-8.575,23.254,73.333,387.000,1.000
-14120.537,-16148.859,-149944.289,-141604.299,-239841.612,-21546.669,-21416.583,-12612.719,0.018,0.858,0.943,-62.866,-7.568,23.987,73.333,388.000,1.000
-14024.866,-16062.033,-150534.542,-141834.468,-241331.189,-21405.664,-21253.340,-12487.715,0.022,0.842,0.946,-60.486,-6.378,24.414,73.333,389.000,1.000
-13927.996,-15975.128,-151127.004,-142080.557,-242810.805,-21271.828,-21095.009,-12364.728,0.026,0.830,0.955,-57.648,-5.219,24.841,73.333,390.000,1.000
-13828.555,-15886.116,-151725.433,-142338.236,-244281.854,-21141.286,-20937.044,-12237.097,0.024,0.821,0.962,-54.749,-4.150,25.146,73.333,391.000,1.000
-13727.552,-15795.724,-152330.575,-142602.335,-245744.666,-21012.209,-20777.275,-12104.969,0.025,0.825,0.964,-52.185,-3.265,25.482,73.333,392.000,1.000
-13627.640,-15707.009,-152939.563,-142869.711,-247198.736,-20886.131,-20617.978,-11979.452,0.031,0.826,0.964,-49.591,-2.258,25.574,73.333,393.000,1.000
-13531.357,-15623.035,-153551.345,-143142.276,-248644.678,-20766.268,-20464.568,-11870.836,0.029,0.838,0.960,-46.844,-1.007,25.574,73.333,394.000,1.000
-13439.514,-15544.475,-154173.320,-143427.630,-250084.952,-20654.430,-20322.373,-11777.199,0.024,0.855,0.956,-44.281,-0.214,25.696,73.333,395.000,1.000
-13351.365,-15469.839,-154820.683,-143735.128,-251521.703,-20550.328,-20195.090,-11689.144,0.021,0.873,0.945,-42.023,0.244,25.574,73.333,396.000,1.000
-13265.974,-15397.241,-155503.922,-144066.301,-252952.805,-20452.573,-20083.915,-11602.415,0.018,0.886,0.933,-39.948,0.702,25.421,73.333,397.000,1.000
-13182.713,-15325.195,-156215.717,-144408.569,-254369.837,-20358.843,-19986.419,-11521.230,0.017,0.891,0.924,-37.903,0.977,25.299,73.333,398.000,1.000
-13101.210,-15253.529,-156939.146,-144746.617,-255763.512,-20267.813,-19899.391,-11451.657,0.015,0.890,0.913,-35.767,1.312,25.177,73.333,399.000,1.000
-13020.948,-15183.701,-157671.898,-145081.380,-257132.582,-20181.703,-19823.161,-11394.596,0.012,0.880,0.904,-33.569,1.404,24.902,73.333,400.000,1.000
-12940.139,-15116.014,-158429.146,-145426.596,-258482.973,-20102.668,-19758.593,-11343.726,0.010,0.865,0.899,-31.219,1.434,24.567,73.333,401.000,1.000
-12856.031,-15046.884,-159211.783,-145780.460,-259815.768,-20025.549,-19699.018,-11288.807,0.014,0.849,0.890,-28.351,1.404,24.353,73.333,402.000,1.000
-12767.104,-14970.232,-159975.297,-146105.737,-261117.959,-19936.402,-19627.461,-11220.414,0.015,0.831,0.883,-25.482,1.434,23.926,73.333,403.000,1.000
-12674.027,-14880.557,-160633.183,-146340.431,-262364.416,-19817.661,-19521.542,-11131.191,0.014,0.809,0.892,-22.644,1.404,23.682,73.333,404.000,1.000
-12578.053,-14774.116,-161086.159,-146424.656,-263526.189,-19653.816,-19360.638,-11014.665,0.011,0.771,0.916,-20.874,1.343,23.804,73.333,405.000,1.000
-12479.094,-14648.938,-161250.840,-146321.380,-264579.318,-19435.080,-19131.861,-10866.883,0.008,0.704,0.948,-20.477,1.068,24.078,73.333,406.000,1.000
-12375.792,-14505.833,-161080.372,-146027.723,-265513.611,-19160.498,-18835.034,-10691.114,0.019,0.608,0.983,-20.355,0.916,24.597,73.333,407.000,1.000
-12267.427,-14349.942,-160580.211,-145580.408,-266339.663,-18839.844,-18485.549,-10499.013,0.035,0.505,1.009,-19.836,0.610,24.841,73.333,408.000,1.000
-12155.384,-14190.179,-159810.578,-145049.290,-267088.337,-18490.407,-18110.928,-10304.914,0.064,0.414,1.018,-17.883,0.610,25.055,73.333,409.000,1.000
-12042.884,-14036.179,-158867.161,-144515.888,-267800.848,-18129.216,-17741.116,-10125.155,0.093,0.356,1.020,-14.252,1.678,25.085,73.333,410.000,1.000
-11934.032,-13896.034,-157853.688,-144051.425,-268517.521,-17769.219,-17400.581,-10049.217,0.112,0.339,1.010,-9.338,3.296,24.963,73.333,411.000,1.000
-11832.887,-13775.945,-156865.436,-143708.528,-269273.757,-17423.547,-17107.478,-10443.901,0.113,0.364,0.982,-3.906,5.157,24.536,73.333,412.000,1.000
-11741.682,-13678.501,-155978.320,-143517.693,-270096.967,-17107.836,-16872.798,-12038.346,0.103,0.427,0.942,0.793,7.263,24.017,73.333,413.000,1.000
-11659.132,-13599.713,-155231.084,-143476.728,-270995.022,-16833.431,-16694.409,-15536.620,0.076,0.518,0.911,4.089,9.003,23.346,73.333,414.000,1.000
-11581.122,-13530.055,-154613.905,-143546.011,-271946.429,-16601.501,-16555.308,-21054.998,0.051,0.615,0.877,4.944,9.583,22.766,73.333,415.000,1.000
-11503.074,-13459.390,-154082.199,-143665.592,-272905.415,-16405.095,-16430.739,-27880.448,0.040,0.703,0.857,4.395,9.430,22.217,73.333,416.000,1.000
-11421.594,-13380.677,-153589.196,-143785.635,-273817.411,-16233.078,-16296.386,-34515.587,0.042,0.775,0.858,2.655,9.460,21.912,73.333,417.000,1.000
-11335.199,-13291.759,-153116.175,-143888.743,-274638.176,-16074.912,-16136.111,-39080.552,0.046,0.823,0.868,0.031,9.308,21.606,73.333,418.000,1.000
-11244.551,-13195.910,-152681.150,-143989.665,-275350.898,-15927.090,-15949.236,-40190.320,0.049,0.846,0.872,-2.838,9.338,21.423,73.333,419.000,1.000
-11151.816,-13099.497,-152320.065,-144115.025,-275969.758,-15793.766,-15749.867,-37717.486,0.053,0.853,0.871,-5.493,9.338,21.210,73.333,420.000,1.000
-11059.712,-13008.325,-152058.149,-144281.968,-276527.452,-15680.002,-15557.690,-32794.248,0.051,0.846,0.859,-8.179,9.583,20.905,73.333,421.000,1.000
-10970.456,-12925.404,-151895.369,-144490.509,-277057.571,-15584.943,-15387.210,-27149.641,0.049,0.836,0.846,-10.712,9.521,20.447,73.333,422.000,1.000
-10884.319,-12849.725,-151809.843,-144726.730,-277581.552,-15499.180,-15240.328,-22301.494,0.049,0.833,0.836,-13.000,9.399,19.928,73.333,423.000,1.000
-10799.842,-12777.232,-151767.487,-144968.760,-278104.044,-15408.341,-15107.063,-19037.829,0.052,0.837,0.836,-15.076,9.430,19.379,73.333,424.000,1.000
-10715.939,-12704.281,-151730.913,-145193.551,-278616.945,-15301.443,-14974.139,-17352.973,0.055,0.849,0.844,-17.059,9.521,19.104,73.333,425.000,1.000
-10632.324,-12629.172,-151669.847,-145384.954,-279108.864,-15176.137,-14832.685,-16751.493,0.052,0.853,0.855,-19.196,9.308,19.104,73.333,426.000,1.000
-10548.604,-12551.542,-151573.695,-145541.359,-279574.909,-15038.065,-14681.322,-16687.724,0.050,0.843,0.854,-21.057,9.216,18.494,73.333,427.000,1.000
-10464.697,-12472.672,-151456.832,-145676.498,-280020.547,-14897.744,-14526.140,-16860.405,0.047,0.829,0.860,-22.278,9.369,17.334,73.333,428.000,1.000
-10381.239,-12394.904,-151347.118,-145808.637,-280456.120,-14765.326,-14375.603,-17195.080,0.037,0.821,0.871,-23.376,9.430,15.839,73.333,429.000,1.000
-10298.733,-12319.321,-151264.715,-145946.231,-280888.027,-14645.333,-14233.042,-17634.077,0.024,0.812,0.878,-24.109,9.033,14.496,73.333,430.000,1.000
-10216.966,-12245.027,-151209.664,-146083.918,-281315.695,-14536.143,-14094.674,-18005.668,0.016,0.802,0.883,-24.384,8.667,13.275,73.333,431.000,1.000
-10135.367,-12170.663,-151167.168,-146210.987,-281735.208,-14433.563,-13954.185,-18076.863,0.006,0.794,0.892,-24.414,8.087,12.024,73.333,432.000,1.000
-10053.500,-12095.769,-151121.451,-146321.601,-282143.505,-14334.148,-13807.999,-17687.236,-0.003,0.787,0.899,-24.384,7.385,10.895,73.333,433.000,1.000
-9971.111,-12020.590,-151064.212,-146417.443,-282539.577,-14236.397,-13656.722,-16852.935,-0.010,0.779,0.912,-24.323,6.531,9.827,73.333,434.000,1.000
-9887.916,-11945.063,-150994.696,-146504.494,-282924.367,-14140.472,-13503.345,-15794.637,-0.015,0.762,0.922,-24.200,5.768,8.636,73.333,435.000,1.000
-9803.694,-11868.452,-150917.366,-146590.325,-283300.533,-14047.274,-13351.267,-14840.877,-0.019,0.747,0.934,-23.621,4.791,7.538,73.333,436.000,1.000
-9718.959,-11790.616,-150840.921,-146683.795,-283671.306,-13958.156,-13204.185,-14221.415,-0.021,0.731,0.943,-22.858,3.876,6.287,73.333,437.000,1.000
-9635.263,-11713.565,-150776.961,-146794.529,-284039.081,-13875.615,-13067.002,-13917.101,-0.022,0.722,0.955,-21.942,3.021,5.157,73.333,438.000,1.000
-9554.085,-11640.396,-150735.696,-146929.944,-284404.705,-13802.268,-12944.305,-13707.869,-0.024,0.713,0.961,-20.844,2.380,4.303,73.333,439.000,1.000
-9475.634,-11572.544,-150720.636,-147091.597,-284767.253,-13737.992,-12836.640,-13355.267,-0.026,0.705,0.971,-20.020,1.556,3.418,73.333,440.000,1.000
-9398.993,-11508.769,-150726.787,-147274.292,-285124.105,-13679.093,-12739.527,-12756.659,-0.028,0.693,0.978,-19.196,0.824,2.777,73.333,441.000,1.000
-9322.921,-11446.349,-150743.618,-147468.868,-285471.724,-13620.668,-12646.981,-11978.029,-0.031,0.680,0.987,-18.158,0.153,2.045,73.333,442.000,1.000
-9246.594,-11382.859,-150760.214,-147666.546,-285807.187,-13559.451,-12555.469,-11177.184,-0.033,0.668,0.992,-16.937,-0.488,1.587,73.333,443.000,1.000
-9169.861,-11317.159,-150769.602,-147861.853,-286129.844,-13494.582,-12464.373,-10491.614,-0.036,0.656,0.998,-15.717,-1.068,1.221,73.333,444.000,1.000
-9093.111,-11249.548,-150770.701,-148053.447,-286442.184,-13426.674,-12374.254,-9969.014,-0.039,0.643,1.002,-14.282,-1.801,0.946,73.333,445.000,1.000
-9017.112,-11181.325,-150767.340,-148243.501,-286748.669,-13356.459,-12285.782,-9574.189,-0.042,0.633,1.003,-12.970,-2.350,0.885,73.333,446.000,1.000
-8942.536,-11113.712,-150766.200,-148435.938,-287052.987,-13283.935,-12199.639,-9246.463,-0.042,0.628,1.005,-11.505,-2.808,0.854,73.333,447.000,1.000
-8869.600,-11047.416,-150777.039,-148634.694,-287357.127,-13209.404,-12117.310,-8949.592,-0.043,0.624,1.001,-10.040,-3.204,0.854,73.333,448.000,1.000
-8798.377,-10983.402,-150813.304,-148842.397,-287662.904,-13135.579,-12041.806,-8677.212,-0.043,0.623,1.000,-8.606,-3.479,1.007,73.333,449.000,1.000
-8728.989,-10922.855,-150888.010,-149058.419,-287972.358,-13066.878,-11975.941,-8427.901,-0.046,0.626,1.002,-7.080,-3.754,1.068,73.333,450.000,1.000
-8661.005,-10865.519,-151005.903,-149276.738,-288285.697,-13005.270,-11919.038,-8190.242,-0.049,0.628,1.001,-5.524,-3.998,1.038,73.333,451.000,1.000
-8592.874,-10808.663,-151158.238,-149486.030,-288599.229,-12947.318,-11865.925,-7953.743,-0.052,0.630,0.999,-3.906,-4.211,1.160,73.333,452.000,1.000
-8522.352,-10748.140,-151324.378,-149673.270,-288905.355,-12885.378,-11809.163,-7723.314,-0.057,0.634,0.992,-2.350,-4.303,1.282,73.333,453.000,1.000
-8447.778,-10680.563,-151479.963,-149829.266,-289194.819,-12811.462,-11742.627,-7513.584,-0.062,0.640,0.988,-0.793,-4.486,1.404,73.333,454.000,1.000
-8369.293,-10605.553,-151608.250,-149953.355,-289460.840,-12721.730,-11664.701,-7330.128,-0.070,0.649,0.986,0.610,-4.700,1.495,73.333,455.000,1.000
-8289.103,-10526.670,-151708.133,-150054.247,-289702.830,-12619.508,-11579.547,-7162.662,-0.074,0.652,0.984,1.923,-4.944,1.556,73.333,456.000,1.000
-8210.231,-10449.432,-151792.614,-150145.359,-289926.083,-12513.839,-11494.885,-6998.573,-0.078,0.651,0.979,3.296,-5.096,1.526,73.333,457.000,1.000
-8134.550,-10377.549,-151878.394,-150237.141,-290136.906,-12413.651,-11417.014,-6837.764,-0.083,0.652,0.975,4.639,-5.402,1.404,73.333,458.000,1.000
-8061.503,-10310.464,-151974.616,-150331.638,-290337.072,-12321.976,-11346.434,-6688.824,-0.084,0.651,0.973,6.195,-5.554,1.434,73.333,459.000,1.000
-7988.216,-10243.693,-152078.907,-150422.644,-290521.987,-12234.228,-11277.098,-6552.528,-0.085,0.650,0.970,7.996,-5.707,1.129,73.333,460.000,1.000
-7911.271,-10171.662,-152181.095,-150500.346,-290683.577,-12141.423,-11199.830,-6415.964,-0.091,0.657,0.967,9.735,-5.615,1.007,73.333,461.000,1.000
-7829.448,-10091.690,-152269.501,-150556.893,-290815.134,-12036.583,-11108.218,-6266.459,-0.093,0.667,0.965,11.047,-6.042,0.854,73.333,462.000,1.000
-7745.116,-10006.125,-152336.268,-150589.845,-290915.001,-11919.836,-11003.105,-6107.933,-0.097,0.668,0.961,11.902,-6.134,1.099,73.333,463.000,1.000
-7662.556,-9920.457,-152379.370,-150601.727,-290987.033,-11797.770,-10891.627,-5957.900,-0.101,0.658,0.954,12.604,-6.226,1.251,73.333,464.000,1.000
-7584.507,-9838.999,-152399.294,-150596.025,-291037.141,-11677.525,-10781.352,-5828.189,-0.104,0.649,0.942,13.824,-6.409,1.160,73.333,465.000,1.000
-7510.412,-9762.005,-152392.836,-150572.787,-291068.222,-11560.900,-10674.600,-5713.386,-0.104,0.643,0.931,15.442,-6.409,1.190,73.333,466.000,1.000
-7437.585,-9686.077,-152348.868,-150526.675,-291077.147,-11443.060,-10566.739,-5598.924,-0.104,0.642,0.922,17.120,-6.287,1.129,73.333,467.000,1.000
-7363.289,-9606.539,-152248.456,-150447.893,-291055.630,-11315.855,-10448.468,-5475.367,-0.101,0.641,0.913,18.799,-6.470,1.038,73.333,468.000,1.000
-7285.856,-9519.724,-152069.264,-150325.839,-290994.284,-11172.327,-10310.333,-5342.455,-0.100,0.636,0.905,20.477,-6.439,1.038,73.333,469.000,1.000
-7204.689,-9424.008,-151791.536,-150153.750,-290886.805,-11008.904,-10146.609,-5202.407,-0.099,0.629,0.893,22.308,-6.287,1.068,73.333,470.000,1.000
-7119.830,-9319.750,-151401.163,-149930.613,-290731.267,-10825.379,-9956.484,-5053.598,-0.092,0.620,0.886,24.323,-5.920,1.160,73.333,471.000,1.000
-7031.671,-9208.760,-150887.131,-149658.039,-290528.731,-10624.238,-9743.003,-4893.165,-0.084,0.613,0.877,26.428,-5.707,1.282,73.333,472.000,1.000
-6940.515,-9092.496,-150231.695,-149331.602,-290279.528,-10407.712,-9509.127,-4723.065,-0.081,0.604,0.865,28.564,-5.493,1.556,73.333,473.000,1.000
-6845.724,-8969.289,-149394.949,-148930.005,-289977.177,-10172.348,-9251.111,-4548.087,-0.078,0.590,0.854,30.884,-4.974,1.923,73.333,474.000,1.000
-6745.441,-8833.631,-148305.219,-148411.763,-289604.046,-9906.330,-8954.784,-4367.274,-0.079,0.583,0.843,33.386,-4.486,2.106,73.333,475.000,1.000
-6637.094,-8678.122,-146862.994,-147722.242,-289132.733,-9591.822,-8597.961,-4169.575,-0.079,0.577,0.834,35.980,-3.845,2.319,73.333,476.000,1.000
-6517.642,-8495.134,-144947.994,-146799.884,-288530.799,-9208.597,-8154.487,-3937.216,-0.082,0.575,0.823,38.513,-3.235,2.380,73.333,477.000,1.000
-6383.869,-8278.115,-142427.852,-145582.291,-287765.996,-8738.021,-7598.686,-3654.044,-0.084,0.565,0.815,41.138,-2.747,2.502,73.333,478.000,1.000
-6234.678,-8024.972,-139192.815,-144030.650,-286813.800,-8169.870,-6914.750,-3315.519,-0.087,0.554,0.803,43.671,-2.289,2.655,73.333,479.000,1.000
-6074.898,-7742.621,-135217.861,-142167.869,-285668.603,-7510.832,-6109.594,-2934.972,-0.094,0.540,0.792,46.021,-1.709,3.052,73.333,480.000,1.000
-5915.952,-7448.822,-130602.119,-140096.136,-284354.297,-6790.388,-5220.426,-2542.579,-0.100,0.523,0.778,48.279,-1.282,3.113,73.333,481.000,1.000
-5770.428,-7168.097,-125548.579,-137975.862,-282925.569,-6058.358,-4308.896,-2176.612,-0.107,0.511,0.771,50.842,-0.854,2.838,73.333,482.000,1.000
-5644.811,-6922.567,-120331.475,-135981.495,-281455.737,-5371.203,-3442.085,-1869.233,-0.115,0.504,0.758,53.650,-0.458,2.472,73.333,483.000,1.000
-5537.391,-6724.216,-115319.752,-134258.077,-280018.221,-4774.749,-2672.865,-1635.948,-0.118,0.509,0.751,56.549,-0.153,1.892,73.333,484.000,1.000
-5442.249,-6573.301,-110992.203,-132891.323,-278670.465,-4293.616,-2030.462,-1474.309,-0.123,0.520,0.745,59.235,0.183,1.312,73.333,485.000,1.000
-5354.144,-6461.183,-107812.996,-131896.455,-277443.234,-3928.702,-1519.455,-1367.890,-0.128,0.539,0.739,61.401,0.458,0.793,73.333,486.000,1.000
-5271.033,-6375.604,-106018.660,-131230.964,-276338.845,-3661.608,-1124.539,-1294.078,-0.134,0.566,0.727,63.049,0.610,-0.061,73.333,487.000,1.000
-5194.376,-6306.677,-105504.572,-130826.607,-275340.456,-3465.448,-820.894,-1234.800,-0.136,0.594,0.715,64.392,0.977,-1.160,73.333,488.000,1.000
-5126.938,-6250.124,-105881.153,-130621.122,-274426.582,-3316.877,-585.531,-1182.823,-0.145,0.619,0.697,65.155,1.190,-2.045,73.333,489.000,1.000
-5069.029,-6206.701,-106635.520,-130573.450,-273582.264,-3203.002,-403.876,-1138.905,-0.152,0.644,0.675,65.552,1.282,-3.265,73.333,490.000,1.000
-5016.647,-6178.381,-107321.664,-130660.187,-272801.195,-3120.086,-268.744,-1103.370,-0.161,0.672,0.665,65.033,1.343,-4.303,73.333,491.000,1.000
-4963.090,-6162.858,-107707.062,-130860.436,-272078.599,-3065.168,-173.312,-1070.234,-0.167,0.691,0.659,63.812,1.007,-5.188,73.333,492.000,1.000
-4903.203,-6151.733,-107802.835,-131142.014,-271402.797,-3028.224,-105.247,-1029.610,-0.173,0.694,0.650,61.981,0.793,-6.134,73.333,493.000,1.000
-4837.448,-6134.951,-107762.968,-131458.054,-270754.241,-2992.727,-47.067,-973.977,-0.176,0.688,0.642,60.211,0.885,-7.477,73.333,494.000,1.000
-4770.940,-6105.611,-107735.395,-131751.592,-270110.269,-2941.484,20.245,-899.569,-0.183,0.674,0.629,58.441,0.793,-8.514,73.333,495.000,1.000
-4707.620,-6060.026,-107778.791,-131962.175,-269447.485,-2859.626,114.952,-802.842,-0.187,0.664,0.624,56.793,0.854,-9.827,73.333,496.000,1.000
-4646.324,-5995.204,-107881.418,-132031.017,-268740.215,-2733.240,254.551,-678.527,-0.193,0.652,0.621,55.084,0.824,-11.139,73.333,497.000,1.000
-4581.829,-5907.726,-108019.053,-131904.528,-267960.766,-2547.606,456.467,-521.705,-0.198,0.641,0.615,53.406,0.671,-12.146,73.333,498.000,1.000
-4507.988,-5794.977,-108177.815,-131544.241,-267086.401,-2289.541,735.872,-330.847,-0.203,0.630,0.617,51.819,0.610,-13.214,73.333,499.000,1.000
-4421.281,-5658.027,-108339.108,-130947.269,-266111.182,-1954.785,1098.691,-109.956,-0.203,0.625,0.621,50.446,0.610,-14.008,73.333,500.000,1.000
-4323.853,-5504.719,-108474.400,-130163.763,-265054.516,-1555.322,1533.850,128.925,-0.201,0.627,0.627,49.011,0.610,-14.709,73.333,501.000,1.000
-4223.550,-5350.529,-108569.394,-129298.929,-263961.085,-1121.489,2009.781,364.142,-0.198,0.627,0.630,47.485,0.732,-15.076,73.333,502.000,1.000
-4130.869,-5215.993,-108644.051,-128499.555,-262893.806,-698.808,2476.146,567.296,-0.196,0.632,0.628,46.570,0.854,-15.808,73.333,503.000,1.000
-4054.718,-5120.942,-108735.252,-127923.905,-261921.234,-339.292,2872.448,710.537,-0.199,0.643,0.632,46.021,1.465,-16.968,73.333,504.000,1.000
-3998.471,-5077.298,-108859.464,-127699.411,-261101.764,-87.309,3144.356,775.184,-0.201,0.658,0.635,45.563,1.831,-17.914,73.333,505.000,1.000
-3959.105,-5085.498,-109000.844,-127890.778,-260472.611,32.584,3258.847,758.054,-0.203,0.680,0.641,44.678,1.862,-18.555,73.333,506.000,1.000
-3929.999,-5136.859,-109136.326,-128498.004,-260047.853,18.676,3208.023,671.945,-0.204,0.707,0.647,43.488,1.953,-18.890,73.333,507.000,1.000
-3904.688,-5218.893,-109262.457,-129477.648,-259821.991,-113.541,3002.443,537.841,-0.201,0.728,0.649,41.626,2.106,-19.012,73.333,508.000,1.000
-3879.606,-5320.231,-109392.293,-130763.899,-259775.519,-340.627,2662.522,373.351,-0.201,0.738,0.652,39.795,2.472,-18.921,73.333,509.000,1.000
-3854.277,-5431.880,-109532.523,-132275.517,-259879.684,-636.591,2215.857,189.410,-0.205,0.750,0.653,38.239,2.960,-18.738,73.333,510.000,1.000
-3829.394,-5545.620,-109673.286,-133921.404,-260099.897,-974.274,1697.203,-4.077,-0.221,0.771,0.650,36.316,3.204,-18.585,73.333,511.000,1.000
-3805.848,-5654.992,-109801.954,-135621.724,-260402.396,-1330.528,1141.493,-196.358,-0.229,0.787,0.644,34.546,2.777,-18.585,73.333,512.000,1.000
-3785.004,-5758.032,-109919.586,-137330.197,-260763.420,-1692.852,573.388,-379.685,-0.235,0.792,0.645,32.440,2.411,-18.219,73.333,513.000,1.000
-3767.654,-5856.021,-110037.798,-139032.602,-261171.760,-2057.813,4.791,-550.368,-0.235,0.790,0.650,30.334,2.045,-17.731,73.333,514.000,1.000
-3752.261,-5949.456,-110162.438,-140725.254,-261621.686,-2422.979,-559.386,-706.362,-0.235,0.788,0.662,28.595,1.862,-17.120,73.333,515.000,1.000
-3735.589,-6036.655,-110287.057,-142395.310,-262105.238,-2781.623,-1114.710,-845.663,-0.242,0.786,0.670,26.703,1.831,-16.846,73.333,516.000,1.000
-3715.069,-6114.721,-110402.826,-144014.709,-262610.787,-3122.620,-1653.419,-965.253,-0.250,0.780,0.667,25.055,1.556,-16.815,73.333,517.000,1.000
-3689.708,-6180.028,-110508.961,-145545.924,-263124.662,-3432.349,-2163.533,-1060.494,-0.250,0.770,0.663,23.926,0.977,-16.418,73.333,518.000,1.000
-3659.544,-6229.462,-110610.476,-146954.327,-263632.826,-3698.422,-2632.059,-1128.252,-0.254,0.769,0.673,22.827,0.854,-15.442,73.333,519.000,1.000
-3625.102,-6262.827,-110709.326,-148220.748,-264123.486,-3915.210,-3050.899,-1171.531,-0.262,0.769,0.677,21.912,0.549,-14.801,73.333,520.000,1.000
-3586.794,-6282.964,-110802.073,-149346.078,-264589.844,-4086.492,-3419.921,-1198.265,-0.267,0.777,0.686,20.844,-0.305,-14.130,73.333,521.000,1.000
-3544.979,-6293.374,-110886.033,-150345.764,-265031.301,-4222.659,-3745.054,-1215.057,-0.271,0.783,0.693,19.623,-0.977,-13.275,73.333,522.000,1.000
-3500.560,-6296.571,-110964.110,-151239.935,-265451.827,-4335.515,-4034.253,-1223.332,-0.280,0.793,0.704,18.585,-1.709,-12.726,73.333,523.000,1.000
-3454.568,-6293.661,-111041.700,-152045.661,-265855.406,-4433.907,-4293.770,-1220.162,-0.287,0.799,0.717,17.303,-2.777,-12.238,73.333,524.000,1.000
-3408.052,-6285.255,-111120.954,-152774.952,-266242.575,-4522.777,-4527.656,-1202.848,-0.282,0.798,0.724,15.747,-3.662,-11.322,73.333,525.000,1.000
-3363.069,-6273.646,-111200.017,-153436.501,-266610.726,-4605.681,-4740.845,-1174.691,-0.275,0.794,0.731,14.252,-4.456,-10.162,73.333,526.000,1.000
-3321.328,-6261.819,-111276.168,-154034.782,-266954.549,-4684.563,-4938.493,-1143.692,-0.276,0.794,0.735,13.245,-5.096,-9.308,73.333,527.000,1.000
-3280.899,-6248.754,-111347.705,-154566.621,-267265.810,-4755.483,-5119.946,-1113.459,-0.277,0.792,0.743,12.390,-6.012,-8.423,73.333,528.000,1.000
-3236.559,-6228.806,-111413.888,-155023.686,-267537.143,-4809.160,-5277.915,-1079.834,-0.278,0.795,0.752,12.115,-6.683,-7.446,73.333,529.000,1.000
-3184.435,-6197.350,-111475.225,-155402.322,-267767.968,-4838.252,-5405.832,-1038.261,-0.272,0.806,0.763,11.444,-7.843,-6.409,73.333,530.000,1.000
-3125.551,-6155.299,-111533.971,-155709.989,-267964.719,-4842.399,-5502.911,-989.557,-0.258,0.811,0.773,10.529,-8.545,-4.974,73.333,531.000,1.000
-3064.806,-6107.955,-111592.946,-155961.217,-268134.971,-4826.861,-5572.061,-937.267,-0.245,0.812,0.780,9.918,-9.003,-3.418,73.333,532.000,1.000
-3006.878,-6060.900,-111653.053,-156169.716,-268282.547,-4798.585,-5616.687,-884.337,-0.228,0.813,0.781,9.613,-9.155,-2.075,73.333,533.000,1.000
-2952.940,-6017.080,-111712.309,-156345.961,-268407.199,-4763.582,-5640.203,-833.637,-0.212,0.812,0.785,9.521,-8.972,-0.977,73.333,534.000,1.000
-2900.879,-5975.923,-111767.775,-156498.367,-268506.119,-4725.796,-5645.291,-787.506,-0.204,0.815,0.788,9.735,-8.514,0.366,73.333,535.000,1.000
-2847.987,-5933.474,-111818.101,-156628.150,-268574.274,-4685.568,-5630.228,-743.681,-0.195,0.824,0.790,9.918,-8.118,1.953,73.333,536.000,1.000
-2792.471,-5883.724,-111863.626,-156718.508,-268604.087,-4638.248,-5586.244,-692.372,-0.184,0.839,0.796,9.979,-7.660,3.571,73.333,537.000,1.000
-2732.911,-5821.558,-111904.391,-156735.133,-268586.995,-4576.117,-5502.977,-621.141,-0.179,0.850,0.798,9.827,-6.897,5.402,73.333,538.000,1.000
-2668.260,-5745.752,-111939.546,-156646.186,-268517.768,-4493.713,-5379.465,-525.441,-0.178,0.848,0.803,9.583,-6.317,7.446,73.333,539.000,1.000
-2598.959,-5659.812,-111969.457,-156445.506,-268398.716,-4392.398,-5229.440,-413.127,-0.175,0.842,0.808,9.674,-5.554,9.338,73.333,540.000,1.000
-2527.041,-5570.210,-111997.038,-156159.276,-268239.803,-4280.797,-5076.408,-298.580,-0.171,0.836,0.811,10.315,-4.700,11.078,73.333,541.000,1.000
-2454.989,-5483.334,-112025.375,-155833.028,-268054.285,-4170.612,-4942.941,-193.843,-0.167,0.829,0.815,10.986,-4.120,12.970,73.333,542.000,1.000
-2385.302,-5403.357,-112054.515,-155509.470,-267853.838,-4070.122,-4841.079,-103.711,-0.157,0.819,0.809,11.322,-3.540,14.679,73.333,543.000,1.000
-2320.499,-5331.908,-112082.011,-155210.968,-267645.863,-3979.100,-4769.732,-26.713,-0.139,0.809,0.802,12.024,-2.686,16.083,73.333,544.000,1.000
-2261.898,-5268.314,-112106.518,-154937.152,-267432.841,-3889.431,-4719.300,40.553,-0.125,0.807,0.806,14.008,-1.068,17.365,73.333,545.000,1.000
-2208.556,-5210.345,-112129.670,-154679.236,-267214.769,-3793.942,-4679.547,100.364,-0.118,0.815,0.815,16.022,0.122,18.433,73.333,546.000,1.000
-2158.126,-5156.136,-112153.748,-154438.971,-266993.831,-3696.624,-4646.551,153.539,-0.108,0.818,0.820,17.853,1.129,19.836,73.333,547.000,1.000
-2108.549,-5105.819,-112178.417,-154235.489,-266776.825,-3613.098,-4624.899,200.306,-0.106,0.813,0.820,19.501,2.380,21.606,73.333,548.000,1.000
-2059.088,-5061.093,-112201.379,-154095.311,-266572.795,-3561.116,-4623.973,240.842,-0.107,0.808,0.822,21.515,3.387,22.797,73.333,549.000,1.000
-2009.969,-5023.085,-112224.898,-154035.518,-266387.479,-3549.647,-4651.411,275.426,-0.106,0.809,0.829,23.529,4.333,23.895,73.333,550.000,1.000
-1961.418,-4990.907,-112275.717,-154054.130,-266220.014,-3573.654,-4709.257,304.547,-0.112,0.819,0.837,25.238,5.249,24.902,73.333,551.000,1.000
-1913.734,-4962.439,-112440.085,-154131.919,-266064.872,-3617.205,-4794.841,328.640,-0.119,0.826,0.844,26.459,5.920,25.696,73.333,552.000,1.000
-1867.327,-4935.097,-112871.564,-154237.696,-265913.634,-3661.018,-4901.430,348.796,-0.130,0.823,0.844,27.618,6.592,26.581,73.333,553.000,1.000
-1821.381,-4904.546,-113725.761,-154331.430,-265752.654,-3687.829,-5015.365,369.383,-0.139,0.813,0.844,28.809,6.805,27.039,73.333,554.000,1.000
-1773.145,-4864.293,-115062.083,-154370.215,-265562.880,-3684.600,-5116.195,398.368,-0.149,0.801,0.846,30.243,6.775,27.527,73.333,555.000,1.000
-1719.655,-4808.928,-116796.568,-154320.582,-265326.873,-3644.094,-5184.808,442.782,-0.158,0.786,0.849,31.647,6.378,27.740,73.333,556.000,1.000
-1660.115,-4737.917,-118730.431,-154169.959,-265036.805,-3565.313,-5212.288,504.578,-0.158,0.765,0.852,33.173,6.042,27.802,73.333,557.000,1.000
-1596.636,-4656.091,-120625.924,-153928.542,-264695.544,-3452.749,-5201.307,580.806,-0.156,0.739,0.846,34.912,5.585,27.832,73.333,558.000,1.000
-1533.095,-4571.197,-122296.141,-153621.189,-264311.549,-3315.945,-5161.578,665.821,-0.146,0.717,0.838,36.652,5.188,27.527,73.333,559.000,1.000
-1472.947,-4490.256,-123671.044,-153275.735,-263892.920,-3167.355,-5104.195,753.384,-0.131,0.707,0.831,38.727,4.791,27.100,73.333,560.000,1.000
-1417.325,-4416.770,-124801.800,-152915.036,-263444.838,-3017.798,-5038.435,837.898,-0.115,0.704,0.826,40.680,4.700,26.855,73.333,561.000,1.000
-1364.718,-4350.474,-125801.202,-152555.575,-262971.618,-2873.750,-4971.792,914.943,-0.098,0.694,0.813,42.694,4.608,26.917,73.333,562.000,1.000
-1312.331,-4288.865,-126766.504,-152208.758,-262479.602,-2737.772,-4909.741,982.440,-0.079,0.692,0.810,44.647,4.822,27.374,73.333,563.000,1.000
-1258.094,-4229.025,-127740.036,-151880.304,-261976.057,-2609.732,-4853.949,1041.231,-0.063,0.701,0.823,46.326,5.157,28.107,73.333,564.000,1.000
-1201.597,-4168.722,-128720.755,-151568.600,-261464.931,-2487.758,-4801.573,1093.625,-0.050,0.720,0.844,47.943,5.585,28.748,73.333,565.000,1.000
-1143.392,-4106.416,-129692.734,-151265.788,-260944.233,-2368.346,-4746.584,1142.002,-0.045,0.738,0.849,49.286,6.042,29.266,73.333,566.000,1.000
-1084.390,-4041.520,-130636.859,-150963.090,-260408.227,-2246.145,-4683.007,1187.829,-0.039,0.747,0.843,50.690,6.744,29.633,73.333,567.000,1.000
-1026.044,-3975.199,-131529.507,-150657.028,-259852.870,-2115.847,-4608.814,1230.470,-0.040,0.749,0.830,52.307,7.751,29.785,73.333,568.000,1.000
-969.749,-3909.617,-132348.871,-150350.648,-259278.587,-1975.934,-4526.192,1268.658,-0.040,0.753,0.823,54.016,8.545,29.694,73.333,569.000,1.000
-915.291,-3845.681,-133089.514,-150048.890,-258687.089,-1830.227,-4437.731,1303.978,-0.034,0.754,0.822,55.267,8.942,29.724,73.333,570.000,1.000
-860.680,-3782.313,-133766.239,-149754.201,-258077.366,-1685.601,-4344.393,1340.407,-0.028,0.759,0.825,56.305,9.125,29.816,73.333,571.000,1.000
-804.097,-3718.150,-134395.834,-149466.842,-257446.769,-1549.003,-4247.322,1379.947,-0.020,0.766,0.823,57.159,9.583,29.877,73.333,572.000,1.000
-745.630,-3653.144,-134971.336,-149187.012,-256794.551,-1425.515,-4148.936,1421.085,-0.017,0.771,0.818,57.739,10.223,30.121,73.333,573.000,1.000
-687.033,-3588.294,-135458.675,-148914.944,-256122.333,-1316.352,-4051.172,1461.597,-0.014,0.785,0.820,58.380,10.681,30.121,73.333,574.000,1.000
-630.324,-3524.537,-135823.431,-148650.469,-255432.569,-1217.749,-3954.213,1500.715,-0.010,0.793,0.814,59.113,11.108,30.090,73.333,575.000,1.000
-576.436,-3462.150,-136058.930,-148393.817,-254728.209,-1122.550,-3857.230,1538.736,-0.008,0.805,0.810,60.028,11.902,29.938,73.333,576.000,1.000
-524.565,-3400.582,-136187.279,-148145.244,-254011.609,-1022.882,-3758.474,1576.676,-0.015,0.812,0.798,60.883,12.360,29.694,73.333,577.000,1.000
-473.293,-3339.145,-136240.601,-147903.886,-253282.589,-912.675,-3654.986,1615.998,-0.020,0.823,0.789,61.798,12.482,29.175,73.333,578.000,1.000
-422.317,-3278.224,-136247.349,-147669.019,-252539.636,-790.149,-3544.682,1657.274,-0.022,0.832,0.783,62.408,12.604,28.900,73.333,579.000,1.000
-371.854,-3218.517,-136229.466,-147441.643,-251782.427,-657.353,-3428.188,1699.935,-0.029,0.836,0.780,63.202,12.695,28.503,73.333,580.000,1.000
-320.721,-3158.934,-136200.308,-147223.429,-251011.712,-516.454,-3307.392,1743.899,-0.038,0.833,0.784,63.782,12.573,27.863,73.333,581.000,1.000
-266.869,-3097.144,-136162.193,-147015.480,-250228.553,-368.422,-3183.842,1790.172,-0.040,0.813,0.780,64.636,12.299,27.008,73.333,582.000,1.000
-209.953,-3032.428,-136109.333,-146818.312,-249434.203,-215.135,-3058.951,1839.654,-0.045,0.792,0.783,66.040,12.024,26.215,73.333,583.000,1.000
-152.296,-2966.807,-136035.813,-146631.393,-248629.559,-60.061,-2933.820,1892.373,-0.046,0.762,0.776,67.902,11.627,25.299,73.333,584.000,1.000
-96.949,-2903.277,-135942.136,-146452.182,-247815.091,93.710,-2808.211,1948.026,-0.046,0.741,0.782,70.007,11.322,24.658,73.333,585.000,1.000
-45.162,-2843.352,-135834.593,-146275.938,-246991.288,245.136,-2680.369,2006.543,-0.045,0.723,0.785,72.021,10.864,23.895,73.333,586.000,1.000
4.026,-2786.479,-135719.593,-146096.937,-246158.968,394.141,-2548.783,2067.391,-0.035,0.711,0.791,74.188,10.406,23.193,73.333,587.000,1.000
52.218,-2731.355,-135600.062,-145910.174,-245319.531,539.336,-2414.368,2128.701,-0.022,0.701,0.787,76.385,10.376,22.552,73.333,588.000,1.000
100.266,-2677.019,-135475.788,-145712.244,-244474.381,678.353,-2280.189,2188.163,-0.012,0.699,0.785,78.552,10.193,22.095,73.333,589.000,1.000
148.058,-2622.895,-135344.704,-145501.845,-243623.902,810.413,-2149.160,2244.434,-0.005,0.700,0.777,80.475,9.735,21.759,73.333,590.000,1.000
195.101,-2568.562,-135203.057,-145280.156,-242767.580,937.355,-2022.624,2296.982,0.011,0.697,0.771,82.306,9.430,21.912,73.333,591.000,1.000
241.487,-2513.307,-135044.656,-145049.815,-241904.281,1062.590,-1900.054,2346.164,0.020,0.691,0.763,84.076,9.369,22.400,73.333,592.000,1.000
288.678,-2455.599,-134861.484,-144812.884,-241031.711,1189.714,-1779.153,2394.447,0.029,0.695,0.753,85.663,9.186,23.010,73.333,593.000,1.000
338.231,-2394.480,-134648.173,-144571.058,-240147.961,1320.062,-1658.134,2444.721,0.042,0.698,0.735,87.006,9.216,23.926,73.333,594.000,1.000
388.739,-2332.511,-134407.286,-144328.723,-239255.376,1449.645,-1539.470,2495.762,0.046,0.712,0.719,89.081,9.705,24.292,73.333,595.000,1.000
435.967,-2275.072,-134147.569,-144093.330,-238360.327,1570.507,-1429.179,2542.174,0.054,0.738,0.699,91.125,10.071,24.567,73.333,596.000,1.000
477.579,-2224.886,-133875.458,-143870.818,-237467.154,1677.363,-1330.894,2579.839,0.050,0.762,0.682,93.170,10.406,25.085,73.333,597.000,1.000
516.089,-2178.667,-133590.660,-143662.283,-236574.415,1772.197,-1242.272,2609.204,0.052,0.795,0.671,94.788,10.437,25.299,73.333,598.000,1.000
556.312,-2130.011,-133289.715,-143465.594,-235677.381,1862.717,-1157.142,2633.784,0.060,0.821,0.658,96.008,10.315,25.848,73.333,599.000,1.000
600.878,-2075.242,-132970.522,-143279.221,-234772.290,1957.029,-1070.307,2657.011,0.069,0.841,0.647,96.588,10.468,26.520,73.333,600.000,1.000
648.348,-2016.569,-132632.955,-143104.595,-233858.337,2058.388,-981.155,2679.719,0.080,0.844,0.639,96.985,10.773,27.344,73.333,601.000,1.000
695.540,-1958.918,-132276.479,-142943.874,-232935.536,2164.861,-891.998,2701.129,0.085,0.833,0.633,97.656,11.261,27.679,73.333,602.000,1.000
741.079,-1904.510,-131898.856,-142795.673,-232001.516,2273.067,-803.465,2722.083,0.096,0.809,0.621,98.846,11.780,28.137,73.333,603.000,1.000
785.766,-1852.221,-131498.654,-142655.624,-231052.920,2379.592,-714.322,2745.026,0.099,0.792,0.616,99.945,12.756,28.595,73.333,604.000,1.000
830.643,-1800.203,-131077.803,-142520.496,-230089.255,2480.684,-624.106,2771.927,0.095,0.759,0.603,100.800,13.611,29.175,73.333,605.000,1.000
875.919,-1747.135,-130640.229,-142388.759,-229113.547,2573.777,-532.906,2804.304,0.091,0.729,0.594,101.898,14.252,29.724,73.333,606.000,1.000
920.999,-1692.657,-130188.277,-142256.919,-228129.626,2658.779,-440.012,2843.351,0.094,0.709,0.586,102.997,14.648,30.304,73.333,607.000,1.000
965.245,-1637.356,-129719.970,-142116.156,-227138.595,2737.712,-344.061,2888.130,0.090,0.701,0.585,104.218,14.923,30.945,73.333,608.000,1.000
1008.978,-1581.605,-129228.809,-141952.732,-226137.269,2814.071,-243.410,2935.331,0.086,0.697,0.572,105.041,14.801,31.586,73.333,609.000,1.000
1053.461,-1524.791,-128705.893,-141752.720,-225120.278,2891.947,-136.030,2982.148,0.084,0.699,0.562,105.652,14.587,31.982,73.333,610.000,1.000
1099.924,-1465.836,-128141.974,-141507.703,-224084.036,2974.762,-20.053,3028.233,0.082,0.701,0.545,106.934,14.465,32.257,73.333,611.000,1.000
1148.596,-1404.242,-127529.319,-141216.872,-223029.272,3064.633,104.924,3074.529,0.070,0.711,0.533,108.368,14.069,32.318,73.333,612.000,1.000
1198.497,-1340.469,-126865.513,-140883.559,-221959.522,3163.498,237.979,3121.757,0.064,0.725,0.521,110.046,13.336,31.891,73.333,613.000,1.000
1248.625,-1274.710,-126155.685,-140508.933,-220875.901,3275.530,379.577,3170.844,0.060,0.743,0.515,112.244,12.878,30.762,73.333,614.000,1.000
1299.385,-1205.230,-125405.640,-140088.709,-219773.137,3408.122,533.927,3223.853,0.053,0.760,0.504,114.258,12.299,29.663,73.333,615.000,1.000
1352.256,-1128.707,-124608.080,-139615.005,-218640.842,3569.672,707.905,3283.381,0.047,0.780,0.493,115.723,11.719,28.320,73.333,616.000,1.000
1408.501,-1042.048,-123732.480,-139078.541,-217467.221,3766.344,908.358,3351.551,0.041,0.791,0.473,116.577,10.925,27.161,73.333,617.000,1.000
1469.057,-943.177,-122724.026,-138467.950,-216240.925,4001.083,1141.051,3430.648,0.035,0.801,0.458,116.974,10.223,25.818,73.333,618.000,1.000
1534.888,-831.133,-121512.513,-137770.220,-214952.156,4274.284,1410.363,3523.645,0.031,0.805,0.439,116.852,9.521,24.170,73.333,619.000,1.000
1606.493,-706.567,-120028.574,-136973.840,-213594.468,4584.342,1718.455,3632.947,0.025,0.806,0.419,116.943,8.820,23.315,73.333,620.000,1.000
1683.597,-570.964,-118214.248,-136067.288,-212163.640,4929.432,2066.388,3760.044,0.023,0.795,0.406,116.882,8.057,22.461,73.333,621.000,1.000
1766.221,-423.334,-116010.828,-135026.587,-210650.495,5312.171,2459.349,3908.299,0.021,0.784,0.385,116.547,7.080,21.179,73.333,622.000,1.000
1856.188,-256.871,-113335.175,-133796.772,-209031.678,5744.844,2913.630,4086.628,0.022,0.776,0.368,115.479,6.348,19.745,73.333,623.000,1.000
1957.162,-59.789,-110123.548,-132285.307,-207267.607,6249.553,3458.998,4309.495,0.028,0.767,0.348,113.983,5.981,18.799,73.333,624.000,1.000
2072.675,178.851,-106490.496,-130387.666,-205313.131,6849.617,4130.773,4590.314,0.027,0.753,0.340,112.030,5.707,17.944,73.333,625.000,1.000
2203.062,461.306,-102842.887,-128044.419,-203138.163,7554.323,4951.728,4930.638,0.034,0.732,0.323,109.772,5.432,17.426,73.333,626.000,1.000
2342.969,775.198,-99753.450,-125301.398,-200749.749,8344.007,5911.422,5311.818,0.036,0.717,0.313,107.391,5.066,16.724,73.333,627.000,1.000
2481.827,1093.558,-97680.111,-122334.621,-198203.557,9165.488,6955.691,5695.749,0.042,0.701,0.301,104.767,4.883,16.052,73.333,628.000,1.000
2607.758,1382.875,-96760.732,-119416.473,-195594.998,9944.280,7995.807,6035.928,0.043,0.674,0.286,102.203,4.822,15.808,73.333,629.000,1.000
2712.290,1615.543,-96775.680,-116831.702,-193031.814,10608.692,8935.004,6293.001,0.037,0.650,0.268,100.037,5.005,15.045,73.333,630.000,1.000
2792.942,1779.370,-97263.731,-114783.596,-190602.104,11112.484,9699.551,6447.499,0.020,0.639,0.253,98.083,4.852,14.038,73.333,631.000,1.000
2852.290,1878.479,-97746.348,-113340.990,-188354.600,11444.145,10258.345,6504.071,0.008,0.638,0.243,96.405,4.547,12.512,73.333,632.000,1.000
2894.703,1926.590,-97947.384,-112450.736,-186299.223,11620.610,10621.563,6484.602,-0.007,0.630,0.223,95.367,4.089,10.712,73.333,633.000,1.000
2924.198,1939.494,-97863.659,-111994.373,-184420.801,11674.610,10823.824,6416.097,-0.020,0.627,0.206,95.154,3.326,8.972,73.333,634.000,1.000
2944.741,1931.296,-97650.646,-111846.263,-182693.038,11644.410,10905.845,6322.096,-0.023,0.613,0.172,95.764,2.167,6.805,73.333,635.000,1.000
2960.608,1913.071,-97448.332,-111906.680,-181086.900,11566.182,10903.038,6219.329,-0.016,0.604,0.127,97.137,1.038,4.425,73.333,636.000,1.000
2975.527,1892.065,-97301.485,-112108.452,-179573.276,11468.399,10842.144,6117.806,0.001,0.590,0.069,98.572,-0.244,2.014,73.333,637.000,1.000
2991.823,1871.876,-97199.181,-112410.005,-178122.852,11368.802,10742.500,6023.170,0.024,0.579,-0.004,100.006,-1.312,0.153,73.333,638.000,1.000
3010.124,1853.798,-97134.544,-112788.097,-176707.599,11272.505,10616.735,5938.719,0.048,0.571,-0.084,101.685,-1.862,-0.885,73.333,639.000,1.000
3029.506,1838.253,-97104.486,-113232.453,-175303.585,11172.615,10470.419,5865.838,0.080,0.573,-0.184,103.729,-1.953,-1.190,73.333,640.000,1.000
3048.325,1825.382,-97077.893,-113739.338,-173894.208,11055.280,10302.940,5803.577,0.111,0.583,-0.289,108.093,-1.465,-1.373,73.333,641.000,1.000
3065.433,1815.426,-97003.052,-114305.064,-172473.412,10907.784,10110.659,5748.777,0.140,0.611,-0.401,114.929,-0.244,-1.862,73.333,642.000,1.000
3080.895,1809.978,-96856.078,-114920.070,-171043.014,10728.001,9894.082,5698.996,0.160,0.667,-0.495,123.810,1.556,-2.319,73.333,643.000,1.000
3095.806,1812.995,-96665.896,-115563.755,-169603.834,10530.455,9666.171,5657.025,0.179,0.753,-0.581,133.514,3.632,-2.899,73.333,644.000,1.000
3112.025,1829.812,-96481.246,-116199.684,-168148.153,10344.879,9455.798,5633.407,0.188,0.865,-0.646,143.738,5.920,-3.265,73.333,645.000,1.000
3132.697,1865.697,-96320.820,-116766.598,-166653.085,10212.310,9307.305,5647.419,0.198,0.996,-0.692,152.954,8.240,-3.082,73.333,646.000,1.000
3163.353,1928.035,-96165.508,-117165.356,-165072.134,10183.893,9278.995,5727.208,0.214,1.139,-0.725,160.706,10.468,-2.594,73.333,647.000,1.000
3212.168,2031.634,-95994.283,-117251.351,-163332.112,10318.622,9438.274,5906.028,0.227,1.289,-0.743,166.443,13.123,-2.319,73.333,648.000,1.000
3287.773,2199.080,-95812.260,-116846.205,-161342.364,10674.622,9851.590,6213.482,0.233,1.438,-0.751,169.678,15.991,-1.831,73.333,649.000,1.000
3395.992,2452.584,-95637.926,-115775.706,-159012.635,11294.724,10572.133,6666.047,0.239,1.577,-0.744,170.532,19.043,-1.007,73.333,650.000,1.000
3538.520,2804.811,-95474.100,-113916.549,-156269.386,12193.525,11631.074,7262.518,0.246,1.702,-0.732,168.823,22.003,-0.031,73.333,651.000,1.000
3712.762,3252.890,-95304.501,-111233.359,-153067.601,13350.886,13031.676,7982.966,0.248,1.805,-0.712,164.764,25.024,1.160,73.333,652.000,1.000
3909.868,3771.427,-95118.138,-107822.782,-149408.683,14705.187,14735.913,8783.818,0.246,1.882,-0.691,158.783,27.893,2.808,73.333,653.000,1.000
4112.017,4307.393,-94926.917,-103968.151,-145366.662,16140.578,16644.579,9591.294,0.236,1.934,-0.668,150.818,30.640,3.906,73.333,654.000,1.000
4294.479,4790.123,-94754.579,-100131.727,-141094.613,17490.626,18598.450,10310.001,0.222,1.966,-0.648,141.785,33.112,4.822,73.333,655.000,1.000
4435.752,5159.279,-94613.697,-96814.203,-136782.172,18588.144,20423.599,10855.309,0.203,1.984,-0.623,132.019,35.522,5.829,73.333,656.000,1.000
4527.777,5388.469,-94499.423,-94363.934,-132588.516,19332.680,21993.006,11186.876,0.171,1.992,-0.592,121.613,37.750,6.531,73.333,657.000,1.000
4573.848,5480.808,-94403.436,-92913.977,-128613.643,19708.381,23245.478,11309.203,0.132,1.997,-0.561,110.718,39.093,6.714,73.333,658.000,1.000
4578.019,5445.915,-94326.502,-92479.227,-124927.025,19744.615,24151.615,11242.214,0.089,1.994,-0.527,99.426,39.948,6.531,73.333,659.000,1.000
4540.777,5286.656,-94274.988,-93071.294,-121608.163,19471.006,24675.967,10998.268,0.045,1.992,-0.488,87.646,39.978,5.615,73.333,660.000,1.000
4462.870,5003.894,-94250.382,-94721.223,-118754.558,18899.020,24771.888,10583.070,0.004,1.994,-0.449,75.439,39.551,3.906,73.333,661.000,1.000
4349.060,4608.156,-94246.573,-97416.469,-116453.440,18030.987,24406.018,10010.044,-0.038,1.991,-0.405,62.988,38.544,1.801,73.333,662.000,1.000
4210.151,4129.205,-94254.963,-101008.530,-114736.822,16889.697,23595.962,9316.769,-0.079,1.969,-0.377,50.201,36.957,-0.977,73.333,663.000,1.000
4064.369,3618.354,-94267.610,-105161.918,-113544.996,15549.354,22437.808,8573.616,-0.111,1.927,-0.363,39.032,35.034,-4.730,73.333,664.000,1.000
3934.207,3137.528,-94275.268,-109409.796,-112726.281,14137.316,21094.414,7871.389,-0.139,1.900,-0.320,28.259,32.166,-9.186,73.333,665.000,1.000
3836.549,2735.722,-94266.425,-113315.927,-112087.385,12792.961,19737.022,7286.284,-0.161,1.871,-0.265,16.296,28.564,-13.458,73.333,666.000,1.000
3773.664,2428.377,-94230.860,-116642.705,-111469.220,11609.793,18476.419,6845.118,-0.170,1.837,-0.199,3.265,24.719,-17.303,73.333,667.000,1.000
3735.154,2198.297,-94163.219,-119398.217,-110794.328,10606.864,17336.290,6520.965,-0.173,1.780,-0.141,-11.108,20.966,-20.935,73.333,668.000,1.000
3708.850,2016.562,-94062.866,-121734.030,-110057.520,9748.805,16283.013,6262.514,-0.171,1.694,-0.111,-25.146,17.609,-24.384,73.333,669.000,1.000
3688.770,1862.839,-93932.659,-123793.905,-109285.127,8990.286,15275.830,6029.374,-0.168,1.591,-0.093,-38.391,14.435,-27.679,73.333,670.000,1.000
3674.531,1730.813,-93779.028,-125633.927,-108505.017,8307.019,14295.914,5806.826,-0.161,1.468,-0.092,-50.385,11.200,-30.457,73.333,671.000,1.000
3667.258,1622.941,-93610.590,-127237.839,-107738.082,7698.956,13347.263,5599.614,-0.150,1.314,-0.112,-59.967,7.996,-33.142,73.333,672.000,1.000
3667.981,1544.900,-93433.374,-128562.251,-106994.221,7178.751,12447.762,5420.477,-0.138,1.147,-0.136,-66.101,4.974,-35.706,73.333,673.000,1.000
3678.538,1503.134,-93247.172,-129558.231,-106264.893,6761.255,11622.558,5282.854,-0.125,0.981,-0.161,-68.512,1.862,-38.513,73.333,674.000,1.000
3701.335,1502.195,-93048.331,-130181.845,-105523.419,6455.505,10896.023,5195.444,-0.111,0.835,-0.178,-67.383,-1.099,-41.107,73.333,675.000,1.000
3736.465,1539.725,-92836.575,-130424.718,-104741.307,6254.255,10277.785,5155.091,-0.087,0.717,-0.171,-64.148,-3.784,-43.335,73.333,676.000,1.000
3779.340,1602.689,-92617.852,-130352.392,-103911.976,6125.032,9749.649,5141.933,-0.061,0.630,-0.153,-59.418,-6.073,-45.105,73.333,677.000,1.000
3822.335,1670.219,-92399.948,-130105.642,-103063.438,6014.785,9266.488,5123.985,-0.033,0.566,-0.127,-54.077,-7.599,-46.112,73.333,678.000,1.000
3859.187,1722.344,-92186.934,-129850.213,-102248.960,5869.807,8774.996,5070.502,-0.005,0.521,-0.099,-48.065,-8.148,-46.478,73.333,679.000,1.000
3887.474,1747.028,-91980.078,-129715.444,-101524.331,5654.641,8236.700,4963.910,0.019,0.490,-0.078,-41.962,-7.965,-46.143,73.333,680.000,1.000
3907.498,1741.106,-91783.497,-129765.410,-100929.483,5356.596,7638.938,4802.892,0.037,0.475,-0.074,-35.370,-7.507,-45.410,73.333,681.000,1.000
3920.740,1709.014,-91604.982,-130001.004,-100480.250,4982.139,6993.082,4599.985,0.048,0.473,-0.079,-28.656,-6.836,-44.189,73.333,682.000,1.000
3930.059,1662.545,-91448.807,-130367.468,-100164.516,4556.138,6328.860,4378.921,0.051,0.482,-0.098,-21.423,-5.646,-42.816,73.333,683.000,1.000
3940.020,1618.768,-91309.624,-130760.648,-99940.718,4121.920,5688.247,4170.592,0.050,0.500,-0.118,-14.618,-4.608,-40.955,73.333,684.000,1.000
3955.980,1594.425,-91176.341,-131048.030,-99743.937,3733.181,5116.265,4005.122,0.048,0.524,-0.135,-8.575,-3.510,-38.818,73.333,685.000,1.000
3982.184,1599.789,-91041.754,-131113.947,-99503.547,3436.041,4647.322,3901.834,0.045,0.550,-0.143,-3.174,-2.625,-36.377,73.333,686.000,1.000
4019.591,1635.009,-90906.227,-130908.638,-99166.986,3250.765,4292.193,3862.256,0.049,0.577,-0.140,1.740,-1.617,-34.027,73.333,687.000,1.000
4065.403,1691.080,-90771.833,-130464.468,-98715.062,3166.457,4035.468,3871.376,0.052,0.605,-0.129,6.165,-0.519,-31.708,73.333,688.000,1.000
4115.185,1755.875,-90636.093,-129865.336,-98158.296,3152.516,3847.484,3907.282,0.057,0.637,-0.120,9.766,0.702,-29.236,73.333,689.000,1.000
4165.206,1820.758,-90494.329,-129195.958,-97520.264,3176.495,3701.617,3952.102,0.062,0.662,-0.107,12.634,1.862,-26.489,73.333,690.000,1.000
4213.050,1882.258,-90346.870,-128509.982,-96823.094,3215.469,3583.938,3997.125,0.061,0.681,-0.099,14.771,3.418,-23.682,73.333,691.000,1.000
4257.379,1939.397,-90200.072,-127829.699,-96083.099,3257.298,3491.154,4041.252,0.053,0.690,-0.093,16.296,4.852,-20.813,73.333,692.000,1.000
4297.878,1991.434,-90058.888,-127159.326,-95312.141,3297.059,3423.263,4086.231,0.041,0.691,-0.093,17.548,6.104,-17.853,73.333,693.000,1.000
4335.266,2038.320,-89920.588,-126491.194,-94517.095,3335.065,3379.731,4132.978,0.031,0.682,-0.091,18.250,7.294,-14.893,73.333,694.000,1.000
4371.007,2081.881,-89778.185,-125805.409,-93698.356,3376.541,3360.950,4181.723,0.017,0.665,-0.087,18.921,8.392,-12.360,73.333,695.000,1.000
4406.494,2125.108,-89629.367,-125076.435,-92853.410,3428.312,3368.856,4233.542,0.004,0.647,-0.083,20.203,9.338,-10.162,73.333,696.000,1.000
4442.158,2169.964,-89478.991,-124288.958,-91983.877,3492.826,3403.037,4288.848,-0.010,0.631,-0.078,21.637,10.010,-8.331,73.333,697.000,1.000
4477.777,2216.636,-89331.834,-123449.429,-91098.051,3566.046,3457.545,4345.411,-0.024,0.618,-0.078,23.315,10.345,-6.805,73.333,698.000,1.000
4513.549,2264.612,-89185.956,-122582.921,-90207.380,3640.802,3522.632,4400.013,-0.032,0.604,-0.083,24.963,10.406,-5.524,73.333,699.000,1.000
4549.721,2312.595,-89036.092,-121720.657,-89323.007,3709.750,3587.593,4450.107,-0.036,0.590,-0.092,26.886,10.315,-4.547,73.333,700.000,1.000
4585.483,2357.747,-88881.773,-120888.618,-88454.299,3766.346,3642.484,4493.095,-0.038,0.583,-0.098,29.175,10.376,-3.662,73.333,701.000,1.000
4619.667,2397.285,-88728.320,-120102.796,-87606.881,3806.811,3680.638,4526.687,-0.039,0.582,-0.107,31.342,10.406,-2.930,73.333,702.000,1.000
4652.108,2430.652,-88579.740,-119372.294,-86781.730,3831.281,3700.115,4550.343,-0.035,0.588,-0.118,33.630,10.406,-2.380,73.333,703.000,1.000
4683.079,2458.635,-88433.925,-118706.255,-85978.060,3841.183,3701.191,4564.575,-0.034,0.601,-0.131,35.706,10.406,-1.892,73.333,704.000,1.000
4711.952,2481.265,-88286.357,-118117.193,-85196.606,3836.472,3683.066,4569.011,-0.032,0.621,-0.144,37.720,10.437,-1.556,73.333,705.000,1.000
4737.663,2498.221,-88136.378,-117617.350,-84438.564,3817.185,3644.560,4562.723,-0.034,0.646,-0.153,39.429,10.468,-1.404,73.333,706.000,1.000
4760.028,2510.301,-87987.607,-117212.818,-83702.680,3785.947,3586.755,4546.137,-0.036,0.676,-0.160,40.680,10.468,-1.251,73.333,707.000,1.000
4779.745,2518.831,-87842.528,-116901.489,-82985.098,3746.628,3513.022,4521.599,-0.037,0.703,-0.171,41.473,10.498,-1.312,73.333,708.000,1.000
4797.627,2524.241,-87698.635,-116675.271,-82281.181,3701.318,3426.975,4492.417,-0.038,0.729,-0.187,41.870,10.498,-1.282,73.333,709.000,1.000
4814.409,2526.128,-87551.247,-116523.500,-81587.068,3649.465,3330.921,4461.390,-0.035,0.754,-0.205,41.931,10.345,-1.343,73.333,710.000,1.000
4830.728,2524.157,-87399.366,-116434.822,-80900.734,3589.028,3225.455,4429.487,-0.032,0.776,-0.223,41.748,10.223,-1.404,73.333,711.000,1.000
4846.821,2518.350,-87246.671,-116397.280,-80222.203,3518.320,3110.265,4396.020,-0.026,0.796,-0.240,41.534,10.071,-1.434,73.333,712.000,1.000
4862.501,2508.926,-87096.344,-116398.964,-79552.895,3437.523,2985.586,4360.599,-0.021,0.813,-0.256,41.260,10.071,-1.495,73.333,713.000,1.000
4877.420,2496.202,-86946.994,-116430.576,-78895.390,3348.271,2852.209,4324.080,-0.015,0.834,-0.273,41.016,10.040,-1.587,73.333,714.000,1.000
4891.297,2480.783,-86794.957,-116486.443,-78253.153,3252.073,2710.403,4287.288,-0.009,0.857,-0.285,40.649,10.223,-1.740,73.333,715.000,1.000
4904.519,2464.361,-86639.127,-116559.847,-77628.379,3150.788,2561.052,4250.698,-0.004,0.883,-0.302,40.222,10.468,-1.770,73.333,716.000,1.000
4918.239,2449.755,-86481.808,-116637.288,-77019.743,3048.306,2408.158,4215.885,-0.003,0.908,-0.317,39.581,10.712,-1.892,73.333,717.000,1.000
4933.138,2439.200,-86325.109,-116699.732,-76422.914,2950.098,2258.529,4185.791,-0.002,0.932,-0.330,39.001,11.108,-2.136,73.333,718.000,1.000
4948.510,2432.884,-86167.983,-116730.248,-75832.417,2860.928,2118.754,4163.189,-0.002,0.960,-0.341,38.177,11.353,-2.228,73.333,719.000,1.000
4962.871,2429.291,-86007.715,-116720.833,-75242.732,2782.909,1992.520,4149.012,-0.004,0.984,-0.355,37.109,11.719,-2.441,73.333,720.000,1.000
4975.211,2426.584,-85843.631,-116673.630,-74649.137,2715.086,1879.776,4141.718,-0.008,1.002,-0.363,35.797,12.115,-2.533,73.333,721.000,1.000
4985.739,2423.449,-85677.866,-116599.606,-74049.304,2654.222,1776.966,4137.820,-0.010,1.021,-0.376,34.546,12.299,-2.563,73.333,722.000,1.000
4995.042,2417.498,-85512.497,-116525.013,-73447.836,2593.470,1675.081,4131.460,-0.015,1.042,-0.382,33.081,12.543,-2.747,73.333,723.000,1.000
5002.196,2402.616,-85347.482,-116504.499,-72863.535,2518.220,1555.310,4112.749,-0.018,1.060,-0.391,31.586,12.634,-2.808,73.333,724.000,1.000
5005.026,2371.518,-85181.906,-116609.012,-72327.290,2409.029,1393.089,4071.372,-0.024,1.076,-0.401,30.090,12.695,-2.899,73.333,725.000,1.000
5003.190,2323.955,-85015.762,-116871.427,-71860.954,2257.459,1176.888,4007.247,-0.030,1.091,-0.407,28.442,12.634,-2.960,73.333,726.000,1.000
5000.129,2270.887,-84849.411,-117239.982,-71454.430,2079.549,924.454,3936.133,-0.036,1.107,-0.411,26.855,12.604,-3.082,73.333,727.000,1.000
5001.971,2230.512,-84681.477,-117586.637,-71062.177,1913.098,680.397,3883.779,-0.046,1.115,-0.415,25.146,12.329,-3.204,73.333,728.000,1.000
5015.402,2222.125,-84507.941,-117749.029,-70614.926,1805.808,502.887,3877.007,-0.056,1.119,-0.414,23.132,12.054,-3.326,73.333,729.000,1.000
5045.649,2260.778,-84324.093,-117577.719,-70037.469,1801.880,448.109,3936.202,-0.069,1.115,-0.415,21.149,11.566,-3.448,73.333,730.000,1.000
5094.451,2351.859,-84127.978,-116984.410,-69271.955,1926.905,552.087,4067.602,-0.084,1.104,-0.407,18.951,11.017,-3.723,73.333,731.000,1.000
5159.176,2488.569,-83921.715,-115971.599,-68297.392,2177.986,817.638,4259.820,-0.099,1.086,-0.397,16.846,10.223,-3.937,73.333,732.000,1.000
5234.245,2655.666,-83709.130,-114619.417,-67130.798,2528.180,1217.501,4489.717,-0.114,1.062,-0.391,14.923,9.216,-4.364,73.333,733.000,1.000
5313.561,2836.443,-83492.705,-113040.607,-65811.428,2940.676,1709.840,4733.057,-0.124,1.032,-0.383,13.275,8.057,-4.974,73.333,734.000,1.000
5392.104,3017.555,-83273.313,-111338.679,-64382.883,3380.947,2253.128,4971.546,-0.132,1.008,-0.376,11.810,6.683,-5.646,73.333,735.000,1.000
5466.620,3190.681,-83052.016,-109587.916,-62882.388,3822.984,2814.623,5194.449,-0.135,0.984,-0.366,10.681,5.188,-6.348,73.333,736.000,1.000
5536.136,3353.048,-82830.737,-107828.894,-61335.987,4252.364,3374.509,5398.031,-0.134,0.964,-0.362,9.521,3.662,-7.202,73.333,737.000,1.000
5602.174,3507.394,-82610.920,-106070.511,-59756.408,4667.130,3927.198,5584.605,-0.131,0.950,-0.356,8.667,2.289,-8.057,73.333,738.000,1.000
5667.916,3660.061,-82392.327,-104299.868,-58144.281,5074.753,4478.363,5760.313,-0.130,0.943,-0.354,8.057,1.099,-8.881,73.333,739.000,1.000
5736.567,3817.158,-82173.663,-102500.843,-56493.865,5485.466,5037.555,5931.565,-0.132,0.937,-0.360,7.874,-0.244,-9.705,73.333,740.000,1.000
5809.654,3980.897,-81954.073,-100671.354,-54800.161,5905.447,5610.130,6101.578,-0.133,0.941,-0.356,7.568,-1.617,-10.590,73.333,741.000,1.000
5885.951,4148.496,-81733.609,-98827.292,-53062.081,6333.789,6193.623,6268.940,-0.132,0.952,-0.340,6.683,-3.204,-11.383,73.333,742.000,1.000
5962.217,4314.435,-81512.442,-96993.886,-51280.802,6764.391,6780.227,6429.475,-0.132,0.964,-0.322,5.157,-4.578,-11.871,73.333,743.000,1.000
6035.275,4473.716,-81290.352,-95197.685,-49458.925,7189.306,7360.968,6579.280,-0.133,0.973,-0.309,3.052,-5.768,-12.421,73.333,744.000,1.000
6103.260,4622.971,-81067.341,-93466.755,-47603.481,7599.913,7926.841,6715.430,-0.135,0.980,-0.296,0.763,-6.927,-13.092,73.333,745.000,1.000
6165.552,4759.947,-80844.271,-91831.210,-45727.756,7987.322,8468.412,6835.346,-0.139,0.990,-0.291,-1.923,-8.057,-13.702,73.333,746.000,1.000
6222.485,4883.500,-80622.507,-90316.288,-43847.974,8344.348,8977.216,6937.346,-0.145,0.994,-0.296,-4.730,-9.216,-14.374,73.333,747.000,1.000
6274.970,4993.912,-80403.088,-88934.364,-41978.524,8667.392,9447.657,7021.435,-0.151,0.998,-0.294,-7.507,-10.529,-15.045,73.333,748.000,1.000
6323.837,5092.285,-80186.263,-87686.139,-40130.423,8955.788,9876.755,7088.836,-0.155,1.001,-0.294,-10.468,-11.902,-15.625,73.333,749.000,1.000
6369.204,5179.206,-79971.687,-86569.856,-38313.046,9209.214,10262.180,7140.884,-0.162,1.004,-0.292,-13.428,-13.367,-16.449,73.333,750.000,1.000
6410.526,5253.939,-79758.976,-85587.506,-36536.028,9425.743,10600.979,7178.545,-0.166,1.001,-0.292,-16.327,-14.832,-17.487,73.333,751.000,1.000
6447.250,5314.942,-79548.025,-84742.024,-34808.836,9602.353,10889.900,7202.216,-0.168,1.002,-0.289,-18.951,-16.296,-18.585,73.333,752.000,1.000
6478.815,5360.508,-79338.927,-84032.135,-33139.251,9736.408,11125.440,7210.366,-0.167,0.999,-0.280,-21.576,-17.670,-19.653,73.333,753.000,1.000
6503.887,5388.778,-79131.771,-83453.247,-31533.593,9826.060,11303.322,7198.769,-0.162,0.994,-0.272,-24.536,-19.012,-20.538,73.333,754.000,1.000
6521.119,5399.005,-78926.298,-83001.792,-29997.760,9871.708,11420.965,7164.138,-0.163,0.989,-0.261,-27.557,-20.081,-21.332,73.333,755.000,1.000
6531.045,5393.514,-78721.575,-82675.237,-28536.652,9878.331,11481.509,7109.259,-0.165,0.982,-0.248,-30.670,-21.057,-22.369,73.333,756.000,1.000
6535.703,5376.323,-78516.484,-82468.308,-27153.409,9852.906,11492.160,7041.765,-0.166,0.971,-0.235,-33.661,-22.095,-22.858,73.333,757.000,1.000
6536.587,5350.010,-78310.574,-82370.983,-25849.411,9798.595,11458.282,6967.139,-0.171,0.953,-0.228,-36.621,-22.888,-23.590,73.333,758.000,1.000
6534.389,5315.766,-78104.008,-82369.643,-24623.476,9714.381,11382.404,6885.512,-0.181,0.933,-0.220,-39.124,-23.621,-24.292,73.333,759.000,1.000
6529.969,5275.254,-77896.943,-82449.427,-23471.371,9600.032,11268.266,6795.686,-0.192,0.916,-0.216,-41.382,-24.536,-24.658,73.333,760.000,1.000
6524.744,5231.163,-77689.033,-82594.738,-22386.366,9460.206,11123.409,6700.044,-0.204,0.898,-0.211,-44.037,-25.787,-24.750,73.333,761.000,1.000
6520.658,5187.141,-77479.234,-82787.968,-21359.727,9305.250,10958.504,6605.402,-0.210,0.883,-0.208,-46.143,-27.130,-24.872,73.333,762.000,1.000
6519.559,5147.045,-77266.447,-83011.273,-20382.828,9147.881,10784.322,6520.364,-0.209,0.869,-0.204,-47.821,-28.412,-24.780,73.333,763.000,1.000
6521.823,5112.614,-77050.829,-83252.580,-19451.424,8996.448,10606.742,6450.624,-0.205,0.856,-0.198,-48.920,-29.480,-24.689,73.333,764.000,1.000
6525.310,5081.413,-76834.227,-83509.678,-18567.722,8849.692,10422.785,6394.413,-0.201,0.845,-0.188,-49.500,-30.457,-24.597,73.333,765.000,1.000
6526.144,5047.987,-76619.063,-83787.071,-17737.138,8698.187,10222.443,6342.283,-0.195,0.839,-0.177,-50.018,-31.219,-24.567,73.333,766.000,1.000
6521.295,5007.957,-76406.824,-84088.272,-16962.579,8531.927,9996.359,6282.707,-0.192,0.833,-0.161,-50.476,-31.677,-24.231,73.333,767.000,1.000
6510.799,4961.142,-76197.437,-84410.558,-16241.188,8347.557,9742.700,6208.965,-0.192,0.830,-0.148,-51.086,-32.013,-23.987,73.333,768.000,1.000
6497.438,4910.624,-75989.644,-84745.737,-15565.793,8149.092,9467.043,6121.496,-0.189,0.822,-0.135,-51.666,-32.196,-23.560,73.333,769.000,1.000
6484.578,4859.749,-75781.813,-85084.303,-14928.837,7943.348,9177.375,6025.381,-0.183,0.815,-0.122,-52.124,-32.166,-23.285,73.333,770.000,1.000
6474.511,4810.891,-75572.548,-85417.662,-14324.497,7736.557,8881.314,5927.641,-0.178,0.810,-0.106,-52.612,-31.921,-22.491,73.333,771.000,1.000
6468.229,4766.003,-75360.854,-85737.674,-13747.937,7534.136,8586.758,5836.047,-0.173,0.803,-0.092,-52.917,-31.433,-21.759,73.333,772.000,1.000
6465.871,4726.743,-75146.209,-86037.024,-13194.643,7340.717,8301.539,5757.254,-0.168,0.798,-0.089,-53.070,-31.067,-20.874,73.333,773.000,1.000
6466.991,4693.716,-74928.726,-86311.303,-12661.575,7158.892,8030.738,5694.226,-0.164,0.793,-0.079,-52.765,-30.518,-19.684,73.333,774.000,1.000
6470.382,4665.462,-74709.038,-86560.265,-12148.467,6987.327,7773.375,5644.349,-0.161,0.788,-0.072,-52.094,-29.999,-18.524,73.333,775.000,1.000
6474.137,4638.535,-74487.830,-86786.448,-11657.285,6820.534,7521.299,5598.773,-0.160,0.786,-0.060,-51.147,-29.388,-17.487,73.333,776.000,1.000
6476.482,4609.501,-74265.696,-86992.518,-11190.742,6652.221,7263.709,5546.024,-0.156,0.783,-0.045,-50.079,-28.687,-16.144,73.333,777.000,1.000
6476.557,4577.002,-74043.620,-87180.143,-10752.153,6479.188,6994.759,5480.235,-0.152,0.781,-0.028,-48.981,-27.710,-14.984,73.333,778.000,1.000
6474.774,4542.065,-73823.133,-87350.467,-10345.624,6301.904,6716.531,5405.530,-0.149,0.780,-0.011,-47.638,-26.642,-13.855,73.333,779.000,1.000
6472.983,4507.514,-73605.451,-87503.758,-9973.940,6123.522,6436.530,5331.936,-0.150,0.782,-0.002,-45.654,-25.299,-13.000,73.333,780.000,1.000
6473.745,4476.972,-73390.461,-87638.191,-9635.679,5949.369,6164.201,5268.905,-0.153,0.791,0.004,-42.847,-23.926,-12.299,73.333,781.000,1.000
6478.663,4453.049,-73176.752,-87750.323,-9325.107,5785.253,5907.483,5221.777,-0.157,0.812,0.000,-39.581,-22.522,-11.780,73.333,782.000,1.000
6487.466,4435.997,-72962.532,-87837.494,-9034.680,5635.002,5669.763,5190.711,-0.167,0.837,-0.001,-36.346,-21.271,-11.169,73.333,783.000,1.000
6498.620,4424.401,-72746.532,-87899.628,-8757.387,5500.233,5449.626,5171.045,-0.173,0.863,0.001,-33.417,-20.203,-10.712,73.333,784.000,1.000
6510.258,4416.424,-72528.418,-87939.190,-8488.364,5381.264,5242.952,5155.410,-0.175,0.890,0.008,-30.762,-19.104,-10.010,73.333,785.000,1.000
6520.397,4409.747,-72308.684,-87959.636,-8225.917,5276.382,5044.907,5136.948,-0.182,0.920,0.017,-28.687,-18.005,-9.277,73.333,786.000,1.000
6527.152,4401.520,-72088.096,-87963.520,-7970.631,5181.401,4851.636,5111.809,-0.189,0.948,0.020,-27.222,-17.059,-8.667,73.333,787.000,1.000
6529.542,4389.484,-71867.165,-87951.858,-7722.955,5091.315,4661.481,5079.780,-0.192,0.968,0.025,-26.062,-16.022,-7.996,73.333,788.000,1.000
6528.162,4373.105,-71646.058,-87924.764,-7481.638,5002.284,4474.785,5043.110,-0.198,0.986,0.029,-24.872,-14.954,-7.416,73.333,789.000,1.000
6525.202,4354.184,-71424.706,-87881.576,-7243.884,4913.434,4293.479,5005.017,-0.207,1.000,0.034,-23.743,-14.069,-6.836,73.333,790.000,1.000
6524.049,4336.918,-71202.706,-87819.709,-7005.881,4828.299,4121.756,4969.780,-0.214,1.013,0.037,-22.614,-13.367,-6.226,73.333,791.000,1.000
6528.185,4326.326,-70979.122,-87734.453,-6762.874,4753.506,3965.773,4943.214,-0.221,1.024,0.041,-21.423,-12.665,-5.768,73.333,792.000,1.000
6538.937,4324.784,-70752.819,-87622.191,-6510.350,4693.559,3829.499,4929.714,-0.230,1.032,0.047,-20.142,-12.054,-5.280,73.333,793.000,1.000
6553.845,4329.443,-70523.458,-87485.042,-6247.206,4645.660,3709.248,4927.129,-0.235,1.037,0.054,-18.555,-11.566,-5.066,73.333,794.000,1.000
6568.122,4333.985,-70292.068,-87331.625,-5977.853,4600.794,3594.245,4926.778,-0.247,1.046,0.069,-16.693,-11.169,-4.822,73.333,795.000,1.000
6578.210,4333.458,-70060.381,-87172.563,-5710.238,4550.606,3474.207,4920.358,-0.254,1.050,0.076,-15.137,-10.864,-4.547,73.333,796.000,1.000
6584.007,4327.321,-69829.629,-87015.293,-5451.404,4492.753,3345.913,4906.236,-0.263,1.053,0.076,-13.092,-10.651,-4.272,73.333,797.000,1.000
6588.215,4318.707,-69599.878,-86862.192,-5204.250,4430.924,3213.476,4889.156,-0.272,1.059,0.078,-10.986,-10.345,-4.089,73.333,798.000,1.000
6593.820,4311.671,-69370.226,-86711.809,-4967.444,4371.575,3084.439,4875.613,-0.282,1.071,0.081,-8.667,-10.345,-4.028,73.333,799.000,1.000
6601.888,4308.557,-69139.613,-86561.206,-4738.014,4319.762,2964.983,4869.550,-0.289,1.085,0.082,-6.378,-10.620,-3.967,73.333,800.000,1.000
6611.389,4309.029,-68907.524,-86407.443,-4513.747,4276.310,2856.424,4870.416,-0.291,1.106,0.083,-4.211,-10.986,-3.967,73.333,801.000,1.000
6620.804,4311.145,-68674.034,-86248.141,-4293.649,4238.173,2754.960,4873.894,-0.285,1.126,0.084,-2.014,-11.261,-3.845,73.333,802.000,1.000
6629.480,4313.036,-68439.544,-86082.489,-4077.799,4200.942,2654.589,4874.477,-0.279,1.148,0.095,-0.031,-11.108,-3.662,73.333,803.000,1.000
6637.441,4313.605,-68204.597,-85912.176,-3867.272,4161.334,2550.859,4868.044,-0.270,1.169,0.102,1.221,-11.047,-3.265,73.333,804.000,1.000
6644.584,4312.305,-67969.603,-85740.394,-3663.168,4118.612,2442.842,4853.302,-0.261,1.184,0.101,2.319,-10.834,-2.625,73.333,805.000,1.000
6650.666,4309.064,-67734.582,-85569.414,-3465.101,4074.567,2332.514,4831.951,-0.256,1.194,0.107,3.174,-10.406,-1.892,73.333,806.000,1.000
6656.024,4304.665,-67499.296,-85399.326,-3270.971,4032.261,2223.233,4808.237,-0.250,1.196,0.112,4.028,-9.796,-1.160,73.333,807.000,1.000
6661.832,4300.596,-67263.646,-85228.757,-3078.502,3994.144,2118.750,4788.341,-0.246,1.198,0.114,5.005,-9.369,-0.214,73.333,808.000,1.000
6669.212,4297.866,-67027.856,-85056.143,-2886.864,3960.451,2021.482,4777.562,-0.237,1.192,0.116,5.859,-8.728,0.854,73.333,809.000,1.000
6678.049,4295.894,-66792.231,-84880.186,-2696.699,3928.628,1930.081,4775.562,-0.229,1.184,0.128,6.409,-8.087,2.136,73.333,810.000,1.000
6686.726,4292.696,-66556.891,-84699.411,-2508.888,3894.102,1839.642,4775.774,-0.222,1.169,0.132,6.836,-7.477,3.601,73.333,811.000,1.000
6693.194,4286.466,-66321.815,-84512.071,-2323.708,3852.561,1745.603,4770.924,-0.214,1.148,0.136,7.629,-6.500,4.852,73.333,812.000,1.000
6697.077,4277.765,-66086.776,-84316.364,-2140.637,3802.974,1647.741,4758.748,-0.208,1.132,0.141,8.911,-5.280,6.226,73.333,813.000,1.000
