EEG 1,EEG 2,EEG 3,EEG 4,EEG 5,EEG 6,EEG 7,EEG 8,Accelerometer X,Accelerometer Y,Accelerometer Z,Gyroscope X,Gyroscope Y,Gyroscope Z,Battery Level,Counter,Validation Indicator
-11.325,-5.427,-8.590,-8.834,-3.939,2.967,1.805,0.817,-0.051,0.894,-0.380,-0.427,-1.373,0.854,73.333,229945.000,1.000
-9.758,-2.339,-6.832,-6.515,0.070,8.606,7.047,4.546,-0.050,0.895,-0.383,-0.458,-1.343,0.885,73.333,229946.000,1.000
-9.009,-0.267,-6.353,-5.658,1.742,11.193,8.308,4.067,-0.051,0.896,-0.383,-0.427,-1.404,0.763,73.333,229947.000,1.000
-8.897,0.716,-6.751,-5.928,1.474,10.923,6.539,0.693,-0.050,0.897,-0.382,-0.397,-1.312,0.610,73.333,229948.000,1.000
-8.755,1.162,-7.252,-6.190,0.684,9.240,4.146,-2.704,-0.050,0.897,-0.382,-0.458,-1.343,0.702,73.333,229949.000,1.000
-8.186,1.420,-7.309,-5.664,0.301,7.037,2.634,-4.018,-0.046,0.896,-0.384,-0.641,-1.282,0.671,73.333,229950.000,1.000
-7.331,1.463,-6.879,-4.402,0.411,4.548,2.111,-2.785,-0.047,0.896,-0.385,-0.549,-1.251,0.671,73.333,229951.000,1.000
-6.524,1.291,-6.220,-2.969,0.710,2.273,2.086,-0.047,-0.049,0.895,-0.385,-0.610,-1.373,0.641,73.333,229952.000,1.000
-5.930,1.110,-5.401,-1.912,0.896,1.011,2.176,2.434,-0.049,0.895,-0.380,-0.580,-1.373,0.671,73.333,229953.000,1.000
-5.549,1.112,-4.590,-1.461,0.859,1.085,2.195,3.437,-0.050,0.895,-0.381,-0.610,-1.282,0.610,73.333,229954.000,1.000
-5.314,1.298,-3.857,-1.397,0.743,2.061,2.312,3.081,-0.048,0.895,-0.382,-0.702,-1.221,0.549,73.333,229955.000,1.000
-5.157,1.494,-3.252,-1.344,0.749,3.166,2.712,2.255,-0.050,0.896,-0.379,-0.641,-1.221,0.519,73.333,229956.000,1.000
-4.955,1.563,-2.814,-1.043,1.016,3.936,3.414,1.829,-0.052,0.896,-0.384,-0.671,-1.282,0.488,73.333,229957.000,1.000
-4.458,1.563,-2.245,-0.317,1.670,4.422,4.529,2.414,-0.050,0.895,-0.383,-0.702,-1.312,0.488,73.333,229958.000,1.000
-3.495,1.501,-1.488,0.750,2.548,4.579,5.830,3.872,-0.052,0.894,-0.381,-0.702,-1.312,0.427,73.333,229959.000,1.000
-2.228,1.087,-0.788,1.670,2.997,3.784,6.487,5.098,-0.052,0.894,-0.384,-0.793,-1.221,0.397,73.333,229960.000,1.000
-1.163,-0.068,-0.635,1.712,2.284,1.337,5.464,4.673,-0.052,0.893,-0.384,-0.763,-1.282,0.336,73.333,229961.000,1.000
-0.857,-2.063,-1.378,0.427,0.286,-2.590,2.421,1.941,-0.052,0.894,-0.381,-0.763,-1.373,0.427,73.333,229962.000,1.000
-1.545,-4.468,-2.642,-1.829,-2.152,-6.473,-1.364,-2.100,-0.051,0.894,-0.383,-0.732,-1.434,0.305,73.333,229963.000,1.000
-2.920,-6.410,-3.687,-3.933,-3.571,-8.066,-3.403,-5.119,-0.049,0.893,-0.384,-0.671,-1.404,0.336,73.333,229964.000,1.000
-4.287,-7.063,-3.692,-4.631,-2.909,-6.016,-1.691,-5.055,-0.048,0.895,-0.383,-0.702,-1.404,0.397,73.333,229965.000,1.000
-5.155,-6.315,-2.518,-3.453,-0.358,-0.988,3.616,-1.718,-0.051,0.896,-0.381,-0.641,-1.526,0.366,73.333,229966.000,1.000
-5.669,-4.949,-0.999,-1.065,2.720,4.721,10.168,3.023,-0.052,0.895,-0.380,-0.580,-1.495,0.397,73.333,229967.000,1.000
-6.405,-4.117,-0.187,1.265,4.601,8.368,14.747,6.402,-0.051,0.897,-0.382,-0.549,-1.495,0.427,73.333,229968.000,1.000
-7.819,-4.552,-0.903,2.436,4.168,8.024,14.817,6.459,-0.052,0.897,-0.382,-0.580,-1.587,0.427,73.333,229969.000,1.000
-9.842,-6.074,-3.003,2.067,1.516,3.624,10.120,3.185,-0.051,0.897,-0.383,-0.641,-1.556,0.427,73.333,229970.000,1.000
-11.951,-7.747,-5.569,0.487,-2.237,-3.000,2.685,-1.795,-0.052,0.896,-0.383,-0.702,-1.556,0.610,73.333,229971.000,1.000
-13.470,-8.416,-7.495,-1.410,-5.434,-9.099,-4.311,-5.959,-0.052,0.896,-0.383,-0.671,-1.617,0.549,73.333,229972.000,1.000
-13.909,-7.264,-7.762,-2.461,-6.415,-12.049,-7.651,-6.715,-0.052,0.895,-0.381,-0.671,-1.648,0.580,73.333,229973.000,1.000
-13.336,-4.360,-6.312,-2.123,-4.503,-10.482,-5.861,-3.272,-0.053,0.895,-0.381,-0.702,-1.617,0.549,73.333,229974.000,1.000
-12.355,-0.830,-4.086,-0.966,-0.783,-5.481,-0.535,2.191,-0.053,0.896,-0.380,-0.824,-1.617,0.641,73.333,229975.000,1.000
-11.627,1.715,-2.530,-0.082,2.550,-0.386,4.575,6.139,-0.052,0.896,-0.384,-0.793,-1.678,0.519,73.333,229976.000,1.000
-11.379,2.250,-2.589,0.005,3.889,1.581,6.511,6.706,-0.053,0.896,-0.385,-0.732,-1.709,0.549,73.333,229977.000,1.000
-11.386,0.974,-3.916,-0.332,3.167,-0.251,5.216,4.717,-0.052,0.897,-0.383,-0.732,-1.648,0.580,73.333,229978.000,1.000
-11.343,-1.075,-5.623,-0.486,1.374,-3.955,2.633,2.065,-0.052,0.898,-0.379,-0.702,-1.801,0.641,73.333,229979.000,1.000
-11.070,-2.848,-6.810,-0.130,-0.429,-6.999,0.689,0.022,-0.051,0.898,-0.382,-0.793,-1.770,0.641,73.333,229980.000,1.000
-10.480,-3.915,-7.130,0.628,-1.782,-8.279,-0.143,-1.349,-0.051,0.895,-0.380,-0.916,-1.801,0.580,73.333,229981.000,1.000
-9.517,-4.541,-6.894,1.351,-2.892,-8.546,-0.734,-2.735,-0.051,0.895,-0.383,-0.854,-1.740,0.671,73.333,229982.000,1.000
-8.131,-5.216,-6.428,1.630,-4.124,-9.212,-1.958,-4.519,-0.050,0.895,-0.382,-0.946,-1.770,0.641,73.333,229983.000,1.000
-6.278,-6.094,-5.959,1.352,-5.491,-10.895,-3.783,-6.254,-0.048,0.893,-0.381,-0.916,-1.770,0.610,73.333,229984.000,1.000
-3.889,-6.779,-5.340,0.813,-6.547,-12.884,-5.103,-6.917,-0.052,0.893,-0.384,-0.916,-1.740,0.702,73.333,229985.000,1.000
-1.041,-6.751,-4.465,0.349,-6.891,-14.018,-4.934,-6.022,-0.053,0.892,-0.384,-0.854,-1.740,0.610,73.333,229986.000,1.000
1.801,-6.075,-3.723,-0.138,-6.809,-14.124,-3.836,-4.538,-0.052,0.894,-0.384,-0.763,-1.740,0.610,73.333,229987.000,1.000
3.927,-5.403,-3.537,-0.950,-6.963,-14.060,-3.207,-3.916,-0.051,0.895,-0.386,-0.793,-1.709,0.610,73.333,229988.000,1.000
4.920,-5.224,-4.059,-2.016,-7.462,-14.300,-3.495,-4.424,-0.053,0.894,-0.385,-0.732,-1.770,0.580,73.333,229989.000,1.000
5.001,-5.369,-4.755,-2.763,-7.719,-14.245,-3.780,-5.130,-0.051,0.893,-0.383,-0.671,-1.678,0.549,73.333,229990.000,1.000
4.852,-5.353,-4.905,-2.670,-7.220,-13.153,-3.229,-5.202,-0.051,0.892,-0.385,-0.702,-1.587,0.580,73.333,229991.000,1.000
5.260,-4.829,-4.108,-1.595,-5.976,-11.072,-1.942,-4.488,-0.049,0.895,-0.381,-0.610,-1.678,0.488,73.333,229992.000,1.000
6.728,-3.649,-2.168,0.337,-4.238,-8.470,-0.239,-3.082,-0.049,0.896,-0.385,-0.732,-1.617,0.488,73.333,229993.000,1.000
9.054,-1.866,0.526,2.803,-2.036,-5.430,2.066,-0.762,-0.048,0.895,-0.385,-0.824,-1.587,0.427,73.333,229994.000,1.000
11.349,0.333,3.355,5.423,0.903,-1.557,5.670,3.062,-0.049,0.897,-0.385,-0.732,-1.495,0.488,73.333,229995.000,1.000
12.439,2.589,5.594,7.679,4.563,3.199,10.531,8.226,-0.051,0.898,-0.385,-0.732,-1.434,0.549,73.333,229996.000,1.000
11.257,4.206,6.373,8.800,7.959,7.586,14.785,12.871,-0.050,0.897,-0.386,-0.732,-1.404,0.519,73.333,229997.000,1.000
7.305,4.281,5.116,8.115,9.469,9.223,15.636,14.459,-0.050,0.897,-0.385,-0.732,-1.434,0.580,73.333,229998.000,1.000
1.127,2.354,1.784,5.692,8.128,6.406,11.525,11.882,-0.050,0.896,-0.383,-0.946,-1.343,0.519,73.333,229999.000,1.000
-5.603,-0.974,-2.555,2.656,4.610,-0.119,3.820,6.605,-0.051,0.893,-0.381,-0.916,-1.251,0.702,73.333,230000.000,1.000
-10.785,-4.242,-6.205,0.598,0.852,-7.393,-3.895,1.687,-0.052,0.894,-0.382,-0.885,-1.282,0.702,73.333,230001.000,1.000
-12.872,-5.911,-7.756,0.676,-1.129,-12.075,-8.003,-0.094,-0.052,0.893,-0.382,-0.854,-1.160,0.732,73.333,230002.000,1.000
-11.605,-5.219,-6.650,2.940,-0.440,-12.447,-6.980,2.111,-0.052,0.893,-0.383,-0.763,-1.160,0.671,73.333,230003.000,1.000
-8.225,-2.731,-3.883,6.028,1.986,-9.419,-2.736,6.226,-0.052,0.892,-0.383,-0.854,-1.160,0.732,73.333,230004.000,1.000
-4.783,0.030,-1.187,8.001,4.064,-5.670,0.813,8.632,-0.053,0.893,-0.383,-0.824,-1.099,0.793,73.333,230005.000,1.000
-2.957,1.610,0.111,7.710,4.233,-3.635,0.851,7.194,-0.051,0.892,-0.386,-0.702,-1.068,0.885,73.333,230006.000,1.000
-3.206,1.483,-0.240,5.495,2.577,-3.983,-2.391,2.872,-0.052,0.892,-0.387,-0.549,-1.099,0.854,73.333,230007.000,1.000
-4.739,0.172,-1.383,2.795,0.506,-5.689,-6.221,-1.350,-0.054,0.894,-0.383,-0.641,-1.038,0.977,73.333,230008.000,1.000
-6.238,-1.376,-2.468,1.034,-0.561,-7.446,-7.958,-2.889,-0.055,0.894,-0.382,-0.671,-1.038,0.824,73.333,230009.000,1.000
-6.596,-2.406,-2.983,0.882,-0.132,-8.705,-6.496,-0.996,-0.054,0.896,-0.382,-0.641,-1.099,0.763,73.333,230010.000,1.000
-5.353,-2.587,-2.857,2.072,1.365,-9.564,-2.441,3.252,-0.054,0.896,-0.383,-0.671,-1.068,0.793,73.333,230011.000,1.000
-2.864,-2.146,-2.505,3.553,2.822,-10.810,2.064,7.428,-0.053,0.897,-0.384,-0.519,-1.129,0.671,73.333,230012.000,1.000
-0.082,-1.823,-2.452,4.023,2.818,-14.075,4.043,8.680,-0.049,0.897,-0.383,-0.671,-1.160,0.763,73.333,230013.000,1.000
2.073,-2.284,-3.098,2.832,0.674,-20.466,1.632,5.678,-0.050,0.898,-0.382,-0.793,-1.190,0.854,73.333,230014.000,1.000
3.305,-3.421,-4.019,0.654,-2.634,-28.687,-3.894,0.120,-0.049,0.898,-0.386,-0.824,-1.251,0.854,73.333,230015.000,1.000
3.936,-4.448,-4.357,-1.094,-5.142,-35.498,-9.076,-4.554,-0.046,0.898,-0.386,-0.854,-1.099,0.885,73.333,230016.000,1.000
4.459,-4.555,-3.667,-1.443,-5.428,-38.025,-11.066,-5.872,-0.046,0.895,-0.387,-0.885,-1.068,1.129,73.333,230017.000,1.000
5.085,-3.470,-2.038,-0.451,-3.446,-35.452,-9.155,-3.720,-0.044,0.892,-0.381,-0.916,-0.946,1.160,73.333,230018.000,1.000
5.465,-1.738,-0.308,0.899,-0.432,-29.552,-4.905,-0.057,-0.046,0.890,-0.383,-0.854,-0.824,1.282,73.333,230019.000,1.000
4.944,-0.469,0.618,1.411,1.869,-24.120,-0.958,2.594,-0.049,0.887,-0.386,-0.702,-0.732,1.312,73.333,230020.000,1.000
3.142,-0.556,0.320,0.503,2.320,-23.013,0.764,2.805,-0.049,0.888,-0.392,-0.549,-0.732,1.312,73.333,230021.000,1.000
0.345,-1.893,-0.875,-1.344,1.198,-27.728,0.376,1.106,-0.050,0.891,-0.392,-0.397,-0.671,1.251,73.333,230022.000,1.000
-2.606,-3.283,-1.876,-2.885,-0.020,-36.496,-0.209,-0.546,-0.052,0.895,-0.392,-0.275,-0.671,1.343,73.333,230023.000,1.000
-4.844,-3.265,-1.798,-3.126,0.098,-46.053,0.726,-0.571,-0.052,0.899,-0.388,-0.275,-0.549,1.434,73.333,230024.000,1.000
-6.002,-1.260,-0.430,-2.033,1.731,-54.745,3.118,0.953,-0.046,0.898,-0.385,-0.275,-0.671,1.495,73.333,230025.000,1.000
-6.447,1.947,1.488,-0.501,3.741,-63.728,5.258,2.653,-0.046,0.897,-0.385,-0.397,-0.702,1.434,73.333,230026.000,1.000
-6.956,4.883,2.705,0.395,4.811,-74.951,5.542,3.302,-0.050,0.896,-0.385,-0.458,-0.580,1.373,73.333,230027.000,1.000
-7.975,6.521,2.644,0.280,4.616,-88.483,4.116,2.912,-0.053,0.895,-0.385,-0.519,-0.549,1.221,73.333,230028.000,1.000
-9.210,6.804,1.619,-0.353,3.944,-101.589,2.541,2.595,-0.056,0.896,-0.387,-0.519,-0.641,1.068,73.333,230029.000,1.000
-9.866,6.432,0.707,-0.602,3.915,-109.628,2.448,3.553,-0.057,0.897,-0.387,-0.519,-0.702,0.885,73.333,230030.000,1.000
-9.291,6.288,0.848,0.120,5.126,-108.093,4.379,6.059,-0.055,0.902,-0.386,-0.458,-0.793,0.671,73.333,230031.000,1.000
-7.408,6.888,2.166,1.757,7.352,-95.024,7.645,9.348,-0.055,0.904,-0.384,-0.610,-0.946,0.519,73.333,230032.000,1.000
-4.745,7.966,4.094,3.683,9.605,-72.717,10.766,12.123,-0.054,0.907,-0.383,-0.824,-0.977,0.397,73.333,230033.000,1.000
-2.232,8.559,5.437,4.913,10.540,-47.034,11.965,13.119,-0.051,0.908,-0.385,-0.885,-1.068,0.336,73.333,230034.000,1.000
-0.676,7.834,5.389,4.727,9.374,-24.027,10.494,11.934,-0.049,0.907,-0.383,-1.068,-1.068,0.244,73.333,230035.000,1.000
-0.323,5.793,3.994,3.122,6.508,-6.743,7.265,9.276,-0.047,0.910,-0.382,-1.343,-1.129,0.275,73.333,230036.000,1.000
-0.765,3.273,1.934,0.755,3.296,5.504,4.134,6.441,-0.045,0.906,-0.382,-1.587,-1.038,0.244,73.333,230037.000,1.000
-1.127,1.474,0.368,-1.303,1.328,15.581,2.864,4.768,-0.046,0.905,-0.383,-1.740,-0.946,0.366,73.333,230038.000,1.000
-0.600,1.243,0.070,-2.144,1.480,25.886,3.926,4.874,-0.047,0.903,-0.384,-1.862,-0.946,0.366,73.333,230039.000,1.000
1.063,2.596,1.190,-1.450,3.399,36.752,6.272,6.252,-0.047,0.899,-0.386,-2.014,-0.946,0.366,73.333,230040.000,1.000
3.482,4.798,3.238,0.382,5.876,46.995,8.190,7.721,-0.048,0.899,-0.384,-1.984,-0.946,0.488,73.333,230041.000,1.000
5.918,6.753,5.294,2.293,7.467,55.239,8.176,7.881,-0.048,0.897,-0.383,-1.953,-0.916,0.519,73.333,230042.000,1.000
7.687,7.536,6.583,3.043,7.100,60.935,5.658,5.595,-0.049,0.896,-0.384,-2.014,-0.885,0.671,73.333,230043.000,1.000
8.566,7.062,6.765,2.254,5.001,65.021,1.743,1.335,-0.052,0.897,-0.384,-2.075,-0.824,0.763,73.333,230044.000,1.000
8.799,6.158,6.325,0.885,2.791,69.243,-0.979,-2.343,-0.053,0.895,-0.380,-2.106,-0.916,0.732,73.333,230045.000,1.000
8.443,5.568,5.694,0.022,1.819,74.171,-0.972,-3.390,-0.054,0.896,-0.378,-2.106,-0.977,0.732,73.333,230046.000,1.000
7.019,5.178,4.459,-0.352,1.779,78.549,0.536,-2.557,-0.055,0.894,-0.377,-2.106,-1.099,0.793,73.333,230047.000,1.000
4.124,4.520,2.188,-0.908,1.547,81.177,1.413,-1.881,-0.058,0.894,-0.378,-2.197,-1.160,0.793,73.333,230048.000,1.000
0.180,3.598,-0.909,-1.950,0.775,82.602,1.097,-2.060,-0.057,0.895,-0.378,-2.136,-1.190,0.793,73.333,230049.000,1.000
-3.569,2.864,-3.809,-3.122,0.012,84.221,0.618,-2.316,-0.058,0.892,-0.379,-2.197,-1.312,0.854,73.333,230050.000,1.000
-5.784,2.584,-5.584,-3.934,-0.359,86.163,0.556,-2.038,-0.057,0.893,-0.379,-2.136,-1.465,0.916,73.333,230051.000,1.000
-5.719,2.622,-5.931,-4.078,-0.522,87.195,0.306,-1.384,-0.054,0.889,-0.378,-2.136,-1.556,0.946,73.333,230052.000,1.000
-3.465,2.811,-4.772,-3.352,-0.675,86.584,-0.541,-0.554,-0.053,0.890,-0.377,-2.075,-1.648,0.916,73.333,230053.000,1.000
0.103,3.074,-2.519,-1.862,-0.742,84.823,-1.578,0.450,-0.054,0.888,-0.378,-1.923,-1.678,0.916,73.333,230054.000,1.000
3.765,3.287,0.121,-0.135,-0.668,82.711,-2.197,1.374,-0.053,0.887,-0.379,-1.770,-1.709,0.946,73.333,230055.000,1.000
6.550,3.268,2.396,1.082,-0.690,80.688,-2.362,1.400,-0.050,0.889,-0.377,-1.678,-1.648,0.916,73.333,230056.000,1.000
8.055,2.911,3.751,1.237,-1.185,78.945,-2.576,-0.291,-0.050,0.889,-0.378,-1.617,-1.678,1.068,73.333,230057.000,1.000
8.403,2.223,4.198,0.317,-2.330,77.558,-3.210,-3.643,-0.048,0.889,-0.378,-1.526,-1.678,1.099,73.333,230058.000,1.000
7.992,1.237,3.895,-1.248,-3.990,76.303,-4.373,-7.653,-0.049,0.888,-0.377,-1.465,-1.587,1.221,73.333,230059.000,1.000
7.254,-0.078,3.102,-2.882,-5.860,74.638,-5.936,-10.989,-0.048,0.890,-0.383,-1.251,-1.678,1.190,73.333,230060.000,1.000
6.453,-1.783,1.976,-4.216,-7.654,72.245,-7.563,-12.837,-0.047,0.891,-0.380,-1.160,-1.617,1.129,73.333,230061.000,1.000
5.794,-3.694,0.667,-5.021,-8.993,69.668,-8.522,-12.946,-0.049,0.890,-0.379,-1.099,-1.617,1.221,73.333,230062.000,1.000
5.695,-5.239,-0.198,-4.978,-9.368,67.894,-7.845,-11.244,-0.047,0.892,-0.378,-0.946,-1.709,1.221,73.333,230063.000,1.000
6.433,-6.031,-0.205,-4.152,-8.865,66.888,-5.863,-8.610,-0.048,0.894,-0.377,-0.946,-1.678,1.221,73.333,230064.000,1.000
7.571,-6.362,0.487,-3.280,-8.460,65.277,-4.482,-7.049,-0.046,0.892,-0.382,-0.854,-1.556,1.282,73.333,230065.000,1.000
8.240,-6.707,1.410,-3.021,-8.817,62.113,-5.013,-7.603,-0.047,0.895,-0.380,-0.885,-1.465,1.343,73.333,230066.000,1.000
7.949,-7.041,2.295,-3.211,-9.381,58.016,-6.694,-9.063,-0.045,0.896,-0.381,-0.793,-1.434,1.282,73.333,230067.000,1.000
6.810,-6.972,3.200,-3.272,-9.184,54.161,-7.960,-9.597,-0.045,0.894,-0.381,-0.671,-1.282,1.282,73.333,230068.000,1.000
5.123,-6.321,3.789,-3.092,-8.051,51.072,-8.459,-8.932,-0.043,0.897,-0.383,-0.702,-1.221,1.312,73.333,230069.000,1.000
3.037,-5.333,3.551,-3.097,-6.704,48.741,-8.912,-8.380,-0.043,0.895,-0.384,-0.580,-1.129,1.312,73.333,230070.000,1.000
0.568,-4.412,2.210,-3.620,-5.884,47.260,-9.701,-9.032,-0.043,0.897,-0.386,-0.702,-1.007,1.404,73.333,230071.000,1.000
-2.168,-3.766,-0.022,-4.360,-5.675,46.730,-10.334,-10.437,-0.044,0.895,-0.385,-0.610,-0.916,1.343,73.333,230072.000,1.000
-4.858,-3.373,-2.395,-4.608,-5.739,46.789,-10.110,-11.272,-0.043,0.896,-0.384,-0.610,-0.793,1.343,73.333,230073.000,1.000
-7.098,-3.118,-4.269,-3.929,-5.747,46.901,-8.722,-10.716,-0.043,0.897,-0.379,-0.488,-0.702,1.373,73.333,230074.000,1.000
-8.445,-2.789,-5.072,-2.400,-5.422,46.902,-5.979,-8.672,-0.044,0.898,-0.380,-0.580,-0.549,1.312,73.333,230075.000,1.000
-8.617,-2.279,-4.600,-0.589,-4.704,46.529,-2.155,-5.588,-0.044,0.900,-0.383,-0.641,-0.305,1.343,73.333,230076.000,1.000
-7.761,-1.857,-3.332,0.615,-4.041,44.830,1.425,-2.521,-0.044,0.901,-0.381,-0.641,-0.336,1.373,73.333,230077.000,1.000
-6.371,-1.971,-1.905,0.522,-4.121,40.799,3.037,-0.797,-0.046,0.901,-0.379,-0.763,-0.214,1.282,73.333,230078.000,1.000
-4.841,-2.677,-0.743,-0.739,-5.034,34.715,1.984,-0.929,-0.047,0.904,-0.379,-0.793,-0.153,1.221,73.333,230079.000,1.000
-3.084,-3.328,0.455,-2.061,-5.879,28.508,-0.536,-1.983,-0.048,0.904,-0.378,-0.916,-0.183,1.221,73.333,230080.000,1.000
-0.843,-3.239,2.118,-2.417,-5.782,24.153,-2.851,-2.923,-0.050,0.905,-0.378,-0.946,-0.061,1.251,73.333,230081.000,1.000
1.679,-2.567,3.949,-1.948,-5.046,21.695,-4.699,-4.017,-0.051,0.904,-0.379,-1.160,-0.092,1.160,73.333,230082.000,1.000
3.926,-2.056,5.405,-1.507,-4.610,19.472,-6.669,-5.814,-0.048,0.902,-0.381,-1.343,-0.061,1.190,73.333,230083.000,1.000
5.566,-2.143,6.153,-1.612,-4.872,15.869,-8.888,-7.840,-0.046,0.899,-0.380,-1.556,-0.092,1.099,73.333,230084.000,1.000
6.612,-2.764,6.287,-2.278,-5.674,10.332,-11.033,-9.354,-0.044,0.897,-0.378,-1.556,-0.153,1.160,73.333,230085.000,1.000
7.197,-3.661,5.954,-3.344,-6.703,3.437,-12.845,-10.219,-0.043,0.893,-0.381,-1.495,-0.031,1.099,73.333,230086.000,1.000
7.522,-4.474,5.313,-4.408,-7.432,-3.427,-13.937,-10.425,-0.046,0.894,-0.385,-1.434,0.000,1.190,73.333,230087.000,1.000
7.745,-4.931,4.697,-4.927,-7.386,-8.910,-13.906,-9.959,-0.043,0.896,-0.385,-1.343,0.031,1.251,73.333,230088.000,1.000
7.800,-5.079,4.118,-4.661,-6.551,-12.478,-12.866,-8.970,-0.042,0.900,-0.385,-1.221,0.061,1.129,73.333,230089.000,1.000
7.631,-5.048,3.601,-3.662,-5.223,-14.480,-11.202,-7.433,-0.042,0.902,-0.383,-1.160,0.031,1.221,73.333,230090.000,1.000
7.375,-4.744,3.375,-2.142,-3.727,-15.781,-9.351,-5.314,-0.042,0.902,-0.383,-1.221,0.092,1.373,73.333,230091.000,1.000
7.162,-3.890,3.701,-0.427,-2.307,-17.178,-7.624,-2.907,-0.042,0.899,-0.379,-1.312,0.122,1.434,73.333,230092.000,1.000
6.895,-2.305,4.770,1.107,-1.161,-19.029,-6.045,-0.778,-0.044,0.894,-0.382,-1.556,0.244,1.526,73.333,230093.000,1.000
6.319,-0.144,6.219,2.101,-0.471,-21.279,-4.673,0.443,-0.045,0.889,-0.381,-1.465,0.397,1.434,73.333,230094.000,1.000
5.250,2.139,7.432,2.469,-0.269,-23.639,-3.603,0.524,-0.050,0.885,-0.384,-1.221,0.427,1.465,73.333,230095.000,1.000
3.745,4.000,7.811,2.462,-0.351,-25.780,-2.834,-0.141,-0.053,0.885,-0.386,-0.824,0.336,1.282,73.333,230096.000,1.000
2.226,5.148,7.164,2.585,-0.260,-27.268,-2.011,-0.660,-0.057,0.890,-0.386,-0.641,0.183,1.129,73.333,230097.000,1.000
1.380,5.650,6.110,3.319,0.481,-27.668,-0.529,-0.191,-0.057,0.893,-0.383,-0.580,-0.031,1.038,73.333,230098.000,1.000
1.664,5.614,5.308,4.637,1.855,-27.126,1.515,1.254,-0.058,0.895,-0.379,-0.519,-0.122,0.916,73.333,230099.000,1.000
3.038,5.122,5.186,6.138,3.420,-26.388,3.433,3.141,-0.058,0.897,-0.378,-0.458,-0.244,0.671,73.333,230100.000,1.000
5.123,4.432,5.817,7.530,4.819,-26.231,4.711,5.169,-0.054,0.897,-0.380,-0.488,-0.458,0.549,73.333,230101.000,1.000
7.395,3.827,6.785,8.657,5.801,-27.233,5.026,7.000,-0.052,0.899,-0.380,-0.641,-0.610,0.519,73.333,230102.000,1.000
9.313,3.347,7.530,9.302,6.098,-29.440,4.306,8.022,-0.052,0.900,-0.380,-0.824,-0.732,0.610,73.333,230103.000,1.000
10.464,2.885,7.553,9.307,5.733,-31.930,3.053,8.033,-0.050,0.897,-0.380,-0.854,-0.824,0.580,73.333,230104.000,1.000
10.682,2.358,6.872,8.734,5.023,-33.450,2.041,7.434,-0.049,0.895,-0.382,-0.793,-0.977,0.519,73.333,230105.000,1.000
9.970,1.626,5.697,7.553,4.034,-33.664,1.259,6.339,-0.049,0.894,-0.380,-0.732,-0.977,0.458,73.333,230106.000,1.000
8.498,0.545,4.145,5.605,2.467,-33.368,-0.088,4.380,-0.047,0.892,-0.383,-0.671,-1.007,0.458,73.333,230107.000,1.000
6.613,-0.899,2.487,2.948,0.107,-33.661,-2.615,1.315,-0.044,0.895,-0.383,-0.549,-1.068,0.549,73.333,230108.000,1.000
4.632,-2.651,0.808,-0.165,-2.981,-35.188,-6.532,-2.837,-0.045,0.894,-0.380,-0.580,-1.007,0.610,73.333,230109.000,1.000
2.847,-4.484,-0.709,-3.192,-6.285,-37.635,-11.242,-7.465,-0.045,0.896,-0.380,-0.488,-1.007,0.641,73.333,230110.000,1.000
1.741,-5.724,-1.556,-5.145,-8.625,-39.493,-14.896,-10.866,-0.046,0.895,-0.381,-0.366,-1.007,0.763,73.333,230111.000,1.000
1.860,-5.451,-1.077,-5.030,-8.601,-38.724,-15.159,-11.016,-0.047,0.896,-0.383,-0.275,-1.007,0.793,73.333,230112.000,1.000
3.247,-3.237,1.109,-2.713,-5.725,-34.385,-10.991,-7.297,-0.047,0.896,-0.378,-0.397,-0.977,0.916,73.333,230113.000,1.000
5.085,0.308,4.277,0.660,-1.067,-27.806,-3.860,-1.317,-0.050,0.898,-0.380,-0.336,-1.007,0.946,73.333,230114.000,1.000
6.107,3.869,7.064,3.425,3.485,-21.779,3.393,4.353,-0.051,0.900,-0.379,-0.366,-1.007,0.885,73.333,230115.000,1.000
5.437,6.352,8.363,4.601,6.671,-18.333,8.769,8.223,-0.052,0.899,-0.379,-0.427,-1.221,0.885,73.333,230116.000,1.000
3.119,7.520,7.950,4.442,8.542,-17.354,12.145,10.647,-0.050,0.897,-0.383,-0.427,-1.312,0.946,73.333,230117.000,1.000
-0.026,7.782,6.558,3.897,9.715,-17.421,14.312,12.630,-0.051,0.897,-0.382,-0.427,-1.312,0.854,73.333,230118.000,1.000
-3.085,7.434,4.784,3.522,10.161,-17.680,15.119,14.017,-0.051,0.896,-0.377,-0.427,-1.434,0.763,73.333,230119.000,1.000
-5.604,6.341,2.710,3.066,9.075,-18.424,13.415,13.364,-0.052,0.896,-0.376,-0.366,-1.526,0.732,73.333,230120.000,1.000
-7.607,4.337,0.057,1.900,5.921,-19.998,8.628,9.542,-0.050,0.896,-0.380,-0.458,-1.617,0.641,73.333,230121.000,1.000
-9.246,1.698,-3.294,-0.264,1.272,-21.833,1.936,3.173,-0.051,0.895,-0.379,-0.336,-1.648,0.610,73.333,230122.000,1.000
-10.469,-0.889,-6.723,-2.969,-3.401,-22.688,-4.158,-3.513,-0.052,0.896,-0.381,-0.275,-1.740,0.549,73.333,230123.000,1.000
-10.980,-2.728,-9.359,-5.269,-6.619,-21.615,-7.541,-8.143,-0.050,0.897,-0.382,-0.366,-1.801,0.458,73.333,230124.000,1.000
-10.442,-3.494,-10.415,-6.262,-7.683,-18.770,-7.633,-9.464,-0.048,0.896,-0.380,-0.366,-1.801,0.458,73.333,230125.000,1.000
-8.782,-3.362,-9.604,-5.617,-6.813,-15.229,-5.305,-7.629,-0.047,0.896,-0.382,-0.427,-1.892,0.488,73.333,230126.000,1.000
-6.282,-2.799,-7.342,-3.742,-4.753,-12.136,-2.027,-3.772,-0.046,0.897,-0.379,-0.366,-1.862,0.519,73.333,230127.000,1.000
-3.468,-2.276,-4.400,-1.578,-2.470,-10.357,0.765,0.355,-0.047,0.895,-0.381,-0.397,-1.892,0.397,73.333,230128.000,1.000
-0.898,-2.024,-1.778,-0.127,-0.836,-10.295,1.999,2.880,-0.047,0.896,-0.383,-0.427,-1.923,0.397,73.333,230129.000,1.000
1.158,-1.778,0.083,0.339,0.003,-11.355,1.824,3.132,-0.047,0.896,-0.385,-0.458,-1.923,0.397,73.333,230130.000,1.000
2.764,-1.019,1.346,0.409,0.646,-12.218,1.431,2.151,-0.046,0.897,-0.381,-0.458,-2.014,0.214,73.333,230131.000,1.000
4.016,0.332,2.133,0.732,1.548,-12.162,1.659,1.451,-0.045,0.897,-0.379,-0.458,-1.923,0.305,73.333,230132.000,1.000
4.835,1.672,2.419,1.339,2.469,-11.748,2.309,1.715,-0.048,0.897,-0.379,-0.427,-1.892,0.336,73.333,230133.000,1.000
5.077,2.220,2.066,1.733,2.894,-11.990,2.619,2.673,-0.048,0.897,-0.378,-0.488,-1.923,0.275,73.333,230134.000,1.000
4.823,1.761,1.387,1.600,2.797,-12.897,2.456,3.868,-0.048,0.898,-0.380,-0.488,-1.892,0.275,73.333,230135.000,1.000
4.395,0.826,0.956,1.151,2.782,-13.153,2.619,5.126,-0.049,0.898,-0.381,-0.641,-1.984,0.397,73.333,230136.000,1.000
3.958,0.130,0.957,0.822,3.378,-11.689,3.723,6.333,-0.050,0.898,-0.382,-0.610,-1.953,0.336,73.333,230137.000,1.000
3.215,-0.097,1.067,0.823,4.307,-9.221,5.128,6.952,-0.048,0.897,-0.380,-0.641,-1.953,0.305,73.333,230138.000,1.000
1.635,-0.068,0.535,0.966,4.707,-7.458,5.457,6.190,-0.049,0.897,-0.383,-0.763,-1.984,0.244,73.333,230139.000,1.000
-0.939,0.160,-0.921,1.032,4.138,-6.973,4.518,4.106,-0.052,0.896,-0.383,-0.702,-2.014,0.244,73.333,230140.000,1.000
-4.094,0.798,-2.966,0.984,3.008,-6.682,3.613,1.839,-0.053,0.896,-0.382,-0.641,-2.045,0.366,73.333,230141.000,1.000
-7.211,1.854,-5.162,0.807,2.043,-5.260,3.912,0.460,-0.052,0.896,-0.380,-0.580,-2.167,0.305,73.333,230142.000,1.000
-9.846,2.840,-7.086,0.438,1.639,-2.657,5.331,0.231,-0.053,0.895,-0.381,-0.702,-2.228,0.244,73.333,230143.000,1.000
-11.813,2.979,-8.666,-0.163,1.647,-0.412,6.639,0.853,-0.052,0.895,-0.383,-0.580,-2.197,0.305,73.333,230144.000,1.000
-13.027,1.760,-9.881,-0.926,1.591,-0.372,6.561,1.826,-0.050,0.895,-0.381,-0.580,-2.258,0.214,73.333,230145.000,1.000
-13.406,-0.623,-10.647,-1.788,1.053,-3.012,4.658,2.344,-0.052,0.894,-0.385,-0.458,-2.350,0.214,73.333,230146.000,1.000
-12.901,-3.295,-10.879,-2.676,-0.002,-7.062,1.519,1.616,-0.053,0.895,-0.381,-0.580,-2.289,0.214,73.333,230147.000,1.000
-11.549,-5.131,-10.368,-3.307,-1.020,-10.325,-1.275,-0.133,-0.052,0.895,-0.379,-0.519,-2.289,0.244,73.333,230148.000,1.000
-9.539,-5.383,-9.188,-3.277,-1.108,-10.884,-2.009,-1.552,-0.051,0.896,-0.379,-0.549,-2.411,0.214,73.333,230149.000,1.000
-7.195,-4.136,-7.588,-2.370,0.218,-8.390,-0.130,-1.365,-0.050,0.894,-0.378,-0.610,-2.350,0.153,73.333,230150.000,1.000
-4.926,-2.282,-5.961,-0.843,2.507,-4.467,3.171,0.545,-0.050,0.895,-0.379,-0.610,-2.350,0.214,73.333,230151.000,1.000
-3.045,-0.866,-4.745,0.645,4.684,-1.499,5.879,3.173,-0.049,0.896,-0.382,-0.641,-2.319,0.214,73.333,230152.000,1.000
-1.583,-0.431,-4.097,1.420,5.760,-0.996,6.642,5.066,-0.048,0.898,-0.381,-0.702,-2.289,0.305,73.333,230153.000,1.000
-0.396,-0.940,-4.159,1.129,5.371,-2.978,5.377,5.158,-0.049,0.898,-0.381,-0.641,-2.258,0.366,73.333,230154.000,1.000
0.593,-2.017,-4.844,-0.067,3.848,-6.443,3.055,3.350,-0.048,0.896,-0.380,-0.702,-2.350,0.366,73.333,230155.000,1.000
1.214,-3.292,-5.973,-1.735,1.773,-10.270,0.651,0.207,-0.046,0.899,-0.383,-0.824,-2.289,0.519,73.333,230156.000,1.000
1.160,-4.582,-7.485,-3.447,-0.371,-13.657,-1.391,-3.386,-0.049,0.901,-0.382,-0.885,-2.258,0.549,73.333,230157.000,1.000
0.363,-5.718,-9.065,-4.740,-2.068,-15.881,-2.660,-6.183,-0.050,0.899,-0.383,-1.007,-2.197,0.610,73.333,230158.000,1.000
-0.801,-6.359,-10.248,-5.158,-2.730,-16.344,-2.704,-6.969,-0.049,0.901,-0.383,-1.007,-2.136,0.580,73.333,230159.000,1.000
-1.719,-6.078,-10.384,-4.375,-1.983,-15.126,-1.357,-5.206,-0.050,0.901,-0.381,-1.129,-2.014,0.671,73.333,230160.000,1.000
-1.918,-4.607,-9.010,-2.310,0.131,-13.040,1.027,-1.289,-0.048,0.898,-0.382,-1.129,-1.923,0.702,73.333,230161.000,1.000
-1.217,-1.949,-6.163,0.876,3.196,-11.084,3.666,3.680,-0.047,0.899,-0.379,-1.160,-1.892,0.641,73.333,230162.000,1.000
0.254,1.618,-2.263,4.759,6.561,-9.789,5.868,8.344,-0.048,0.899,-0.381,-1.160,-1.892,0.610,73.333,230163.000,1.000
1.976,5.551,1.649,8.551,9.574,-8.786,7.487,11.578,-0.047,0.900,-0.385,-1.251,-1.740,0.641,73.333,230164.000,1.000
3.109,9.017,4.321,11.170,11.595,-7.459,8.658,12.655,-0.047,0.899,-0.385,-1.373,-1.709,0.732,73.333,230165.000,1.000
2.869,10.984,4.768,11.562,11.920,-6.247,8.907,11.146,-0.049,0.899,-0.385,-1.343,-1.678,0.793,73.333,230166.000,1.000
1.136,10.830,2.854,9.472,10.291,-6.392,7.473,7.360,-0.050,0.898,-0.384,-1.343,-1.556,0.763,73.333,230167.000,1.000
-1.276,8.930,-0.231,5.962,7.446,-8.346,4.522,2.629,-0.049,0.899,-0.383,-1.495,-1.495,0.793,73.333,230168.000,1.000
-3.046,6.509,-2.817,2.890,4.839,-11.020,1.266,-1.257,-0.051,0.898,-0.382,-1.556,-1.404,0.854,73.333,230169.000,1.000
-3.099,4.850,-3.585,1.863,3.693,-12.751,-0.829,-2.871,-0.050,0.897,-0.382,-1.556,-1.282,0.732,73.333,230170.000,1.000
-1.271,4.341,-2.354,3.215,3.985,-13.088,-1.391,-2.139,-0.048,0.895,-0.381,-1.526,-1.404,0.671,73.333,230171.000,1.000
1.658,4.313,-0.138,5.821,4.447,-13.213,-1.593,-0.545,-0.048,0.896,-0.381,-1.526,-1.282,0.763,73.333,230172.000,1.000
4.612,3.917,1.825,8.059,3.871,-14.318,-2.698,0.257,-0.049,0.896,-0.383,-1.434,-1.160,0.763,73.333,230173.000,1.000
6.854,2.959,2.625,8.843,2.151,-16.174,-4.753,-0.181,-0.050,0.895,-0.383,-1.465,-1.129,0.702,73.333,230174.000,1.000
8.200,1.910,2.225,8.013,0.081,-17.475,-6.658,-1.163,-0.049,0.895,-0.381,-1.404,-1.099,0.793,73.333,230175.000,1.000
8.795,1.320,1.177,6.040,-1.505,-17.140,-7.254,-1.877,-0.049,0.894,-0.384,-1.404,-0.946,0.702,73.333,230176.000,1.000
8.789,1.275,-0.045,3.564,-2.350,-15.199,-6.227,-2.039,-0.049,0.895,-0.383,-1.282,-0.977,0.671,73.333,230177.000,1.000
8.227,1.334,-1.203,1.139,-2.810,-12.780,-4.239,-1.869,-0.049,0.895,-0.380,-1.129,-0.916,0.702,73.333,230178.000,1.000
7.157,0.956,-2.415,-0.926,-3.393,-11.213,-2.458,-1.758,-0.048,0.895,-0.381,-1.160,-0.793,0.641,73.333,230179.000,1.000
5.891,0.079,-3.490,-2.452,-4.133,-10.857,-1.465,-1.774,-0.048,0.896,-0.385,-1.099,-0.702,0.732,73.333,230180.000,1.000
5.012,-0.801,-3.783,-3.262,-4.508,-10.971,-0.942,-1.595,-0.046,0.896,-0.384,-1.007,-0.702,0.763,73.333,230181.000,1.000
4.981,-1.097,-2.777,-3.138,-3.882,-10.690,-0.240,-0.670,-0.047,0.896,-0.380,-1.007,-0.702,0.732,73.333,230182.000,1.000
5.672,-0.649,-0.517,-1.918,-1.959,-9.760,1.210,1.542,-0.047,0.897,-0.382,-1.038,-0.702,0.732,73.333,230183.000,1.000
6.278,0.126,1.977,0.114,0.803,-8.665,3.131,4.633,-0.048,0.898,-0.382,-1.160,-0.580,0.763,73.333,230184.000,1.000
5.789,0.576,3.447,2.152,3.196,-8.342,4.143,6.784,-0.048,0.897,-0.381,-1.160,-0.549,0.793,73.333,230185.000,1.000
3.686,0.413,3.238,3.403,4.111,-9.221,3.013,6.145,-0.045,0.896,-0.381,-1.221,-0.580,0.885,73.333,230186.000,1.000
0.312,-0.009,1.637,3.692,3.496,-10.331,0.260,2.731,-0.044,0.896,-0.382,-1.221,-0.427,0.916,73.333,230187.000,1.000
-3.326,0.013,-0.240,3.475,2.315,-9.878,-1.920,-1.305,-0.046,0.897,-0.380,-1.099,-0.336,0.946,73.333,230188.000,1.000
-6.141,0.928,-1.437,3.311,1.702,-6.900,-1.477,-3.185,-0.048,0.899,-0.377,-1.190,-0.336,0.977,73.333,230189.000,1.000
-7.469,2.542,-1.561,3.466,2.143,-2.099,2.089,-1.439,-0.047,0.898,-0.379,-1.099,-0.336,0.977,73.333,230190.000,1.000
-7.357,4.027,-0.946,3.678,3.088,2.609,7.198,2.850,-0.049,0.899,-0.378,-1.129,-0.336,0.977,73.333,230191.000,1.000
-6.510,4.350,-0.489,3.281,3.273,5.173,10.890,6.665,-0.053,0.898,-0.380,-1.221,-0.244,0.946,73.333,230192.000,1.000
-5.860,2.953,-0.888,1.722,1.703,4.668,10.930,7.339,-0.054,0.897,-0.380,-1.221,-0.275,0.977,73.333,230193.000,1.000
-6.038,0.069,-2.448,-1.096,-1.625,1.733,7.230,4.296,-0.052,0.897,-0.378,-1.221,-0.336,0.854,73.333,230194.000,1.000
-7.068,-3.537,-4.847,-4.718,-5.871,-2.304,1.580,-0.912,-0.053,0.897,-0.380,-1.221,-0.366,0.824,73.333,230195.000,1.000
-8.348,-6.940,-7.378,-8.291,-9.926,-6.267,-3.676,-5.938,-0.052,0.895,-0.383,-1.190,-0.427,0.885,73.333,230196.000,1.000
-8.915,-9.195,-9.338,-10.896,-12.793,-9.130,-6.785,-9.056,-0.052,0.897,-0.381,-1.160,-0.519,0.854,73.333,230197.000,1.000
-8.026,-9.651,-10.136,-11.987,-13.863,-10.137,-7.149,-9.831,-0.053,0.896,-0.381,-1.160,-0.488,0.824,73.333,230198.000,1.000
-5.706,-8.426,-9.784,-11.758,-13.239,-9.410,-5.657,-9.148,-0.050,0.896,-0.379,-1.221,-0.580,0.824,73.333,230199.000,1.000
-2.664,-6.382,-8.651,-10.922,-11.675,-7.936,-4.018,-8.459,-0.049,0.895,-0.379,-1.160,-0.702,0.793,73.333,230200.000,1.000
0.263,-4.508,-7.136,-10.093,-9.924,-6.608,-3.322,-8.525,-0.048,0.896,-0.381,-1.038,-0.763,0.854,73.333,230201.000,1.000
2.555,-3.287,-5.478,-9.316,-8.142,-5.460,-3.181,-8.777,-0.048,0.896,-0.381,-1.007,-0.702,0.824,73.333,230202.000,1.000
4.060,-2.614,-3.594,-8.223,-6.173,-4.192,-2.678,-8.384,-0.047,0.897,-0.381,-0.885,-0.732,0.854,73.333,230203.000,1.000
4.853,-2.155,-1.541,-6.609,-4.192,-3.123,-2.086,-7.696,-0.046,0.897,-0.382,-0.824,-0.702,0.885,73.333,230204.000,1.000
5.192,-1.556,0.695,-4.453,-2.487,-2.886,-2.349,-7.479,-0.047,0.897,-0.381,-0.946,-0.793,0.824,73.333,230205.000,1.000
5.396,-0.470,3.264,-1.712,-0.772,-3.260,-3.174,-7.250,-0.048,0.896,-0.379,-0.977,-0.793,0.885,73.333,230206.000,1.000
5.600,1.305,6.111,1.530,1.597,-3.077,-2.958,-5.694,-0.047,0.896,-0.381,-0.885,-0.671,0.977,73.333,230207.000,1.000
5.686,3.631,8.948,4.903,4.760,-1.461,-0.555,-2.404,-0.046,0.898,-0.382,-0.885,-0.793,0.916,73.333,230208.000,1.000
5.433,6.129,11.237,7.976,8.221,1.387,3.638,1.851,-0.046,0.897,-0.381,-0.885,-0.732,0.946,73.333,230209.000,1.000
4.591,8.314,12.568,10.370,11.113,4.252,7.973,5.722,-0.048,0.896,-0.379,-0.854,-0.763,0.916,73.333,230210.000,1.000
2.803,9.480,12.481,11.357,12.150,5.139,9.794,7.138,-0.048,0.897,-0.380,-0.916,-0.824,0.977,73.333,230211.000,1.000
-0.065,9.093,10.606,10.283,10.421,2.491,6.972,4.492,-0.051,0.896,-0.381,-0.916,-0.854,0.916,73.333,230212.000,1.000
-3.481,7.520,7.500,7.620,6.670,-3.030,0.414,-1.143,-0.051,0.897,-0.379,-0.916,-0.916,0.793,73.333,230213.000,1.000
-6.430,5.901,4.313,4.838,3.037,-8.577,-6.213,-6.387,-0.050,0.895,-0.376,-0.854,-1.007,0.824,73.333,230214.000,1.000
-7.900,5.369,2.227,3.394,1.561,-11.038,-9.123,-8.054,-0.052,0.897,-0.379,-0.793,-1.007,0.732,73.333,230215.000,1.000
-7.286,6.455,1.862,3.927,3.064,-8.893,-6.669,-4.978,-0.051,0.900,-0.378,-0.885,-1.312,0.793,73.333,230216.000,1.000
-4.659,8.815,2.993,5.943,6.750,-3.110,-0.144,1.432,-0.051,0.898,-0.380,-0.824,-1.312,0.671,73.333,230217.000,1.000
-0.789,11.251,4.875,8.014,10.460,3.143,6.844,7.713,-0.052,0.898,-0.379,-0.763,-1.404,0.610,73.333,230218.000,1.000
3.271,12.407,6.582,8.658,11.982,6.450,10.531,10.420,-0.052,0.897,-0.379,-0.885,-1.404,0.671,73.333,230219.000,1.000
6.807,11.824,7.837,7.540,10.766,5.687,9.798,8.729,-0.048,0.897,-0.377,-0.854,-1.434,0.580,73.333,230220.000,1.000
9.589,10.111,8.921,5.560,8.106,2.495,6.474,4.661,-0.048,0.893,-0.378,-0.763,-1.465,0.549,73.333,230221.000,1.000
11.613,8.216,10.025,3.905,5.794,-0.488,3.275,1.102,-0.047,0.896,-0.379,-0.824,-1.465,0.549,73.333,230222.000,1.000
12.988,6.823,11.233,3.311,4.950,-1.496,2.174,0.181,-0.047,0.896,-0.378,-0.732,-1.465,0.458,73.333,230223.000,1.000
13.864,6.167,12.355,3.811,5.641,-0.424,3.688,2.443,-0.047,0.897,-0.378,-0.732,-1.465,0.427,73.333,230224.000,1.000
14.260,6.048,13.076,4.786,6.993,1.513,6.854,6.477,-0.046,0.895,-0.376,-0.641,-1.465,0.427,73.333,230225.000,1.000
13.974,5.984,12.978,5.199,7.708,2.903,9.757,9.432,-0.046,0.896,-0.378,-0.549,-1.404,0.458,73.333,230226.000,1.000
12.776,5.555,11.791,4.251,6.944,3.130,10.768,8.948,-0.045,0.895,-0.377,-0.641,-1.373,0.458,73.333,230227.000,1.000
10.644,4.567,9.860,1.975,4.812,2.234,9.544,4.977,-0.048,0.895,-0.382,-0.610,-1.373,0.458,73.333,230228.000,1.000
7.739,2.847,7.586,-1.038,1.950,0.220,6.606,-0.619,-0.047,0.894,-0.380,-0.580,-1.404,0.580,73.333,230229.000,1.000
4.355,0.282,5.256,-4.083,-0.991,-2.809,2.901,-5.620,-0.045,0.895,-0.382,-0.458,-1.343,0.549,73.333,230230.000,1.000
0.902,-2.848,3.111,-6.475,-3.373,-6.129,-0.288,-8.359,-0.046,0.895,-0.380,-0.244,-1.282,0.549,73.333,230231.000,1.000
-2.214,-5.832,1.308,-7.641,-4.611,-8.682,-1.843,-8.133,-0.047,0.895,-0.382,-0.366,-1.312,0.488,73.333,230232.000,1.000
-4.695,-7.846,0.019,-7.383,-4.480,-9.736,-1.474,-5.560,-0.048,0.896,-0.384,-0.366,-1.343,0.519,73.333,230233.000,1.000
-6.297,-8.190,-0.724,-5.966,-3.135,-8.951,0.192,-2.220,-0.047,0.896,-0.382,-0.305,-1.312,0.488,73.333,230234.000,1.000
-6.765,-6.422,-0.687,-3.740,-0.801,-6.246,2.481,0.695,-0.048,0.898,-0.378,-0.275,-1.312,0.458,73.333,230235.000,1.000
-6.082,-2.738,0.344,-1.020,2.212,-2.177,4.989,3.039,-0.048,0.897,-0.377,-0.244,-1.282,0.427,73.333,230236.000,1.000
-4.720,1.794,2.039,1.595,5.186,1.727,6.992,4.901,-0.050,0.898,-0.376,-0.244,-1.343,0.305,73.333,230237.000,1.000
-3.464,5.660,3.684,3.163,7.089,3.683,7.422,5.818,-0.050,0.897,-0.381,-0.366,-1.404,0.244,73.333,230238.000,1.000
-2.931,7.721,4.476,2.918,7.251,2.995,5.771,5.251,-0.052,0.897,-0.379,-0.336,-1.404,0.153,73.333,230239.000,1.000
-3.168,7.742,4.220,0.907,5.842,0.462,2.844,3.453,-0.050,0.898,-0.378,-0.397,-1.465,0.275,73.333,230240.000,1.000
-3.742,6.310,3.337,-2.069,3.643,-2.412,0.163,1.334,-0.050,0.900,-0.378,-0.397,-1.434,0.275,73.333,230241.000,1.000
-4.075,4.446,2.432,-4.900,1.630,-4.221,-0.943,-0.072,-0.050,0.899,-0.378,-0.458,-1.495,0.244,73.333,230242.000,1.000
-3.771,3.021,2.038,-6.718,0.454,-4.259,0.003,-0.202,-0.051,0.900,-0.378,-0.366,-1.526,0.214,73.333,230243.000,1.000
-2.865,2.169,1.979,-7.529,-0.149,-3.130,1.807,0.111,-0.050,0.900,-0.378,-0.488,-1.556,0.214,73.333,230244.000,1.000
-1.632,1.462,1.690,-8.058,-1.116,-2.377,2.314,-0.967,-0.050,0.900,-0.381,-0.549,-1.495,0.214,73.333,230245.000,1.000
-0.194,0.606,0.864,-8.888,-2.974,-3.060,0.388,-4.310,-0.050,0.900,-0.378,-0.519,-1.434,0.305,73.333,230246.000,1.000
1.542,-0.257,-0.285,-9.859,-5.245,-4.867,-3.085,-8.666,-0.049,0.900,-0.381,-0.580,-1.434,0.366,73.333,230247.000,1.000
3.592,-0.858,-1.115,-10.276,-6.955,-6.606,-6.072,-11.718,-0.049,0.899,-0.377,-0.549,-1.495,0.427,73.333,230248.000,1.000
5.584,-1.188,-1.359,-9.686,-7.536,-7.293,-7.237,-12.140,-0.049,0.899,-0.377,-0.488,-1.587,0.275,73.333,230249.000,1.000
6.810,-1.531,-1.216,-8.321,-7.226,-6.886,-6.762,-10.443,-0.049,0.899,-0.379,-0.458,-1.495,0.366,73.333,230250.000,1.000
6.578,-2.274,-1.139,-6.980,-6.774,-6.278,-5.915,-8.237,-0.049,0.897,-0.380,-0.519,-1.495,0.305,73.333,230251.000,1.000
4.699,-3.576,-1.467,-6.393,-6.708,-6.462,-5.828,-6.801,-0.050,0.896,-0.378,-0.641,-1.465,0.336,73.333,230252.000,1.000
1.739,-5.115,-1.907,-6.584,-6.782,-7.459,-6.348,-6.174,-0.050,0.896,-0.379,-0.580,-1.495,0.366,73.333,230253.000,1.000
-1.329,-6.302,-2.037,-7.029,-6.315,-8.333,-6.523,-5.645,-0.051,0.896,-0.380,-0.641,-1.526,0.458,73.333,230254.000,1.000
-3.688,-6.712,-1.640,-7.160,-4.990,-8.300,-5.865,-4.732,-0.052,0.897,-0.378,-0.427,-1.678,0.458,73.333,230255.000,1.000
-5.011,-6.226,-0.823,-6.690,-3.120,-7.429,-4.781,-3.543,-0.052,0.899,-0.380,-0.458,-1.617,0.458,73.333,230256.000,1.000
-5.488,-4.875,0.039,-5.649,-1.265,-6.187,-3.936,-2.461,-0.049,0.897,-0.379,-0.488,-1.740,0.458,73.333,230257.000,1.000
-5.638,-2.782,0.699,-4.213,0.208,-4.731,-3.432,-1.612,-0.051,0.899,-0.378,-0.519,-1.801,0.488,73.333,230258.000,1.000
-6.038,-0.274,0.981,-2.540,1.318,-2.784,-2.693,-0.595,-0.051,0.900,-0.380,-0.641,-1.709,0.458,73.333,230259.000,1.000
-7.053,2.103,0.971,-0.675,2.427,0.075,-0.666,1.404,-0.049,0.898,-0.377,-0.488,-1.617,0.458,73.333,230260.000,1.000
-8.758,3.544,0.716,1.191,3.691,3.711,3.114,4.620,-0.049,0.899,-0.380,-0.641,-1.587,0.458,73.333,230261.000,1.000
-11.047,2.984,-0.251,2.340,4.352,6.591,7.196,7.659,-0.051,0.899,-0.377,-0.732,-1.648,0.427,73.333,230262.000,1.000
-13.657,-0.355,-2.503,1.814,3.074,6.485,8.909,8.275,-0.050,0.898,-0.380,-0.763,-1.587,0.305,73.333,230263.000,1.000
-16.029,-6.072,-6.158,-0.733,-0.671,2.590,6.798,5.570,-0.052,0.898,-0.380,-0.732,-1.648,0.366,73.333,230264.000,1.000
-17.370,-12.472,-10.357,-4.535,-5.882,-3.597,1.986,0.909,-0.050,0.895,-0.377,-0.824,-1.740,0.366,73.333,230265.000,1.000
-17.052,-17.523,-13.779,-8.275,-10.757,-9.428,-3.082,-3.563,-0.050,0.895,-0.379,-0.916,-1.709,0.397,73.333,230266.000,1.000
-14.919,-19.931,-15.539,-10.899,-13.893,-12.805,-6.615,-6.758,-0.051,0.895,-0.377,-0.763,-1.587,0.458,73.333,230267.000,1.000
-11.269,-19.596,-15.390,-11.907,-14.921,-13.336,-8.265,-8.921,-0.051,0.895,-0.379,-0.732,-1.678,0.427,73.333,230268.000,1.000
-6.697,-17.304,-13.732,-11.248,-14.238,-12.053,-8.679,-10.582,-0.050,0.892,-0.378,-0.702,-1.648,0.458,73.333,230269.000,1.000
-1.927,-14.078,-11.051,-9.132,-12.447,-10.316,-8.597,-11.650,-0.049,0.892,-0.376,-0.732,-1.678,0.610,73.333,230270.000,1.000
2.310,-10.847,-7.841,-6.108,-10.243,-9.284,-8.781,-11.839,-0.049,0.891,-0.378,-0.702,-1.617,0.488,73.333,230271.000,1.000
5.585,-8.157,-4.564,-2.874,-8.133,-9.367,-9.602,-10.972,-0.048,0.893,-0.381,-0.671,-1.587,0.610,73.333,230272.000,1.000
8.018,-5.903,-1.170,0.201,-5.953,-9.653,-10.093,-8.628,-0.050,0.893,-0.379,-0.641,-1.556,0.610,73.333,230273.000,1.000
9.887,-3.758,2.379,2.916,-3.314,-8.727,-8.807,-4.783,-0.050,0.895,-0.377,-0.549,-1.465,0.488,73.333,230274.000,1.000
11.156,-1.795,5.727,4.948,-0.430,-6.128,-5.457,-0.599,-0.052,0.896,-0.378,-0.549,-1.526,0.519,73.333,230275.000,1.000
11.497,-0.476,8.204,6.000,1.895,-2.699,-1.314,2.194,-0.052,0.896,-0.380,-0.580,-1.343,0.458,73.333,230276.000,1.000
10.576,-0.155,9.232,6.070,2.931,0.203,1.758,2.606,-0.053,0.897,-0.380,-0.519,-1.312,0.427,73.333,230277.000,1.000
8.264,-0.690,8.887,5.513,2.599,1.658,2.648,1.035,-0.055,0.898,-0.380,-0.519,-1.343,0.275,73.333,230278.000,1.000
4.785,-1.471,7.646,4.867,1.523,1.603,1.509,-1.087,-0.053,0.901,-0.382,-0.610,-1.343,0.305,73.333,230279.000,1.000
0.851,-1.704,6.243,4.732,0.692,0.718,-0.380,-2.062,-0.052,0.901,-0.380,-0.763,-1.526,0.214,73.333,230280.000,1.000
-2.491,-0.784,5.332,5.515,0.970,0.086,-1.314,-0.778,-0.050,0.900,-0.381,-0.793,-1.526,0.214,73.333,230281.000,1.000
-4.344,1.375,5.164,7.143,2.630,0.686,-0.170,2.704,-0.049,0.899,-0.381,-0.916,-1.526,0.305,73.333,230282.000,1.000
-4.366,4.270,5.712,9.090,5.179,2.908,2.946,7.143,-0.042,0.899,-0.381,-0.916,-1.465,0.366,73.333,230283.000,1.000
-2.834,7.056,6.554,10.595,7.544,6.217,6.565,10.535,-0.043,0.896,-0.381,-0.885,-1.373,0.549,73.333,230284.000,1.000
-0.457,8.909,7.181,11.032,8.572,9.181,8.697,11.157,-0.043,0.892,-0.382,-0.946,-1.129,0.702,73.333,230285.000,1.000
1.874,9.306,7.136,10.121,7.625,10.218,8.073,8.712,-0.046,0.888,-0.383,-0.854,-1.068,0.671,73.333,230286.000,1.000
3.393,8.209,6.072,7.958,4.932,8.743,4.875,4.422,-0.048,0.888,-0.383,-0.549,-1.007,0.732,73.333,230287.000,1.000
3.835,6.093,4.147,5.002,1.418,5.482,0.522,0.085,-0.050,0.891,-0.384,-0.336,-0.946,0.732,73.333,230288.000,1.000
3.557,3.722,1.918,1.960,-1.810,1.770,-3.354,-2.920,-0.050,0.896,-0.386,-0.183,-0.854,0.702,73.333,230289.000,1.000
3.279,1.881,0.343,-0.390,-3.888,-1.112,-5.578,-3.990,-0.050,0.897,-0.385,-0.061,-0.854,0.732,73.333,230290.000,1.000
3.578,1.064,0.294,-1.549,-4.451,-2.257,-5.749,-3.341,-0.047,0.899,-0.382,-0.031,-0.885,0.763,73.333,230291.000,1.000
4.557,1.230,1.881,-1.497,-3.707,-1.495,-4.267,-1.691,-0.047,0.899,-0.384,-0.061,-0.824,0.793,73.333,230292.000,1.000
5.880,1.875,4.491,-0.559,-2.247,0.478,-1.926,0.365,-0.047,0.899,-0.382,-0.031,-0.763,0.946,73.333,230293.000,1.000
6.986,2.352,6.931,0.697,-0.778,2.510,0.314,2.459,-0.049,0.897,-0.380,-0.092,-0.702,0.854,73.333,230294.000,1.000
7.344,2.118,8.075,1.563,0.009,3.570,1.461,4.022,-0.051,0.898,-0.382,-0.153,-0.580,0.824,73.333,230295.000,1.000
6.672,0.856,7.331,1.444,-0.388,3.086,0.775,4.236,-0.052,0.900,-0.381,-0.153,-0.732,0.671,73.333,230296.000,1.000
5.128,-1.302,4.832,0.266,-1.892,1.320,-1.638,2.804,-0.054,0.899,-0.383,-0.183,-0.580,0.580,73.333,230297.000,1.000
3.231,-3.771,1.484,-1.468,-3.783,-0.568,-4.618,0.400,-0.055,0.902,-0.381,-0.214,-0.671,0.336,73.333,230298.000,1.000
1.580,-5.851,-1.767,-3.102,-5.126,-1.129,-6.689,-1.801,-0.056,0.904,-0.379,-0.366,-0.702,0.305,73.333,230299.000,1.000
0.712,-6.944,-4.136,-3.967,-5.123,0.551,-6.637,-2.523,-0.055,0.905,-0.377,-0.397,-0.763,0.214,73.333,230300.000,1.000
0.889,-6.667,-5.185,-3.491,-3.456,4.197,-4.125,-0.961,-0.054,0.907,-0.382,-0.549,-0.763,0.214,73.333,230301.000,1.000
1.794,-5.030,-5.062,-1.588,-0.619,8.342,-0.236,2.443,-0.053,0.908,-0.382,-0.824,-0.824,0.061,73.333,230302.000,1.000
2.564,-2.541,-4.218,1.125,2.231,11.214,3.121,6.093,-0.051,0.907,-0.383,-0.916,-0.854,0.031,73.333,230303.000,1.000
2.149,-0.182,-3.445,3.471,3.802,11.625,4.189,8.041,-0.048,0.907,-0.378,-1.099,-0.916,-0.092,73.333,230304.000,1.000
-0.110,0.998,-3.481,4.372,3.313,9.429,2.245,7.057,-0.048,0.905,-0.379,-1.221,-0.854,0.000,73.333,230305.000,1.000
-3.896,0.642,-4.489,3.635,1.129,5.772,-1.806,3.684,-0.047,0.903,-0.381,-1.221,-0.763,-0.031,73.333,230306.000,1.000
-7.824,-0.554,-5.813,2.214,-1.242,2.709,-5.686,0.252,-0.047,0.901,-0.381,-1.404,-0.824,0.061,73.333,230307.000,1.000
-10.265,-1.448,-6.276,1.473,-2.227,1.906,-7.148,-0.801,-0.047,0.901,-0.381,-1.495,-0.671,0.183,73.333,230308.000,1.000
-10.481,-1.449,-5.362,1.968,-1.462,3.427,-5.699,0.998,-0.047,0.897,-0.381,-1.495,-0.671,0.092,73.333,230309.000,1.000
-8.946,-0.856,-3.481,3.106,0.008,5.860,-2.809,3.911,-0.048,0.897,-0.378,-1.434,-0.702,0.183,73.333,230310.000,1.000
-6.736,-0.363,-1.497,3.858,0.761,7.676,-0.530,5.640,-0.050,0.896,-0.378,-1.495,-0.732,0.214,73.333,230311.000,1.000
-4.757,-0.389,-0.158,3.633,0.126,8.347,0.023,5.074,-0.052,0.894,-0.380,-1.495,-0.732,0.214,73.333,230312.000,1.000
-3.376,-0.878,0.356,2.570,-1.525,8.161,-0.897,2.734,-0.053,0.893,-0.379,-1.404,-0.702,0.244,73.333,230313.000,1.000
-2.466,-1.442,0.247,1.290,-3.121,7.546,-2.269,0.279,-0.055,0.893,-0.377,-1.465,-0.763,0.244,73.333,230314.000,1.000
-1.582,-1.514,0.180,0.626,-3.409,7.072,-2.751,-0.276,-0.056,0.896,-0.377,-1.495,-0.824,0.305,73.333,230315.000,1.000
-0.345,-0.701,0.806,1.079,-1.791,7.478,-1.474,1.927,-0.054,0.896,-0.377,-1.617,-0.946,0.366,73.333,230316.000,1.000
1.245,0.810,2.059,2.309,0.968,8.951,0.949,5.421,-0.057,0.896,-0.376,-1.526,-0.977,0.305,73.333,230317.000,1.000
2.916,2.356,3.490,3.421,3.263,10.787,2.857,7.559,-0.057,0.895,-0.379,-1.465,-1.068,0.336,73.333,230318.000,1.000
4.411,3.376,4.632,3.784,4.064,12.297,3.184,7.009,-0.058,0.893,-0.376,-1.495,-1.190,0.305,73.333,230319.000,1.000
5.620,3.789,5.412,3.606,3.682,13.539,2.507,4.974,-0.057,0.893,-0.377,-1.465,-1.221,0.336,73.333,230320.000,1.000
6.498,3.857,6.039,3.643,3.242,14.838,2.300,4.069,-0.056,0.893,-0.379,-1.373,-1.343,0.427,73.333,230321.000,1.000
6.924,3.822,6.611,4.406,3.576,16.086,3.393,5.909,-0.057,0.892,-0.378,-1.312,-1.465,0.488,73.333,230322.000,1.000
6.684,3.633,7.032,5.640,4.435,16.648,5.057,9.356,-0.055,0.892,-0.380,-1.404,-1.556,0.610,73.333,230323.000,1.000
5.607,2.964,6.887,6.492,4.708,15.682,5.362,11.240,-0.056,0.894,-0.377,-1.282,-1.617,0.671,73.333,230324.000,1.000
3.758,1.607,5.966,6.288,3.538,12.802,2.998,9.245,-0.055,0.893,-0.377,-1.282,-1.587,0.732,73.333,230325.000,1.000
1.439,-0.157,4.557,5.028,1.165,8.764,-1.358,3.794,-0.056,0.890,-0.377,-1.190,-1.648,0.732,73.333,230326.000,1.000
-0.940,-1.576,3.240,3.344,-1.197,5.373,-5.482,-2.503,-0.055,0.890,-0.376,-1.190,-1.709,0.885,73.333,230327.000,1.000
-2.897,-1.814,2.708,2.245,-2.103,4.363,-6.978,-6.427,-0.054,0.892,-0.379,-1.038,-1.740,0.885,73.333,230328.000,1.000
-4.015,-0.503,3.174,2.566,-0.795,6.069,-4.866,-5.873,-0.055,0.895,-0.377,-0.977,-1.678,0.977,73.333,230329.000,1.000
-4.227,1.931,4.248,4.353,2.196,9.186,-0.260,-1.171,-0.055,0.896,-0.379,-0.824,-1.770,0.977,73.333,230330.000,1.000
-3.948,4.454,5.131,6.714,5.373,11.899,4.439,5.111,-0.054,0.896,-0.381,-0.824,-1.831,1.038,73.333,230331.000,1.000
-3.731,6.144,5.146,8.432,7.422,13.233,7.312,10.096,-0.053,0.896,-0.380,-0.854,-1.831,1.099,73.333,230332.000,1.000
-3.790,6.774,4.391,8.769,7.982,13.387,8.095,12.429,-0.053,0.899,-0.379,-0.885,-1.862,1.129,73.333,230333.000,1.000
-3.868,6.785,3.431,7.718,7.527,13.298,7.790,12.451,-0.051,0.899,-0.377,-0.916,-1.770,1.160,73.333,230334.000,1.000
-3.416,6.902,3.007,5.912,6.897,14.049,7.708,11.360,-0.050,0.898,-0.379,-0.916,-1.709,1.190,73.333,230335.000,1.000
-2.036,7.554,3.513,4.183,6.713,16.008,8.497,10.211,-0.051,0.898,-0.376,-0.885,-1.709,1.312,73.333,230336.000,1.000
0.140,8.465,4.589,3.072,6.932,18.311,9.728,9.399,-0.049,0.897,-0.378,-0.763,-1.709,1.343,73.333,230337.000,1.000
2.548,8.933,5.665,2.809,7.139,19.689,10.682,9.022,-0.048,0.897,-0.380,-0.763,-1.556,1.373,73.333,230338.000,1.000
4.503,8.398,6.256,3.350,7.037,19.573,10.979,9.071,-0.047,0.899,-0.378,-0.763,-1.434,1.312,73.333,230339.000,1.000
5.360,6.607,6.032,4.140,6.336,17.987,10.278,8.885,-0.045,0.899,-0.381,-0.854,-1.282,1.312,73.333,230340.000,1.000
4.662,3.540,4.645,4.123,4.565,14.902,7.946,7.211,-0.044,0.899,-0.380,-0.885,-1.221,1.434,73.333,230341.000,1.000
2.456,-0.393,1.901,2.497,1.563,10.416,3.756,3.551,-0.045,0.898,-0.379,-1.007,-1.038,1.343,73.333,230342.000,1.000
-0.553,-4.204,-1.634,-0.521,-1.968,5.425,-1.192,-0.963,-0.045,0.899,-0.378,-0.946,-0.977,1.373,73.333,230343.000,1.000
-3.220,-6.649,-4.835,-3.790,-4.707,1.497,-4.994,-4.344,-0.046,0.900,-0.380,-0.946,-0.885,1.343,73.333,230344.000,1.000
-4.442,-6.880,-6.462,-5.903,-5.501,-0.121,-6.155,-4.975,-0.046,0.900,-0.380,-0.977,-0.732,1.251,73.333,230345.000,1.000
-3.774,-5.038,-5.932,-6.084,-4.175,0.669,-4.558,-2.717,-0.047,0.901,-0.381,-1.007,-0.610,1.190,73.333,230346.000,1.000
-1.706,-2.306,-3.804,-4.688,-1.812,2.680,-1.745,0.665,-0.048,0.903,-0.377,-1.038,-0.458,1.099,73.333,230347.000,1.000
0.690,-0.141,-1.159,-2.697,0.075,4.272,0.309,2.921,-0.047,0.902,-0.379,-1.099,-0.397,1.038,73.333,230348.000,1.000
2.347,0.707,1.016,-0.904,0.737,4.709,0.805,3.170,-0.049,0.900,-0.379,-1.373,-0.244,1.099,73.333,230349.000,1.000
2.567,0.440,2.285,0.391,0.392,4.526,0.330,1.956,-0.048,0.896,-0.379,-1.404,-0.244,1.099,73.333,230350.000,1.000
1.140,-0.293,2.671,1.249,-0.317,4.757,-0.144,0.292,-0.045,0.894,-0.378,-1.343,-0.244,1.007,73.333,230351.000,1.000
-1.553,-0.927,2.397,1.971,-0.777,5.883,-0.070,-0.794,-0.046,0.896,-0.378,-1.343,-0.214,0.885,73.333,230352.000,1.000
-4.690,-1.340,1.741,2.781,-0.874,7.022,0.242,-0.757,-0.047,0.897,-0.382,-1.221,-0.183,0.824,73.333,230353.000,1.000
-7.457,-1.850,0.561,3.416,-1.103,6.614,-0.117,0.021,-0.047,0.899,-0.383,-1.160,-0.153,0.824,73.333,230354.000,1.000
-9.293,-2.699,-1.315,3.335,-1.959,4.247,-1.450,0.703,-0.047,0.904,-0.380,-1.129,-0.153,0.824,73.333,230355.000,1.000
-9.905,-3.748,-3.678,2.129,-3.498,1.063,-3.176,0.490,-0.044,0.906,-0.381,-1.068,0.000,0.885,73.333,230356.000,1.000
-9.304,-4.671,-6.037,-0.281,-5.450,-1.413,-4.649,-1.235,-0.042,0.902,-0.380,-1.312,0.000,0.854,73.333,230357.000,1.000
-7.811,-5.238,-7.756,-3.545,-7.377,-2.178,-5.419,-4.445,-0.042,0.900,-0.380,-1.404,0.153,0.824,73.333,230358.000,1.000
-5.925,-5.362,-8.534,-6.936,-8.731,-1.018,-5.174,-8.061,-0.045,0.895,-0.379,-1.556,0.275,0.977,73.333,230359.000,1.000
-4.044,-5.000,-8.339,-9.527,-9.031,1.376,-3.859,-10.403,-0.046,0.891,-0.377,-1.556,0.458,1.068,73.333,230360.000,1.000
-2.307,-4.178,-7.366,-10.622,-8.204,3.579,-1.998,-10.440,-0.051,0.889,-0.380,-1.312,0.366,1.038,73.333,230361.000,1.000
-0.669,-3.081,-6.120,-10.171,-6.687,4.296,-0.601,-8.532,-0.055,0.891,-0.379,-1.129,0.244,0.885,73.333,230362.000,1.000
0.961,-1.934,-5.009,-8.717,-5.040,3.496,-0.329,-5.947,-0.058,0.893,-0.378,-0.885,0.122,0.702,73.333,230363.000,1.000
2.654,-0.764,-4.168,-6.915,-3.418,2.592,-0.824,-3.718,-0.058,0.894,-0.378,-0.824,-0.031,0.610,73.333,230364.000,1.000
4.438,0.555,-3.315,-5.097,-1.550,3.155,-0.913,-1.989,-0.059,0.897,-0.379,-0.824,-0.061,0.580,73.333,230365.000,1.000
6.163,1.891,-2.205,-3.493,0.585,5.293,0.022,-0.709,-0.059,0.898,-0.377,-0.824,-0.305,0.336,73.333,230366.000,1.000
7.488,2.803,-1.057,-2.459,2.456,7.568,1.293,-0.116,-0.061,0.899,-0.377,-0.793,-0.427,0.305,73.333,230367.000,1.000
8.079,2.920,-0.195,-2.185,3.452,8.416,1.794,-0.285,-0.059,0.900,-0.376,-0.763,-0.610,0.305,73.333,230368.000,1.000
7.693,2.095,-0.057,-2.699,3.185,7.224,0.693,-1.326,-0.059,0.897,-0.377,-0.732,-0.702,0.214,73.333,230369.000,1.000
6.270,0.460,-0.881,-3.852,1.743,4.608,-1.950,-3.329,-0.056,0.896,-0.378,-0.671,-0.885,0.183,73.333,230370.000,1.000
4.144,-1.362,-2.299,-5.024,0.143,2.363,-4.457,-5.314,-0.056,0.896,-0.377,-0.702,-0.977,0.244,73.333,230371.000,1.000
2.066,-2.289,-3.417,-5.220,0.043,2.744,-4.201,-5.278,-0.053,0.896,-0.378,-0.732,-1.038,0.214,73.333,230372.000,1.000
0.769,-1.468,-3.333,-3.824,2.350,6.694,0.074,-2.147,-0.051,0.895,-0.377,-0.702,-1.190,0.244,73.333,230373.000,1.000
0.405,0.892,-2.075,-1.175,6.164,12.468,6.502,2.813,-0.052,0.896,-0.377,-0.641,-1.282,0.275,73.333,230374.000,1.000
0.532,3.647,-0.405,1.885,9.550,16.825,11.675,7.307,-0.052,0.897,-0.375,-0.549,-1.343,0.336,73.333,230375.000,1.000
0.567,5.660,0.905,4.758,11.255,17.929,13.756,10.100,-0.051,0.896,-0.374,-0.519,-1.495,0.427,73.333,230376.000,1.000
0.052,6.321,1.270,7.074,11.207,16.264,13.057,11.001,-0.050,0.897,-0.377,-0.427,-1.556,0.549,73.333,230377.000,1.000
-1.334,5.374,0.314,8.268,9.669,12.967,10.261,9.642,-0.052,0.898,-0.377,-0.488,-1.526,0.671,73.333,230378.000,1.000
-3.548,2.999,-2.015,7.756,6.969,8.866,5.700,5.720,-0.052,0.898,-0.379,-0.458,-1.526,0.610,73.333,230379.000,1.000
-5.749,0.238,-4.749,5.830,4.102,5.194,0.603,0.562,-0.052,0.898,-0.378,-0.336,-1.617,0.702,73.333,230380.000,1.000
-6.589,-1.382,-6.243,3.770,2.567,3.503,-2.815,-3.012,-0.054,0.897,-0.376,-0.275,-1.617,0.763,73.333,230381.000,1.000
-5.220,-0.966,-5.491,2.851,3.191,4.447,-3.007,-2.876,-0.055,0.898,-0.376,-0.244,-1.740,0.793,73.333,230382.000,1.000
-1.928,1.147,-2.684,3.392,5.419,7.297,-0.209,0.617,-0.053,0.896,-0.376,-0.275,-1.770,0.854,73.333,230383.000,1.000
2.045,3.650,0.740,4.546,7.632,10.423,3.603,4.796,-0.053,0.896,-0.380,-0.275,-1.862,0.732,73.333,230384.000,1.000
5.254,5.084,3.006,5.027,8.234,12.139,5.955,6.733,-0.052,0.899,-0.379,-0.183,-1.953,0.641,73.333,230385.000,1.000
6.794,4.637,3.044,4.036,6.677,11.613,5.429,5.255,-0.053,0.898,-0.381,-0.244,-1.984,0.610,73.333,230386.000,1.000
6.629,2.510,0.924,1.677,3.667,9.253,2.315,1.330,-0.052,0.900,-0.380,-0.366,-2.014,0.580,73.333,230387.000,1.000
5.493,-0.209,-2.063,-1.073,0.712,6.398,-1.479,-2.626,-0.053,0.899,-0.379,-0.366,-2.045,0.580,73.333,230388.000,1.000
4.443,-2.138,-4.292,-2.932,-0.715,4.549,-3.567,-4.172,-0.053,0.899,-0.378,-0.336,-2.075,0.610,73.333,230389.000,1.000
4.164,-2.562,-4.833,-3.299,-0.310,4.149,-3.088,-2.775,-0.053,0.898,-0.376,-0.366,-2.106,0.610,73.333,230390.000,1.000
4.504,-2.037,-4.118,-2.842,0.597,3.850,-1.781,-0.510,-0.049,0.899,-0.377,-0.427,-2.075,0.488,73.333,230391.000,1.000
4.787,-1.758,-3.419,-2.745,0.352,1.856,-2.041,0.133,-0.050,0.899,-0.378,-0.458,-2.106,0.488,73.333,230392.000,1.000
4.461,-2.347,-3.491,-3.461,-1.287,-1.829,-4.087,-1.116,-0.050,0.901,-0.376,-0.580,-2.045,0.397,73.333,230393.000,1.000
3.245,-3.640,-4.445,-4.727,-3.347,-5.484,-6.465,-2.953,-0.050,0.903,-0.379,-0.549,-2.075,0.458,73.333,230394.000,1.000
1.012,-5.234,-6.048,-6.301,-5.031,-7.590,-8.200,-4.710,-0.051,0.900,-0.380,-0.610,-2.075,0.336,73.333,230395.000,1.000
-1.989,-6.565,-7.821,-7.981,-6.017,-7.566,-9.081,-6.496,-0.050,0.901,-0.379,-0.702,-2.106,0.366,73.333,230396.000,1.000
-4.894,-6.739,-9.035,-9.110,-5.875,-5.287,-8.783,-7.897,-0.049,0.899,-0.382,-0.732,-2.075,0.336,73.333,230397.000,1.000
-6.645,-4.974,-8.883,-8.726,-4.123,-1.066,-6.837,-7.851,-0.049,0.899,-0.378,-0.732,-2.014,0.397,73.333,230398.000,1.000
-6.795,-1.377,-7.333,-6.500,-0.966,3.952,-3.512,-5.946,-0.050,0.898,-0.378,-0.793,-2.014,0.336,73.333,230399.000,1.000
-5.757,2.964,-5.152,-3.207,2.507,8.062,0.082,-3.084,-0.048,0.897,-0.377,-0.732,-1.953,0.275,73.333,230400.000,1.000
-4.422,6.610,-3.336,-0.245,4.999,9.942,2.787,-0.696,-0.048,0.897,-0.379,-0.702,-1.923,0.305,73.333,230401.000,1.000
-3.625,8.467,-2.624,1.187,5.695,9.330,3.973,0.215,-0.050,0.897,-0.377,-0.702,-1.953,0.275,73.333,230402.000,1.000
-3.750,8.190,-3.098,0.675,4.507,6.991,3.703,-0.515,-0.052,0.898,-0.379,-0.671,-1.862,0.275,73.333,230403.000,1.000
-4.606,6.270,-4.396,-1.215,2.182,4.413,2.848,-1.935,-0.048,0.898,-0.379,-0.702,-1.801,0.244,73.333,230404.000,1.000
-5.530,3.801,-5.735,-3.128,0.173,3.306,3.099,-2.091,-0.050,0.897,-0.378,-0.732,-1.740,0.336,73.333,230405.000,1.000
-5.835,1.741,-6.363,-3.897,-0.394,4.360,5.512,0.289,-0.052,0.898,-0.380,-0.732,-1.740,0.336,73.333,230406.000,1.000
-5.405,0.136,-6.384,-3.636,0.081,6.156,8.684,3.941,-0.052,0.899,-0.378,-0.824,-1.770,0.336,73.333,230407.000,1.000
-4.838,-1.803,-6.644,-3.608,-0.093,6.000,9.551,5.818,-0.053,0.898,-0.377,-0.824,-1.678,0.305,73.333,230408.000,1.000
-4.954,-4.760,-8.064,-5.015,-2.292,2.356,6.211,3.724,-0.053,0.898,-0.379,-0.824,-1.678,0.336,73.333,230409.000,1.000
-6.093,-8.483,-10.713,-7.935,-6.332,-3.684,-0.195,-1.853,-0.056,0.897,-0.378,-0.824,-1.770,0.397,73.333,230410.000,1.000
-7.852,-11.916,-13.737,-11.379,-10.705,-9.458,-6.464,-8.199,-0.052,0.896,-0.379,-0.793,-1.740,0.397,73.333,230411.000,1.000
-9.343,-13.939,-16.044,-14.114,-13.737,-12.812,-9.800,-12.378,-0.054,0.898,-0.378,-0.916,-1.709,0.336,73.333,230412.000,1.000
-9.666,-13.955,-16.781,-15.318,-14.428,-13.047,-9.218,-12.877,-0.053,0.897,-0.377,-0.824,-1.709,0.275,73.333,230413.000,1.000
-8.362,-12.096,-15.800,-14.784,-12.664,-10.634,-5.503,-9.991,-0.053,0.899,-0.377,-0.916,-1.617,0.366,73.333,230414.000,1.000
-5.661,-9.149,-13.509,-12.857,-9.169,-6.812,-0.544,-5.399,-0.053,0.899,-0.375,-0.916,-1.648,0.458,73.333,230415.000,1.000
-2.522,-6.365,-10.764,-10.441,-5.458,-3.499,3.155,-1.551,-0.053,0.899,-0.375,-0.854,-1.678,0.458,73.333,230416.000,1.000
-0.258,-4.934,-8.668,-8.642,-3.195,-2.519,3.573,-0.433,-0.052,0.898,-0.375,-0.824,-1.648,0.427,73.333,230417.000,1.000
0.289,-5.173,-7.636,-7.886,-2.940,-3.969,1.042,-2.036,-0.052,0.898,-0.375,-0.977,-1.556,0.488,73.333,230418.000,1.000
-0.657,-6.258,-7.152,-7.593,-3.721,-5.955,-1.778,-4.280,-0.053,0.899,-0.377,-0.977,-1.587,0.519,73.333,230419.000,1.000
-2.117,-6.929,-6.311,-6.833,-4.112,-6.471,-2.219,-4.892,-0.050,0.899,-0.380,-0.977,-1.617,0.427,73.333,230420.000,1.000
-3.297,-6.508,-4.834,-5.303,-3.537,-5.105,0.221,-3.399,-0.051,0.899,-0.379,-1.038,-1.556,0.427,73.333,230421.000,1.000
-4.062,-5.160,-3.323,-3.463,-2.373,-2.748,4.114,-0.975,-0.049,0.900,-0.375,-1.038,-1.587,0.397,73.333,230422.000,1.000
-4.627,-3.414,-2.371,-1.887,-1.147,-0.344,7.947,1.223,-0.050,0.899,-0.377,-1.160,-1.526,0.549,73.333,230423.000,1.000
-5.198,-1.775,-2.197,-0.965,-0.169,1.619,10.851,2.661,-0.050,0.900,-0.378,-1.129,-1.495,0.671,73.333,230424.000,1.000
-5.899,-0.633,-2.590,-0.891,0.341,2.960,12.375,3.129,-0.050,0.901,-0.377,-1.007,-1.495,0.671,73.333,230425.000,1.000
-6.773,-0.217,-3.176,-1.603,0.220,3.611,12.349,2.637,-0.048,0.898,-0.378,-0.977,-1.434,0.854,73.333,230426.000,1.000
-7.768,-0.588,-3.876,-2.847,-0.600,3.452,10.771,1.275,-0.048,0.897,-0.378,-1.038,-1.373,0.793,73.333,230427.000,1.000
-8.645,-1.612,-4.702,-4.340,-2.044,2.303,7.835,-0.847,-0.048,0.898,-0.376,-1.129,-1.373,0.763,73.333,230428.000,1.000
-8.929,-2.866,-5.534,-5.774,-3.765,0.192,4.071,-3.342,-0.049,0.897,-0.378,-1.221,-1.129,0.885,73.333,230429.000,1.000
-8.067,-3.681,-5.901,-6.665,-5.105,-2.321,0.521,-5.339,-0.050,0.898,-0.379,-1.190,-1.099,0.916,73.333,230430.000,1.000
-5.839,-3.511,-5.285,-6.516,-5.427,-4.271,-1.630,-5.965,-0.049,0.899,-0.379,-1.190,-1.068,0.916,73.333,230431.000,1.000
-2.568,-2.235,-3.555,-5.119,-4.462,-4.782,-1.694,-4.940,-0.049,0.900,-0.377,-1.190,-0.977,0.946,73.333,230432.000,1.000
1.085,-0.209,-0.923,-2.687,-2.509,-3.753,0.118,-2.742,-0.052,0.901,-0.377,-1.251,-0.977,1.038,73.333,230433.000,1.000
4.311,1.646,1.714,-0.075,-0.717,-2.629,2.020,-0.922,-0.050,0.900,-0.374,-1.282,-0.916,1.068,73.333,230434.000,1.000
6.416,2.209,3.168,1.489,-0.662,-3.765,1.229,-1.629,-0.050,0.901,-0.375,-1.404,-0.824,1.099,73.333,230435.000,1.000
7.316,1.205,3.054,1.438,-2.792,-7.825,-3.309,-5.499,-0.050,0.900,-0.377,-1.404,-0.854,1.007,73.333,230436.000,1.000
7.726,-0.276,2.223,0.544,-5.583,-12.337,-9.190,-10.388,-0.051,0.900,-0.377,-1.465,-0.763,1.068,73.333,230437.000,1.000
8.568,-0.797,2.055,0.166,-6.910,-14.104,-12.657,-13.148,-0.052,0.900,-0.377,-1.495,-0.610,1.007,73.333,230438.000,1.000
10.163,0.067,3.099,0.936,-5.995,-12.551,-12.165,-12.356,-0.052,0.903,-0.376,-1.434,-0.671,1.038,73.333,230439.000,1.000
12.107,1.672,5.001,2.520,-3.572,-9.642,-8.851,-8.750,-0.051,0.901,-0.377,-1.465,-0.519,0.977,73.333,230440.000,1.000
13.692,3.217,7.109,4.213,-0.836,-7.453,-4.750,-4.121,-0.051,0.900,-0.375,-1.465,-0.549,0.885,73.333,230441.000,1.000
14.345,4.338,8.779,5.402,1.253,-6.765,-1.566,-0.379,-0.052,0.900,-0.375,-1.404,-0.580,0.916,73.333,230442.000,1.000
13.855,5.088,9.733,5.836,2.288,-7.070,0.042,1.348,-0.051,0.898,-0.378,-1.495,-0.580,0.946,73.333,230443.000,1.000
12.413,5.696,9.968,5.692,2.516,-7.220,0.526,1.264,-0.051,0.896,-0.380,-1.373,-0.610,0.946,73.333,230444.000,1.000
10.611,6.380,9.806,5.509,2.586,-6.258,0.873,0.594,-0.051,0.896,-0.377,-1.343,-0.519,0.977,73.333,230445.000,1.000
9.229,7.238,9.776,5.884,3.124,-3.911,1.893,0.740,-0.052,0.896,-0.377,-1.343,-0.580,0.946,73.333,230446.000,1.000
8.820,8.143,10.245,7.079,4.326,-0.791,3.640,2.359,-0.050,0.896,-0.379,-1.251,-0.519,0.885,73.333,230447.000,1.000
9.439,8.781,11.370,8.853,5.775,1.782,5.347,4.889,-0.050,0.896,-0.377,-1.251,-0.549,1.038,73.333,230448.000,1.000
10.669,8.887,12.842,10.598,6.767,2.662,5.970,6.985,-0.049,0.894,-0.377,-1.221,-0.397,1.007,73.333,230449.000,1.000
11.830,8.428,14.015,11.622,6.762,1.585,4.797,7.369,-0.049,0.896,-0.377,-1.099,-0.427,0.977,73.333,230450.000,1.000
12.319,7.544,14.325,11.446,5.565,-0.985,1.671,5.419,-0.050,0.896,-0.376,-1.068,-0.397,0.946,73.333,230451.000,1.000
11.995,6.531,13.704,10.188,3.552,-4.062,-2.666,1.813,-0.051,0.896,-0.376,-0.916,-0.488,1.038,73.333,230452.000,1.000
11.281,5.804,12.778,8.639,1.706,-6.325,-6.439,-1.392,-0.052,0.896,-0.377,-0.885,-0.366,1.007,73.333,230453.000,1.000
10.757,5.595,12.092,7.610,0.953,-6.887,-8.014,-2.209,-0.050,0.895,-0.379,-0.793,-0.427,0.977,73.333,230454.000,1.000
10.637,5.668,11.593,7.217,1.309,-6.032,-7.221,-0.476,-0.050,0.895,-0.380,-0.702,-0.397,0.977,73.333,230455.000,1.000
10.566,5.408,10.695,6.838,1.814,-4.997,-5.423,1.962,-0.050,0.895,-0.377,-0.671,-0.397,0.946,73.333,230456.000,1.000
9.947,4.292,8.786,5.737,1.318,-5.028,-4.449,2.823,-0.051,0.897,-0.375,-0.641,-0.397,0.946,73.333,230457.000,1.000
8.472,2.271,5.960,3.698,-0.725,-6.649,-5.425,0.978,-0.051,0.898,-0.378,-0.610,-0.397,1.007,73.333,230458.000,1.000
6.386,-0.161,2.911,1.196,-3.891,-9.286,-8.109,-2.980,-0.052,0.898,-0.376,-0.580,-0.336,0.885,73.333,230459.000,1.000
4.458,-2.114,0.671,-0.721,-6.825,-11.371,-10.679,-6.868,-0.052,0.899,-0.375,-0.427,-0.458,0.824,73.333,230460.000,1.000
3.557,-2.809,0.074,-1.036,-8.012,-11.543,-10.934,-8.140,-0.051,0.898,-0.375,-0.519,-0.458,0.885,73.333,230461.000,1.000
4.049,-2.139,1.144,0.445,-6.843,-9.803,-8.155,-5.750,-0.052,0.900,-0.376,-0.458,-0.488,0.824,73.333,230462.000,1.000
5.465,-0.712,3.192,2.883,-3.999,-7.255,-3.577,-1.009,-0.052,0.899,-0.374,-0.549,-0.427,0.763,73.333,230463.000,1.000
6.685,0.494,5.033,4.837,-1.082,-5.305,0.329,3.192,-0.050,0.898,-0.376,-0.549,-0.519,0.854,73.333,230464.000,1.000
6.634,0.710,5.738,5.185,0.347,-4.991,1.379,4.353,-0.050,0.900,-0.377,-0.549,-0.488,0.854,73.333,230465.000,1.000
4.991,-0.116,5.248,3.856,-0.226,-6.316,-0.807,2.040,-0.051,0.900,-0.373,-0.549,-0.549,0.824,73.333,230466.000,1.000
2.262,-1.355,4.171,1.763,-2.072,-8.244,-4.639,-2.037,-0.051,0.900,-0.374,-0.458,-0.641,0.732,73.333,230467.000,1.000
-0.631,-2.186,3.403,0.159,-3.847,-9.539,-7.653,-5.285,-0.052,0.900,-0.380,-0.549,-0.580,0.732,73.333,230468.000,1.000
-2.788,-2.065,3.493,-0.095,-4.459,-9.551,-8.089,-5.871,-0.053,0.899,-0.377,-0.519,-0.610,0.702,73.333,230469.000,1.000
-3.673,-1.000,4.377,1.028,-3.708,-8.455,-5.829,-3.825,-0.053,0.897,-0.373,-0.427,-0.702,0.671,73.333,230470.000,1.000
-3.447,0.333,5.265,2.656,-2.431,-7.183,-2.404,-0.957,-0.055,0.897,-0.377,-0.397,-0.824,0.763,73.333,230471.000,1.000
-2.933,0.861,4.903,3.524,-1.882,-7.107,-0.040,0.575,-0.052,0.898,-0.375,-0.427,-0.885,0.702,73.333,230472.000,1.000
-2.997,-0.136,2.642,2.896,-2.714,-9.004,-0.065,-0.137,-0.053,0.897,-0.378,-0.397,-0.793,0.732,73.333,230473.000,1.000
-3.889,-2.344,-1.063,1.077,-4.390,-11.949,-1.954,-2.349,-0.053,0.896,-0.376,-0.336,-0.885,0.763,73.333,230474.000,1.000
-5.084,-4.534,-4.836,-0.790,-5.472,-13.632,-3.501,-4.127,-0.051,0.896,-0.377,-0.366,-0.916,0.671,73.333,230475.000,1.000
-5.760,-5.570,-7.280,-1.551,-4.796,-12.401,-2.537,-3.614,-0.051,0.896,-0.375,-0.275,-0.977,0.702,73.333,230476.000,1.000
-5.500,-5.387,-7.972,-0.981,-2.665,-8.999,0.830,-0.773,-0.051,0.895,-0.378,-0.397,-1.038,0.824,73.333,230477.000,1.000
-4.560,-4.900,-7.408,0.053,-0.711,-5.872,4.163,2.276,-0.050,0.895,-0.378,-0.275,-1.099,0.763,73.333,230478.000,1.000
-3.532,-5.025,-6.457,0.397,-0.408,-5.015,4.972,3.111,-0.050,0.898,-0.380,-0.305,-1.129,0.793,73.333,230479.000,1.000
-2.844,-5.895,-5.572,-0.351,-1.811,-6.702,2.914,1.299,-0.050,0.898,-0.377,-0.336,-1.038,0.854,73.333,230480.000,1.000
-2.628,-6.940,-4.704,-1.693,-3.700,-9.699,-0.212,-1.502,-0.050,0.897,-0.377,-0.214,-1.038,0.854,73.333,230481.000,1.000
-2.854,-7.455,-3.862,-2.967,-4.719,-12.152,-2.221,-3.455,-0.051,0.899,-0.377,-0.305,-1.160,0.854,73.333,230482.000,1.000
-3.352,-7.037,-3.170,-3.867,-4.262,-12.618,-1.964,-3.823,-0.049,0.898,-0.378,-0.153,-1.129,0.885,73.333,230483.000,1.000
-3.793,-5.698,-2.701,-4.325,-2.503,-10.805,0.296,-2.642,-0.050,0.897,-0.378,-0.214,-1.221,0.885,73.333,230484.000,1.000
-3.856,-3.796,-2.271,-4.272,-0.018,-7.531,3.397,-0.185,-0.050,0.896,-0.379,-0.183,-1.190,0.824,73.333,230485.000,1.000
-3.564,-1.999,-1.753,-3.865,2.379,-4.110,5.891,2.695,-0.050,0.899,-0.378,-0.244,-1.190,0.854,73.333,230486.000,1.000
-3.292,-1.029,-1.393,-3.598,3.817,-1.707,6.483,4.423,-0.050,0.901,-0.378,-0.397,-1.251,0.916,73.333,230487.000,1.000
-3.385,-1.157,-1.347,-3.791,3.912,-0.787,4.848,3.874,-0.050,0.900,-0.376,-0.366,-1.282,0.916,73.333,230488.000,1.000
-3.972,-2.038,-1.622,-4.238,3.103,-0.935,2.043,1.507,-0.050,0.901,-0.378,-0.336,-1.282,0.854,73.333,230489.000,1.000
-4.935,-2.927,-2.009,-4.291,2.424,-1.022,0.109,-0.749,-0.051,0.901,-0.377,-0.427,-1.312,0.854,73.333,230490.000,1.000
-5.855,-2.968,-2.055,-3.233,2.943,0.361,1.021,-0.686,-0.052,0.900,-0.378,-0.519,-1.251,0.763,73.333,230491.000,1.000
-6.247,-1.682,-1.553,-0.933,4.896,3.813,5.108,2.342,-0.051,0.900,-0.378,-0.610,-1.343,0.793,73.333,230492.000,1.000
-6.089,0.513,-0.875,1.691,7.131,7.947,10.170,6.394,-0.051,0.900,-0.378,-0.671,-1.282,0.824,73.333,230493.000,1.000
-5.889,2.512,-0.869,3.123,7.842,9.989,12.688,8.277,-0.050,0.899,-0.379,-0.702,-1.404,0.763,73.333,230494.000,1.000
-6.024,3.445,-1.934,2.465,6.121,8.128,10.507,6.116,-0.051,0.899,-0.381,-0.702,-1.434,0.732,73.333,230495.000,1.000
-6.242,3.328,-3.510,0.170,2.785,3.139,4.461,0.753,-0.050,0.899,-0.377,-0.702,-1.404,0.824,73.333,230496.000,1.000
-5.821,2.945,-4.508,-2.230,-0.129,-2.160,-2.200,-4.784,-0.050,0.898,-0.374,-0.671,-1.373,0.641,73.333,230497.000,1.000
-4.146,3.182,-3.937,-3.168,-0.816,-4.916,-5.928,-7.398,-0.049,0.897,-0.377,-0.671,-1.343,0.732,73.333,230498.000,1.000
-1.272,4.260,-1.787,-2.158,0.947,-4.173,-5.357,-6.257,-0.052,0.897,-0.377,-0.732,-1.495,0.763,73.333,230499.000,1.000
2.000,5.561,0.930,0.016,3.740,-1.252,-1.935,-3.026,-0.050,0.897,-0.374,-0.702,-1.556,0.641,73.333,230500.000,1.000
4.614,6.215,2.958,2.039,5.704,1.543,1.598,-0.135,-0.050,0.897,-0.375,-0.793,-1.556,0.641,73.333,230501.000,1.000
5.969,5.851,3.541,2.979,5.850,2.678,3.305,1.009,-0.051,0.898,-0.375,-0.824,-1.434,0.580,73.333,230502.000,1.000
6.279,4.838,2.894,2.806,4.578,2.387,3.407,0.775,-0.049,0.897,-0.376,-0.854,-1.343,0.671,73.333,230503.000,1.000
6.292,3.864,1.760,2.114,3.104,2.111,3.592,0.604,-0.048,0.898,-0.373,-0.793,-1.404,0.519,73.333,230504.000,1.000
6.621,3.258,0.848,1.387,2.173,2.671,4.794,1.287,-0.049,0.898,-0.376,-0.763,-1.404,0.580,73.333,230505.000,1.000
7.315,2.678,0.399,0.553,1.362,3.148,5.897,1.955,-0.050,0.898,-0.377,-0.854,-1.343,0.549,73.333,230506.000,1.000
8.045,1.617,0.230,-0.639,-0.172,1.942,4.949,1.132,-0.048,0.897,-0.377,-0.854,-1.312,0.549,73.333,230507.000,1.000
8.520,0.028,0.334,-1.992,-2.553,-1.519,1.269,-1.553,-0.048,0.896,-0.378,-0.916,-1.251,0.580,73.333,230508.000,1.000
8.569,-1.735,0.716,-2.981,-5.089,-6.349,-4.121,-5.109,-0.051,0.897,-0.375,-0.793,-1.221,0.549,73.333,230509.000,1.000
8.049,-3.300,1.175,-3.274,-6.891,-10.749,-9.223,-8.043,-0.050,0.898,-0.375,-0.824,-1.251,0.549,73.333,230510.000,1.000
6.897,-4.420,1.427,-2.980,-7.352,-12.767,-11.964,-9.140,-0.049,0.898,-0.374,-0.824,-1.190,0.549,73.333,230511.000,1.000
5.243,-4.946,1.317,-2.393,-6.240,-11.214,-11.060,-7.718,-0.050,0.897,-0.374,-0.854,-1.251,0.580,73.333,230512.000,1.000
3.319,-4.936,1.046,-1.703,-3.807,-6.517,-6.691,-3.862,-0.051,0.897,-0.375,-0.732,-1.221,0.549,73.333,230513.000,1.000
1.253,-4.708,0.786,-1.047,-0.829,-0.552,-0.618,1.209,-0.050,0.897,-0.379,-0.854,-1.099,0.549,73.333,230514.000,1.000
-0.855,-4.453,0.666,-0.456,1.872,4.778,5.052,5.750,-0.049,0.898,-0.378,-0.885,-1.099,0.610,73.333,230515.000,1.000
-2.896,-4.079,0.762,0.150,3.743,8.214,8.780,8.431,-0.051,0.899,-0.379,-0.854,-1.221,0.458,73.333,230516.000,1.000
-4.923,-3.593,0.753,0.704,4.245,8.495,9.258,8.586,-0.050,0.898,-0.378,-0.916,-1.068,0.580,73.333,230517.000,1.000
-7.083,-3.140,0.214,1.000,3.087,4.942,6.019,6.464,-0.052,0.902,-0.379,-1.007,-1.160,0.610,73.333,230518.000,1.000
-9.412,-2.676,-1.048,0.849,0.722,-1.088,0.330,3.168,-0.051,0.900,-0.376,-0.916,-1.251,0.580,73.333,230519.000,1.000
-11.800,-1.975,-2.746,0.102,-1.902,-6.692,-5.468,-0.120,-0.051,0.898,-0.373,-1.007,-1.129,0.671,73.333,230520.000,1.000
-13.950,-0.834,-4.168,-1.189,-3.854,-9.324,-9.279,-2.623,-0.052,0.899,-0.372,-1.007,-1.160,0.610,73.333,230521.000,1.000
-15.395,0.833,-4.664,-2.556,-4.461,-8.061,-10.032,-3.829,-0.052,0.900,-0.375,-0.977,-1.160,0.610,73.333,230522.000,1.000
-15.790,2.825,-4.038,-3.325,-3.575,-3.863,-7.938,-3.442,-0.054,0.899,-0.376,-1.007,-1.160,0.641,73.333,230523.000,1.000
-15.195,4.541,-2.854,-3.210,-1.796,0.958,-4.502,-1.751,-0.053,0.897,-0.376,-1.068,-1.190,0.641,73.333,230524.000,1.000
-13.986,5.294,-1.891,-2.514,-0.160,4.141,-1.605,0.331,-0.053,0.899,-0.378,-1.160,-1.251,0.702,73.333,230525.000,1.000
-12.566,4.870,-1.444,-1.777,0.651,5.059,-0.096,1.888,-0.052,0.899,-0.379,-0.977,-1.282,0.702,73.333,230526.000,1.000
-11.100,3.745,-1.313,-1.375,0.627,4.624,0.323,2.491,-0.051,0.898,-0.379,-0.885,-1.373,0.763,73.333,230527.000,1.000
-9.478,2.623,-1.048,-1.441,-0.036,3.511,-0.054,2.045,-0.053,0.897,-0.379,-1.007,-1.343,0.732,73.333,230528.000,1.000
-7.484,1.915,-0.361,-1.871,-1.205,1.494,-1.385,0.762,-0.052,0.897,-0.377,-1.129,-1.343,0.793,73.333,230529.000,1.000
-4.979,1.682,0.932,-2.274,-2.588,-1.607,-3.577,-0.695,-0.053,0.898,-0.378,-1.099,-1.404,0.732,73.333,230530.000,1.000
-2.088,1.735,2.859,-2.281,-3.753,-5.241,-6.023,-1.690,-0.053,0.898,-0.379,-1.038,-1.465,0.793,73.333,230531.000,1.000
0.854,1.939,5.193,-1.743,-4.115,-7.888,-7.604,-1.811,-0.052,0.897,-0.378,-1.007,-1.587,0.732,73.333,230532.000,1.000
3.551,2.476,7.835,-0.596,-2.974,-7.503,-6.741,-0.590,-0.053,0.896,-0.375,-0.946,-1.526,0.854,73.333,230533.000,1.000
5.717,3.499,10.497,0.939,-0.198,-3.272,-2.764,1.952,-0.051,0.895,-0.376,-0.916,-1.373,0.854,73.333,230534.000,1.000
6.972,4.651,12.486,2.227,3.239,3.056,2.896,4.770,-0.051,0.898,-0.376,-0.854,-1.404,0.885,73.333,230535.000,1.000
7.057,5.179,13.039,2.610,5.775,8.227,7.488,6.340,-0.050,0.898,-0.380,-0.763,-1.373,0.946,73.333,230536.000,1.000
6.042,4.481,11.762,1.905,6.337,9.967,8.993,5.786,-0.048,0.896,-0.380,-0.824,-1.312,1.007,73.333,230537.000,1.000
4.333,2.522,9.071,0.566,4.964,8.387,7.460,3.527,-0.049,0.895,-0.377,-0.732,-1.282,0.977,73.333,230538.000,1.000
2.563,-0.031,5.975,-0.535,2.722,5.444,4.525,0.958,-0.048,0.896,-0.379,-0.793,-1.251,1.068,73.333,230539.000,1.000
1.376,-2.080,3.619,-0.544,1.047,3.351,2.062,-0.408,-0.050,0.896,-0.381,-0.793,-1.160,1.038,73.333,230540.000,1.000
0.997,-2.859,2.552,0.685,0.654,2.905,0.784,-0.073,-0.049,0.895,-0.382,-0.793,-1.251,1.007,73.333,230541.000,1.000
1.081,-2.429,2.351,2.374,1.047,3.157,-0.095,1.100,-0.051,0.894,-0.379,-0.732,-1.221,1.007,73.333,230542.000,1.000
1.083,-1.391,2.322,3.502,1.262,2.869,-1.498,1.898,-0.051,0.894,-0.377,-0.702,-1.190,1.007,73.333,230543.000,1.000
0.626,-0.410,1.946,3.480,0.724,1.682,-3.549,1.658,-0.050,0.894,-0.377,-0.732,-1.190,0.946,73.333,230544.000,1.000
-0.278,0.120,1.149,2.510,-0.431,0.025,-5.665,0.605,-0.050,0.897,-0.377,-0.580,-1.221,1.038,73.333,230545.000,1.000
-1.188,0.266,0.383,1.557,-1.413,-1.248,-6.853,-0.165,-0.051,0.899,-0.376,-0.549,-1.129,0.977,73.333,230546.000,1.000
-1.511,0.382,0.256,1.697,-1.326,-1.326,-6.439,0.420,-0.050,0.898,-0.379,-0.427,-1.099,0.885,73.333,230547.000,1.000
-0.941,0.751,1.226,3.341,0.116,0.028,-4.602,2.439,-0.052,0.899,-0.377,-0.519,-1.190,0.885,73.333,230548.000,1.000
0.315,1.373,3.126,5.977,2.418,2.435,-2.129,5.010,-0.053,0.898,-0.376,-0.488,-1.221,0.854,73.333,230549.000,1.000
1.640,1.936,5.155,8.486,4.560,4.980,0.003,6.881,-0.054,0.897,-0.373,-0.580,-1.190,0.793,73.333,230550.000,1.000
2.308,1.851,6.189,9.612,5.346,6.228,0.662,6.873,-0.055,0.897,-0.374,-0.580,-1.190,0.641,73.333,230551.000,1.000
1.873,0.631,5.302,8.563,4.045,5.099,-0.853,4.481,-0.054,0.899,-0.376,-0.580,-1.221,0.519,73.333,230552.000,1.000
0.493,-1.601,2.576,5.548,1.026,2.047,-3.819,0.422,-0.053,0.901,-0.381,-0.641,-1.343,0.427,73.333,230553.000,1.000
-1.143,-4.090,-0.968,1.664,-2.435,-1.275,-6.509,-3.671,-0.051,0.904,-0.377,-0.671,-1.373,0.336,73.333,230554.000,1.000
-2.203,-5.863,-3.917,-1.696,-4.983,-3.380,-7.440,-6.117,-0.046,0.903,-0.376,-0.549,-1.343,0.458,73.333,230555.000,1.000
-2.161,-6.215,-5.135,-3.484,-5.854,-3.604,-6.032,-6.045,-0.042,0.900,-0.377,-0.763,-1.373,0.641,73.333,230556.000,1.000
-1.088,-5.048,-4.371,-3.449,-5.039,-1.935,-2.585,-3.682,-0.041,0.897,-0.378,-0.732,-1.221,0.641,73.333,230557.000,1.000
0.396,-2.897,-2.092,-2.108,-3.062,1.112,2.108,0.085,-0.041,0.892,-0.379,-0.793,-0.977,0.732,73.333,230558.000,1.000
1.435,-0.687,0.740,-0.465,-0.812,4.276,6.690,3.919,-0.040,0.890,-0.382,-0.793,-0.763,0.977,73.333,230559.000,1.000
1.345,0.601,3.012,0.383,0.550,5.669,9.132,5.907,-0.042,0.889,-0.384,-0.610,-0.610,0.977,73.333,230560.000,1.000
-0.036,0.340,3.927,-0.258,0.072,3.772,7.594,4.308,-0.044,0.891,-0.384,-0.519,-0.519,1.007,73.333,230561.000,1.000
-2.199,-1.342,3.353,-2.207,-2.245,-1.261,1.933,-0.921,-0.044,0.893,-0.386,-0.366,-0.458,1.068,73.333,230562.000,1.000
-4.229,-3.544,1.996,-4.334,-5.197,-7.237,-5.531,-7.458,-0.046,0.896,-0.385,-0.122,-0.397,1.129,73.333,230563.000,1.000
-5.424,-5.146,0.783,-5.206,-7.065,-11.100,-11.179,-11.827,-0.047,0.899,-0.382,-0.061,-0.366,1.099,73.333,230564.000,1.000
-5.741,-5.484,0.273,-4.034,-6.799,-10.911,-12.425,-11.695,-0.048,0.900,-0.380,-0.061,-0.397,1.251,73.333,230565.000,1.000
-5.747,-4.608,0.410,-1.287,-4.717,-7.001,-9.295,-7.495,-0.048,0.899,-0.379,-0.244,-0.275,1.312,73.333,230566.000,1.000
-6.110,-2.985,0.647,1.641,-2.034,-1.373,-3.991,-1.896,-0.050,0.897,-0.379,-0.275,-0.305,1.312,73.333,230567.000,1.000
-7.007,-1.007,0.645,3.447,0.141,3.763,0.873,2.224,-0.055,0.898,-0.380,-0.305,-0.244,1.007,73.333,230568.000,1.000
-7.988,1.199,0.522,3.660,1.441,7.157,3.667,3.490,-0.058,0.900,-0.380,-0.275,-0.397,0.885,73.333,230569.000,1.000
-8.313,3.705,0.813,2.865,2.445,9.008,4.681,2.866,-0.059,0.903,-0.379,-0.366,-0.519,0.671,73.333,230570.000,1.000
-7.534,6.436,2.002,2.214,4.137,10.369,5.696,2.788,-0.060,0.904,-0.377,-0.427,-0.580,0.549,73.333,230571.000,1.000
-5.923,8.767,3.736,2.348,6.656,11.658,7.665,4.528,-0.059,0.904,-0.379,-0.641,-0.732,0.336,73.333,230572.000,1.000
-4.257,9.708,4.971,2.886,8.773,11.997,9.346,6.694,-0.057,0.906,-0.378,-0.702,-0.824,0.092,73.333,230573.000,1.000
-3.155,8.682,4.732,3.003,9.005,10.357,8.757,6.900,-0.053,0.906,-0.377,-0.946,-1.038,0.061,73.333,230574.000,1.000
-2.629,6.117,3.010,2.420,7.124,7.140,5.660,4.485,-0.052,0.906,-0.380,-1.068,-1.129,0.031,73.333,230575.000,1.000
-2.246,3.243,0.827,1.661,4.424,4.191,2.054,1.195,-0.050,0.905,-0.382,-1.251,-1.160,-0.061,73.333,230576.000,1.000
-1.617,1.293,-0.645,1.446,2.672,3.145,0.386,-0.410,-0.048,0.903,-0.381,-1.251,-1.129,-0.031,73.333,230577.000,1.000
-0.701,0.713,-0.767,1.964,2.772,3.918,1.543,0.978,-0.045,0.902,-0.379,-1.434,-1.038,-0.061,73.333,230578.000,1.000
0.187,0.902,0.024,2.545,4.115,4.727,4.079,4.321,-0.045,0.902,-0.379,-1.404,-1.038,0.000,73.333,230579.000,1.000
0.579,0.726,0.527,2.160,5.141,3.656,5.533,7.107,-0.043,0.901,-0.382,-1.404,-0.946,0.092,73.333,230580.000,1.000
0.214,-0.486,-0.131,0.424,4.819,0.531,4.870,7.710,-0.043,0.901,-0.380,-1.404,-0.854,0.183,73.333,230581.000,1.000
-0.653,-2.278,-1.750,-1.874,3.683,-2.674,3.523,6.937,-0.045,0.902,-0.380,-1.373,-0.732,0.214,73.333,230582.000,1.000
-1.323,-3.460,-3.166,-3.343,3.220,-3.612,3.870,7.003,-0.047,0.902,-0.382,-1.404,-0.671,0.397,73.333,230583.000,1.000
-1.230,-3.194,-3.465,-3.192,4.265,-1.677,6.628,8.906,-0.049,0.902,-0.380,-1.526,-0.641,0.427,73.333,230584.000,1.000
-0.435,-1.577,-2.679,-1.746,6.277,1.778,10.184,11.361,-0.051,0.899,-0.375,-1.648,-0.610,0.549,73.333,230585.000,1.000
0.475,0.696,-1.386,0.144,8.126,4.908,12.368,12.417,-0.056,0.899,-0.377,-1.648,-0.671,0.549,73.333,230586.000,1.000
0.899,2.924,-0.152,1.902,9.143,6.701,12.314,11.409,-0.055,0.900,-0.375,-1.709,-0.610,0.519,73.333,230587.000,1.000
0.580,4.623,0.806,3.416,9.321,7.189,10.764,9.220,-0.055,0.899,-0.377,-1.709,-0.763,0.458,73.333,230588.000,1.000
-0.286,5.593,1.436,4.732,8.989,6.984,9.102,7.320,-0.056,0.899,-0.375,-1.801,-0.793,0.519,73.333,230589.000,1.000
-1.047,6.053,1.943,5.963,8.615,6.811,8.456,6.920,-0.057,0.899,-0.373,-1.984,-0.946,0.519,73.333,230590.000,1.000
-1.046,6.400,2.596,7.088,8.448,7.022,8.954,8.120,-0.058,0.898,-0.376,-2.045,-1.038,0.488,73.333,230591.000,1.000
-0.329,6.689,3.102,7.618,8.097,7.298,9.357,9.421,-0.058,0.898,-0.376,-2.136,-1.221,0.427,73.333,230592.000,1.000
0.368,6.664,2.912,6.964,6.911,7.089,8.188,8.925,-0.056,0.896,-0.374,-2.258,-1.312,0.366,73.333,230593.000,1.000
0.428,6.262,1.890,5.219,4.869,6.191,5.195,6.284,-0.055,0.897,-0.375,-2.167,-1.373,0.336,73.333,230594.000,1.000
-0.075,5.755,0.503,3.202,2.670,4.660,1.375,2.867,-0.055,0.895,-0.374,-2.136,-1.434,0.397,73.333,230595.000,1.000
-0.618,5.331,-0.724,1.624,0.903,2.462,-2.277,0.006,-0.055,0.896,-0.373,-2.136,-1.465,0.458,73.333,230596.000,1.000
-0.687,4.901,-1.651,0.705,-0.291,-0.324,-5.357,-1.832,-0.054,0.895,-0.374,-2.228,-1.587,0.519,73.333,230597.000,1.000
0.013,4.393,-2.108,0.504,-0.838,-3.032,-7.474,-2.459,-0.054,0.893,-0.373,-2.075,-1.617,0.488,73.333,230598.000,1.000
1.395,3.840,-2.009,0.846,-0.825,-4.792,-8.453,-2.179,-0.053,0.893,-0.376,-2.136,-1.617,0.519,73.333,230599.000,1.000
3.052,3.269,-1.551,1.227,-0.684,-5.309,-8.665,-1.881,-0.054,0.896,-0.376,-2.045,-1.617,0.671,73.333,230600.000,1.000
4.563,2.689,-1.000,1.164,-0.811,-4.922,-8.428,-2.043,-0.054,0.897,-0.377,-1.831,-1.709,0.671,73.333,230601.000,1.000
5.633,2.018,-0.673,0.375,-1.403,-4.278,-8.009,-2.638,-0.053,0.896,-0.376,-1.862,-1.678,0.763,73.333,230602.000,1.000
6.115,1.159,-0.763,-1.200,-2.522,-3.860,-7.834,-3.730,-0.053,0.895,-0.376,-1.862,-1.862,0.732,73.333,230603.000,1.000
6.031,0.216,-1.301,-3.249,-3.875,-3.526,-7.939,-5.191,-0.055,0.896,-0.375,-1.953,-1.892,0.854,73.333,230604.000,1.000
5.526,-0.574,-2.087,-5.109,-4.847,-2.788,-7.680,-6.313,-0.052,0.897,-0.377,-1.953,-1.892,0.885,73.333,230605.000,1.000
4.813,-1.059,-2.737,-6.072,-4.875,-1.417,-6.285,-6.132,-0.050,0.900,-0.377,-1.892,-1.862,0.977,73.333,230606.000,1.000
4.107,-1.250,-2.972,-5.704,-3.794,0.430,-3.586,-4.089,-0.050,0.899,-0.378,-1.862,-1.801,1.038,73.333,230607.000,1.000
3.455,-1.392,-2.771,-4.087,-2.112,2.285,-0.338,-0.701,-0.047,0.898,-0.378,-1.892,-1.770,1.129,73.333,230608.000,1.000
2.687,-1.910,-2.574,-1.864,-0.872,3.433,2.002,2.397,-0.046,0.899,-0.378,-1.862,-1.678,1.221,73.333,230609.000,1.000
1.668,-3.083,-2.936,0.120,-0.992,3.071,2.015,3.356,-0.046,0.900,-0.375,-1.923,-1.495,1.282,73.333,230610.000,1.000
0.476,-4.812,-4.074,1.236,-2.730,0.632,-0.929,1.240,-0.046,0.899,-0.373,-1.862,-1.556,1.373,73.333,230611.000,1.000
-0.661,-6.568,-5.856,1.333,-5.451,-3.504,-6.029,-3.138,-0.044,0.898,-0.375,-1.770,-1.465,1.343,73.333,230612.000,1.000
-1.490,-7.530,-7.724,0.881,-7.745,-7.599,-10.864,-7.298,-0.045,0.899,-0.376,-1.831,-1.373,1.434,73.333,230613.000,1.000
-1.872,-7.057,-8.988,0.646,-8.227,-9.414,-12.778,-8.667,-0.047,0.899,-0.376,-1.831,-1.282,1.434,73.333,230614.000,1.000
-1.933,-5.268,-9.266,1.020,-6.625,-7.873,-10.912,-6.552,-0.047,0.901,-0.373,-1.862,-1.251,1.373,73.333,230615.000,1.000
-2.102,-3.164,-8.803,1.562,-4.170,-4.071,-7.027,-2.780,-0.047,0.900,-0.372,-1.740,-1.160,1.312,73.333,230616.000,1.000
-2.713,-1.925,-8.300,1.422,-2.651,-0.532,-4.240,-0.200,-0.047,0.902,-0.376,-1.892,-1.068,1.343,73.333,230617.000,1.000
-3.530,-1.996,-8.050,0.292,-2.937,0.732,-4.486,-0.315,-0.048,0.903,-0.374,-2.014,-1.007,1.251,73.333,230618.000,1.000
-3.822,-2.856,-7.760,-1.311,-4.439,-0.372,-7.265,-2.511,-0.048,0.904,-0.375,-2.014,-0.977,1.282,73.333,230619.000,1.000
-2.857,-3.407,-6.784,-2.445,-5.661,-2.044,-10.249,-4.907,-0.047,0.904,-0.369,-2.045,-0.885,1.160,73.333,230620.000,1.000
-0.348,-2.688,-4.530,-2.325,-5.210,-1.856,-10.798,-5.572,-0.048,0.905,-0.372,-2.075,-0.824,1.099,73.333,230621.000,1.000
3.331,-0.600,-1.193,-0.820,-2.814,1.187,-7.911,-3.803,-0.050,0.905,-0.374,-2.106,-0.793,1.038,73.333,230622.000,1.000
7.243,1.863,2.187,1.411,0.308,5.353,-3.295,-0.782,-0.050,0.905,-0.372,-2.228,-0.854,0.946,73.333,230623.000,1.000
10.205,3.176,4.194,3.226,2.272,7.358,-0.214,1.327,-0.050,0.904,-0.372,-2.289,-0.763,0.885,73.333,230624.000,1.000
11.359,2.426,4.009,3.733,2.036,5.374,-0.596,1.300,-0.048,0.899,-0.370,-2.502,-0.702,0.732,73.333,230625.000,1.000
10.724,0.131,2.102,2.914,0.222,0.887,-3.253,-0.178,-0.045,0.898,-0.370,-2.441,-0.641,0.763,73.333,230626.000,1.000
9.168,-2.115,-0.183,1.520,-1.576,-2.683,-5.229,-1.467,-0.043,0.898,-0.376,-2.350,-0.549,0.671,73.333,230627.000,1.000
7.667,-2.935,-1.514,0.340,-2.309,-3.106,-4.672,-1.741,-0.044,0.897,-0.377,-2.167,-0.458,0.641,73.333,230628.000,1.000
6.597,-2.115,-1.459,-0.403,-2.166,-0.806,-2.218,-1.574,-0.043,0.900,-0.377,-2.014,-0.458,0.671,73.333,230629.000,1.000
5.734,-0.498,-0.548,-0.928,-1.931,2.224,0.236,-1.791,-0.043,0.903,-0.376,-1.984,-0.397,0.671,73.333,230630.000,1.000
4.711,0.639,0.224,-1.551,-2.244,3.951,1.139,-2.648,-0.042,0.904,-0.371,-1.953,-0.336,0.793,73.333,230631.000,1.000
3.380,0.274,-0.101,-2.525,-3.432,3.061,-0.310,-4.286,-0.042,0.901,-0.368,-1.984,-0.214,0.885,73.333,230632.000,1.000
1.867,-1.847,-1.769,-3.877,-5.451,-0.570,-4.072,-6.992,-0.045,0.897,-0.371,-1.953,-0.122,0.946,73.333,230633.000,1.000
0.420,-5.088,-4.268,-5.283,-7.774,-5.648,-9.185,-10.609,-0.044,0.894,-0.374,-2.014,-0.031,0.977,73.333,230634.000,1.000
-0.620,-8.129,-6.539,-6.005,-9.373,-9.927,-13.860,-13.952,-0.047,0.890,-0.374,-1.801,0.153,0.977,73.333,230635.000,1.000
-0.938,-9.511,-7.393,-5.209,-9.164,-11.421,-16.200,-15.308,-0.051,0.889,-0.376,-1.526,0.153,0.854,73.333,230636.000,1.000
-0.549,-8.396,-6.330,-2.608,-6.757,-9.575,-15.267,-13.619,-0.053,0.892,-0.375,-1.251,0.061,0.793,73.333,230637.000,1.000
0.128,-4.945,-3.702,1.217,-2.689,-5.208,-11.261,-8.987,-0.057,0.895,-0.373,-1.068,-0.031,0.641,73.333,230638.000,1.000
0.612,-0.096,-0.471,5.107,2.008,0.506,-5.074,-2.462,-0.058,0.898,-0.370,-1.007,-0.214,0.458,73.333,230639.000,1.000
0.685,4.858,2.348,7.949,6.207,6.499,1.857,4.237,-0.055,0.901,-0.369,-0.824,-0.397,0.305,73.333,230640.000,1.000
0.397,8.533,4.107,9.094,8.836,11.439,7.472,9.061,-0.056,0.905,-0.368,-0.946,-0.580,0.244,73.333,230641.000,1.000
-0.060,9.865,4.568,8.507,9.261,13.927,9.880,10.604,-0.055,0.905,-0.369,-1.068,-0.702,0.275,73.333,230642.000,1.000
-0.437,8.667,4.063,6.796,7.770,13.550,8.872,9.118,-0.055,0.904,-0.367,-1.129,-0.793,0.214,73.333,230643.000,1.000
-0.585,5.694,3.077,4.805,5.350,11.201,5.999,6.159,-0.054,0.903,-0.372,-1.221,-0.885,0.153,73.333,230644.000,1.000
-0.606,2.013,1.723,2.983,2.764,7.950,2.877,3.102,-0.053,0.901,-0.371,-1.190,-1.038,0.244,73.333,230645.000,1.000
-0.754,-1.635,-0.202,1.216,0.034,4.078,-0.026,0.355,-0.053,0.899,-0.371,-1.129,-1.160,0.244,73.333,230646.000,1.000
-1.042,-4.750,-2.666,-0.621,-2.873,-0.148,-2.620,-1.864,-0.053,0.898,-0.371,-1.007,-1.251,0.244,73.333,230647.000,1.000
-1.084,-6.866,-4.997,-2.279,-5.458,-3.726,-4.337,-3.129,-0.052,0.896,-0.369,-0.824,-1.221,0.183,73.333,230648.000,1.000
-0.498,-7.912,-6.576,-3.596,-7.307,-5.975,-5.210,-3.804,-0.051,0.899,-0.371,-0.793,-1.404,0.214,73.333,230649.000,1.000
0.706,-8.363,-7.360,-4.747,-8.587,-7.332,-6.318,-5.067,-0.050,0.898,-0.372,-0.671,-1.373,0.305,73.333,230650.000,1.000
2.214,-8.669,-7.519,-5.806,-9.510,-8.306,-8.184,-7.382,-0.049,0.898,-0.374,-0.610,-1.404,0.336,73.333,230651.000,1.000
3.755,-8.784,-7.120,-6.477,-9.840,-8.562,-9.851,-9.815,-0.051,0.898,-0.373,-0.549,-1.465,0.488,73.333,230652.000,1.000
5.253,-8.383,-6.029,-6.406,-9.230,-7.509,-9.835,-11.004,-0.052,0.900,-0.373,-0.427,-1.434,0.549,73.333,230653.000,1.000
6.627,-7.322,-4.299,-5.648,-7.730,-5.134,-7.572,-10.373,-0.053,0.899,-0.371,-0.488,-1.465,0.580,73.333,230654.000,1.000
7.597,-5.729,-2.281,-4.625,-5.732,-1.960,-3.707,-8.324,-0.051,0.902,-0.370,-0.488,-1.495,0.610,73.333,230655.000,1.000
7.719,-3.940,-0.426,-3.792,-3.716,1.332,0.527,-5.732,-0.051,0.903,-0.368,-0.458,-1.678,0.671,73.333,230656.000,1.000
6.580,-2.516,0.702,-3.518,-2.253,3.929,3.726,-3.702,-0.052,0.902,-0.369,-0.458,-1.678,0.732,73.333,230657.000,1.000
4.114,-2.045,0.745,-3.959,-1.904,4.988,4.827,-3.198,-0.053,0.902,-0.371,-0.366,-1.770,0.702,73.333,230658.000,1.000
0.881,-2.625,-0.177,-4.773,-2.647,4.224,3.927,-4.138,-0.053,0.901,-0.373,-0.427,-1.770,0.763,73.333,230659.000,1.000
-2.072,-3.608,-1.421,-5.158,-3.670,2.235,2.350,-5.238,-0.053,0.901,-0.370,-0.366,-1.801,0.793,73.333,230660.000,1.000
-3.829,-4.006,-2.140,-4.477,-3.977,0.140,1.509,-5.307,-0.053,0.901,-0.368,-0.366,-1.892,0.763,73.333,230661.000,1.000
-4.163,-3.144,-1.835,-2.735,-3.036,-1.014,1.917,-4.131,-0.052,0.901,-0.369,-0.397,-1.953,0.732,73.333,230662.000,1.000
-3.669,-1.143,-0.548,-0.531,-1.102,-0.985,3.116,-2.192,-0.052,0.903,-0.369,-0.427,-1.953,0.671,73.333,230663.000,1.000
-3.437,1.100,1.033,1.227,0.908,-0.430,4.147,-0.268,-0.052,0.903,-0.373,-0.519,-1.984,0.641,73.333,230664.000,1.000
-4.314,2.600,2.121,1.957,2.222,0.125,4.612,1.187,-0.052,0.902,-0.370,-0.580,-2.014,0.549,73.333,230665.000,1.000
-6.377,2.846,2.381,1.721,2.671,0.623,4.844,2.198,-0.052,0.901,-0.370,-0.671,-2.045,0.549,73.333,230666.000,1.000
-9.091,1.733,1.591,0.775,2.209,0.611,4.658,2.500,-0.050,0.901,-0.372,-0.580,-2.136,0.519,73.333,230667.000,1.000
-11.651,-0.474,-0.320,-0.647,0.769,-0.570,3.398,1.615,-0.052,0.901,-0.372,-0.549,-2.106,0.488,73.333,230668.000,1.000
-13.246,-3.052,-2.978,-2.140,-1.279,-2.594,1.220,-0.254,-0.051,0.901,-0.372,-0.580,-2.197,0.427,73.333,230669.000,1.000
-13.315,-5.053,-5.500,-3.117,-3.113,-4.090,-0.622,-2.090,-0.050,0.901,-0.370,-0.671,-2.075,0.336,73.333,230670.000,1.000
-11.725,-5.755,-6.889,-3.114,-3.918,-3.805,-0.687,-2.680,-0.051,0.900,-0.367,-0.702,-2.167,0.305,73.333,230671.000,1.000
-8.803,-4.995,-6.766,-2.187,-3.397,-1.681,1.426,-1.479,-0.051,0.900,-0.370,-0.854,-2.136,0.305,73.333,230672.000,1.000
-5.308,-3.278,-5.533,-1.046,-2.045,1.104,4.653,0.775,-0.050,0.901,-0.367,-0.793,-2.075,0.244,73.333,230673.000,1.000
-2.138,-1.454,-4.072,-0.599,-0.761,3.158,7.326,2.539,-0.051,0.900,-0.369,-0.824,-2.045,0.305,73.333,230674.000,1.000
0.184,-0.164,-3.003,-1.206,-0.102,3.820,8.464,2.791,-0.050,0.899,-0.373,-0.793,-2.075,0.305,73.333,230675.000,1.000
1.722,0.432,-2.294,-2.514,-0.015,3.196,8.134,1.606,-0.049,0.902,-0.374,-0.793,-1.984,0.275,73.333,230676.000,1.000
2.866,0.591,-1.625,-3.833,-0.054,1.881,6.998,-0.173,-0.050,0.900,-0.373,-0.702,-2.045,0.305,73.333,230677.000,1.000
3.969,0.770,-0.583,-4.465,0.396,0.708,6.054,-1.279,-0.049,0.900,-0.375,-0.732,-1.923,0.336,73.333,230678.000,1.000
5.116,1.275,0.998,-4.091,1.713,0.318,6.101,-0.726,-0.050,0.901,-0.370,-0.732,-1.862,0.305,73.333,230679.000,1.000
6.072,1.951,2.762,-3.030,3.584,0.695,6.976,1.230,-0.051,0.900,-0.371,-0.793,-1.862,0.214,73.333,230680.000,1.000
6.501,2.305,4.002,-1.977,5.130,1.231,7.633,3.177,-0.052,0.897,-0.373,-0.732,-1.892,0.336,73.333,230681.000,1.000
6.314,2.110,4.122,-1.387,5.677,1.482,7.180,3.857,-0.053,0.897,-0.374,-0.732,-1.953,0.336,73.333,230682.000,1.000
5.835,1.770,3.327,-1.196,5.222,1.635,5.776,3.077,-0.052,0.899,-0.372,-0.763,-1.984,0.336,73.333,230683.000,1.000
5.532,1.958,2.491,-1.146,4.141,1.968,4.237,1.410,-0.053,0.898,-0.371,-0.885,-1.984,0.305,73.333,230684.000,1.000
5.564,3.019,2.438,-1.107,2.824,2.271,3.177,-0.343,-0.052,0.897,-0.374,-0.793,-1.892,0.305,73.333,230685.000,1.000
5.620,4.716,3.311,-1.080,1.650,2.158,2.784,-1.378,-0.053,0.898,-0.375,-0.732,-1.862,0.275,73.333,230686.000,1.000
5.307,6.457,4.546,-1.016,1.051,1.706,3.039,-1.189,-0.052,0.899,-0.375,-0.580,-1.923,0.305,73.333,230687.000,1.000
4.680,7.694,5.744,-0.662,1.340,1.437,3.906,0.138,-0.054,0.897,-0.372,-0.671,-2.014,0.305,73.333,230688.000,1.000
4.178,8.076,6.883,0.186,2.371,1.626,5.052,1.871,-0.054,0.898,-0.371,-0.671,-2.014,0.244,73.333,230689.000,1.000
4.090,7.411,7.838,1.379,3.543,1.937,5.815,3.051,-0.054,0.900,-0.373,-0.610,-2.045,0.366,73.333,230690.000,1.000
4.345,5.780,8.254,2.557,4.303,1.944,5.820,3.186,-0.053,0.902,-0.372,-0.580,-2.014,0.336,73.333,230691.000,1.000
4.799,3.804,7.886,3.564,4.752,1.982,5.577,2.782,-0.055,0.903,-0.374,-0.519,-2.106,0.397,73.333,230692.000,1.000
5.492,2.495,7.175,4.617,5.651,3.107,6.338,3.145,-0.054,0.903,-0.373,-0.610,-2.014,0.397,73.333,230693.000,1.000
6.478,2.446,6.844,5.889,7.472,5.709,8.617,5.076,-0.053,0.903,-0.371,-0.732,-2.075,0.366,73.333,230694.000,1.000
7.537,3.169,7.034,7.038,9.450,8.277,10.896,7.668,-0.054,0.903,-0.372,-0.763,-1.984,0.458,73.333,230695.000,1.000
8.137,3.409,7.043,7.290,9.946,8.252,10.578,8.834,-0.055,0.904,-0.375,-0.854,-2.045,0.488,73.333,230696.000,1.000
7.744,2.215,5.823,6.032,7.951,4.410,6.375,7.183,-0.053,0.904,-0.369,-0.946,-2.014,0.488,73.333,230697.000,1.000
6.256,-0.293,3.114,3.388,4.073,-1.972,-0.319,3.336,-0.051,0.905,-0.370,-0.946,-2.014,0.519,73.333,230698.000,1.000
4.084,-3.174,-0.356,0.133,-0.030,-8.378,-6.562,-0.774,-0.050,0.904,-0.373,-0.977,-1.892,0.702,73.333,230699.000,1.000
1.903,-5.383,-3.489,-2.875,-2.939,-12.799,-10.005,-3.631,-0.051,0.905,-0.372,-1.160,-1.831,0.641,73.333,230700.000,1.000
0.323,-6.227,-5.398,-5.069,-4.091,-14.253,-9.837,-4.766,-0.052,0.903,-0.369,-1.221,-1.892,0.580,73.333,230701.000,1.000
-0.383,-5.560,-5.901,-6.202,-3.654,-12.695,-6.615,-4.221,-0.052,0.903,-0.372,-1.160,-1.740,0.610,73.333,230702.000,1.000
-0.480,-3.947,-5.511,-6.355,-2.402,-9.270,-2.036,-2.490,-0.051,0.904,-0.375,-1.221,-1.740,0.641,73.333,230703.000,1.000
-0.624,-2.451,-5.212,-6.009,-1.526,-6.126,1.335,-0.953,-0.051,0.903,-0.372,-1.251,-1.678,0.671,73.333,230704.000,1.000
-1.311,-1.802,-5.634,-5.619,-1.804,-4.917,1.660,-1.004,-0.052,0.903,-0.370,-1.312,-1.770,0.732,73.333,230705.000,1.000
-2.477,-1.816,-6.393,-5.110,-2.840,-5.372,-0.441,-2.540,-0.053,0.904,-0.370,-1.251,-1.740,0.793,73.333,230706.000,1.000
-3.741,-1.802,-6.734,-4.110,-3.519,-5.851,-2.636,-4.186,-0.052,0.905,-0.371,-1.282,-1.648,0.793,73.333,230707.000,1.000
-4.892,-1.362,-6.342,-2.554,-3.210,-5.357,-3.307,-4.820,-0.052,0.904,-0.371,-1.190,-1.678,0.824,73.333,230708.000,1.000
-5.969,-0.626,-5.600,-0.847,-2.183,-4.526,-2.738,-4.175,-0.051,0.901,-0.373,-1.312,-1.556,0.824,73.333,230709.000,1.000
-6.895,0.215,-4.932,0.607,-0.855,-4.326,-1.816,-2.162,-0.052,0.902,-0.374,-1.251,-1.434,0.854,73.333,230710.000,1.000
-7.356,1.135,-4.299,1.632,0.638,-4.730,-0.740,1.099,-0.051,0.900,-0.377,-1.282,-1.434,0.885,73.333,230711.000,1.000
-7.147,1.979,-3.704,2.007,1.962,-5.258,0.348,4.466,-0.050,0.899,-0.373,-1.312,-1.373,0.916,73.333,230712.000,1.000
-6.371,2.438,-3.329,1.536,2.534,-5.708,0.992,6.232,-0.050,0.899,-0.372,-1.282,-1.343,0.885,73.333,230713.000,1.000
-5.228,2.448,-3.305,0.364,2.092,-6.031,1.007,5.532,-0.050,0.898,-0.368,-1.190,-1.221,0.824,73.333,230714.000,1.000
-3.787,2.364,-3.453,-1.001,0.973,-6.296,0.761,2.958,-0.050,0.899,-0.371,-1.129,-1.068,0.854,73.333,230715.000,1.000
-2.010,2.654,-3.289,-2.020,-0.192,-6.995,0.774,-0.040,-0.049,0.899,-0.374,-1.038,-1.068,0.854,73.333,230716.000,1.000
0.008,3.431,-2.585,-2.512,-1.035,-9.201,0.984,-2.431,-0.050,0.899,-0.376,-1.038,-0.946,0.885,73.333,230717.000,1.000
1.914,4.293,-1.538,-2.656,-1.603,-13.827,0.893,-4.032,-0.048,0.899,-0.374,-0.946,-0.916,0.854,73.333,230718.000,1.000
3.256,4.670,-0.642,-2.695,-1.995,-20.287,0.414,-4.849,-0.049,0.902,-0.374,-0.885,-0.824,0.793,73.333,230719.000,1.000
3.737,4.290,-0.366,-2.735,-2.191,-26.576,0.031,-4.822,-0.051,0.900,-0.374,-0.824,-0.763,0.793,73.333,230720.000,1.000
3.315,3.306,-0.799,-2.761,-2.210,-30.966,0.206,-4.121,-0.050,0.902,-0.371,-0.854,-0.641,0.824,73.333,230721.000,1.000
2.198,2.158,-1.668,-2.693,-2.047,-33.070,1.152,-2.999,-0.049,0.902,-0.374,-0.732,-0.549,0.793,73.333,230722.000,1.000
0.778,1.374,-2.360,-2.392,-1.485,-33.483,3.123,-1.388,-0.049,0.901,-0.372,-0.671,-0.641,0.793,73.333,230723.000,1.000
-0.529,1.279,-2.400,-1.746,-0.253,-33.111,6.194,0.942,-0.051,0.902,-0.372,-0.763,-0.488,0.824,73.333,230724.000,1.000
-1.422,1.814,-1.789,-0.758,1.621,-32.727,9.807,3.893,-0.051,0.902,-0.373,-0.793,-0.366,0.763,73.333,230725.000,1.000
-1.828,2.452,-0.924,0.306,3.516,-32.895,12.626,6.629,-0.052,0.903,-0.369,-0.732,-0.397,0.763,73.333,230726.000,1.000
-1.916,2.408,-0.476,0.870,4.353,-34.005,12.899,7.628,-0.055,0.900,-0.371,-0.641,-0.458,0.732,73.333,230727.000,1.000
-1.844,1.355,-0.739,0.514,3.552,-35.778,10.015,5.918,-0.056,0.899,-0.372,-0.549,-0.366,0.732,73.333,230728.000,1.000
-1.558,-0.203,-1.414,-0.486,1.756,-37.252,5.422,2.311,-0.053,0.898,-0.373,-0.549,-0.366,0.702,73.333,230729.000,1.000
-0.987,-1.551,-2.010,-1.341,0.153,-38.060,1.193,-1.207,-0.054,0.897,-0.374,-0.580,-0.305,0.702,73.333,230730.000,1.000
-0.378,-2.499,-2.223,-1.525,-0.754,-38.859,-1.813,-3.343,-0.054,0.897,-0.373,-0.397,-0.336,0.732,73.333,230731.000,1.000
-0.220,-3.238,-2.131,-1.160,-1.290,-39.999,-4.015,-4.278,-0.055,0.896,-0.372,-0.305,-0.549,0.732,73.333,230732.000,1.000
-0.693,-3.659,-1.776,-0.540,-1.681,-40.333,-5.610,-4.507,-0.055,0.896,-0.371,-0.183,-0.519,0.732,73.333,230733.000,1.000
-1.369,-3.089,-0.986,0.426,-1.336,-37.586,-5.575,-3.600,-0.055,0.896,-0.370,-0.153,-0.549,0.702,73.333,230734.000,1.000
-1.553,-0.773,0.501,2.135,0.757,-29.974,-2.323,-0.518,-0.058,0.898,-0.370,-0.153,-0.610,0.824,73.333,230735.000,1.000
-0.911,3.284,2.773,4.701,4.849,-18.028,4.427,4.847,-0.057,0.901,-0.372,-0.153,-0.641,0.793,73.333,230736.000,1.000
0.236,7.902,5.285,7.415,9.610,-5.181,12.207,10.537,-0.056,0.900,-0.371,-0.092,-0.671,0.854,73.333,230737.000,1.000
1.249,11.327,7.182,9.099,12.821,3.976,17.123,13.686,-0.056,0.902,-0.370,-0.122,-0.641,0.824,73.333,230738.000,1.000
1.748,12.431,7.920,9.072,13.175,7.041,17.127,13.002,-0.052,0.900,-0.370,-0.092,-0.732,0.854,73.333,230739.000,1.000
1.836,11.407,7.623,7.574,11.225,5.690,13.646,9.597,-0.054,0.901,-0.373,0.031,-0.702,1.038,73.333,230740.000,1.000
1.856,9.306,6.913,5.319,8.561,3.941,9.853,5.662,-0.054,0.902,-0.370,0.000,-0.824,1.007,73.333,230741.000,1.000
2.000,7.029,6.211,2.963,6.412,4.592,7.733,2.965,-0.054,0.900,-0.365,-0.031,-0.824,1.068,73.333,230742.000,1.000
2.170,4.871,5.616,0.966,5.054,7.655,7.187,2.301,-0.052,0.900,-0.367,0.000,-0.854,1.129,73.333,230743.000,1.000
2.142,2.750,4.999,-0.458,4.056,11.521,7.003,3.295,-0.052,0.898,-0.371,-0.061,-0.916,1.251,73.333,230744.000,1.000
1.813,0.566,4.190,-1.403,2.739,14.631,5.957,4.468,-0.052,0.900,-0.370,-0.061,-0.916,1.373,73.333,230745.000,1.000
1.339,-1.558,3.324,-2.038,0.759,16.381,3.642,4.323,-0.052,0.903,-0.371,-0.153,-0.885,1.343,73.333,230746.000,1.000
1.126,-3.153,2.811,-2.289,-1.415,17.285,0.753,2.683,-0.051,0.900,-0.373,-0.122,-0.854,1.404,73.333,230747.000,1.000
1.545,-3.611,3.162,-1.861,-2.786,18.391,-1.444,0.627,-0.053,0.901,-0.374,-0.153,-0.946,1.465,73.333,230748.000,1.000
2.574,-2.621,4.556,-0.546,-2.581,20.537,-2.031,-0.561,-0.052,0.901,-0.369,-0.275,-1.038,1.465,73.333,230749.000,1.000
3.762,-0.361,6.740,1.645,-0.591,24.152,-0.649,0.092,-0.052,0.903,-0.371,-0.244,-0.946,1.495,73.333,230750.000,1.000
4.554,2.532,9.217,4.467,2.861,29.224,2.737,3.118,-0.052,0.902,-0.370,-0.214,-0.977,1.465,73.333,230751.000,1.000
4.608,5.135,11.167,7.364,6.898,35.130,7.466,8.036,-0.051,0.900,-0.372,-0.275,-1.007,1.495,73.333,230752.000,1.000
3.924,6.651,11.858,9.546,10.211,40.723,11.967,13.049,-0.050,0.900,-0.371,-0.214,-1.038,1.465,73.333,230753.000,1.000
2.709,6.736,10.927,10.186,11.498,44.734,14.244,15.689,-0.050,0.901,-0.369,-0.214,-0.977,1.373,73.333,230754.000,1.000
1.182,5.466,8.419,8.747,10.010,46.152,12.816,14.184,-0.051,0.900,-0.372,-0.336,-1.038,1.343,73.333,230755.000,1.000
-0.379,3.306,4.988,5.534,6.144,44.838,7.990,8.944,-0.051,0.902,-0.374,-0.275,-1.068,1.312,73.333,230756.000,1.000
-1.511,1.155,1.772,1.941,1.630,42.124,2.343,2.871,-0.051,0.902,-0.372,-0.366,-1.038,1.160,73.333,230757.000,1.000
-1.838,-0.160,-0.164,-0.418,-1.587,39.861,-1.088,-0.772,-0.051,0.901,-0.373,-0.427,-1.068,1.129,73.333,230758.000,1.000
-1.519,-0.581,-0.756,-1.059,-2.864,38.609,-1.500,-1.063,-0.051,0.901,-0.371,-0.427,-1.038,1.129,73.333,230759.000,1.000
-1.110,-0.526,-0.794,-0.697,-2.746,37.819,-0.121,0.784,-0.050,0.901,-0.372,-0.397,-1.068,1.007,73.333,230760.000,1.000
-1.013,-0.126,-0.828,-0.243,-1.814,37.451,1.992,3.467,-0.051,0.901,-0.376,-0.427,-0.977,0.977,73.333,230761.000,1.000
-1.284,0.760,-0.941,-0.254,-0.398,38.197,4.453,6.229,-0.051,0.902,-0.375,-0.488,-0.916,1.038,73.333,230762.000,1.000
-1.718,2.048,-0.963,-0.891,1.110,40.404,6.893,8.479,-0.050,0.902,-0.374,-0.519,-0.946,0.916,73.333,230763.000,1.000
-1.979,3.345,-0.859,-1.937,2.279,43.456,8.698,9.789,-0.051,0.901,-0.372,-0.549,-1.038,0.916,73.333,230764.000,1.000
-1.860,4.199,-0.878,-3.019,2.794,46.029,9.076,9.883,-0.049,0.899,-0.377,-0.549,-1.099,0.946,73.333,230765.000,1.000
-1.484,4.298,-1.246,-3.884,2.502,46.856,7.440,8.498,-0.048,0.901,-0.373,-0.519,-1.038,0.854,73.333,230766.000,1.000
-1.174,3.598,-1.945,-4.385,1.551,45.658,4.039,5.716,-0.048,0.900,-0.374,-0.427,-1.007,0.763,73.333,230767.000,1.000
-1.130,2.310,-2.557,-4.291,0.453,43.368,0.257,2.486,-0.050,0.900,-0.372,-0.427,-1.038,0.793,73.333,230768.000,1.000
-1.289,0.682,-2.632,-3.364,-0.219,41.234,-2.323,0.262,-0.049,0.901,-0.372,-0.519,-1.038,0.824,73.333,230769.000,1.000
-1.369,-1.064,-1.945,-1.551,-0.135,39.942,-3.020,0.045,-0.049,0.900,-0.370,-0.519,-0.946,0.885,73.333,230770.000,1.000
-1.060,-2.643,-0.377,0.987,0.794,39.581,-1.996,1.928,-0.049,0.903,-0.372,-0.458,-0.946,0.854,73.333,230771.000,1.000
-0.326,-3.820,1.821,3.814,2.410,39.787,0.162,5.203,-0.049,0.902,-0.373,-0.610,-0.885,0.854,73.333,230772.000,1.000
0.350,-4.703,3.882,6.153,4.101,39.729,2.532,8.490,-0.050,0.904,-0.373,-0.641,-0.885,0.793,73.333,230773.000,1.000
0.161,-5.722,4.677,7.071,4.885,38.399,3.818,10.106,-0.052,0.904,-0.372,-0.763,-0.854,0.763,73.333,230774.000,1.000
-1.351,-7.073,3.466,6.117,4.067,35.274,2.952,9.081,-0.052,0.905,-0.372,-0.793,-0.916,0.763,73.333,230775.000,1.000
-3.832,-8.288,0.663,3.745,1.814,30.827,-0.024,5.826,-0.053,0.904,-0.372,-0.793,-0.885,0.793,73.333,230776.000,1.000
-6.419,-8.515,-2.588,0.957,-0.959,26.339,-3.997,1.644,-0.051,0.904,-0.372,-0.946,-1.038,0.763,73.333,230777.000,1.000
-8.345,-7.162,-5.025,-1.237,-3.066,23.267,-7.336,-1.967,-0.052,0.903,-0.373,-0.946,-1.099,0.793,73.333,230778.000,1.000
-9.236,-4.204,-5.740,-2.090,-3.452,22.652,-8.487,-3.614,-0.053,0.904,-0.374,-1.068,-1.160,0.885,73.333,230779.000,1.000
-9.095,-0.209,-4.474,-1.383,-1.717,24.442,-6.799,-2.562,-0.055,0.902,-0.374,-1.129,-1.160,0.763,73.333,230780.000,1.000
-8.320,3.676,-1.828,0.156,1.241,27.015,-3.473,0.220,-0.054,0.903,-0.373,-1.068,-1.221,0.732,73.333,230781.000,1.000
-7.559,6.176,0.773,1.131,3.562,28.146,-1.115,2.250,-0.053,0.903,-0.371,-1.099,-1.282,0.702,73.333,230782.000,1.000
-7.126,6.836,2.240,0.778,4.018,27.036,-1.264,1.856,-0.053,0.903,-0.370,-1.099,-1.282,0.641,73.333,230783.000,1.000
-6.718,6.292,2.563,-0.292,2.976,24.852,-3.074,-0.310,-0.052,0.903,-0.369,-1.129,-1.343,0.671,73.333,230784.000,1.000
-5.841,5.464,2.385,-0.838,1.653,23.032,-4.731,-2.374,-0.053,0.900,-0.369,-1.129,-1.282,0.732,73.333,230785.000,1.000
-4.357,4.773,2.271,-0.163,0.895,21.752,-5.272,-3.080,-0.052,0.898,-0.371,-1.312,-1.434,0.702,73.333,230786.000,1.000
-2.597,4.159,2.209,1.421,0.767,20.266,-4.997,-2.478,-0.050,0.901,-0.370,-1.160,-1.404,0.702,73.333,230787.000,1.000
-1.136,3.446,1.952,3.007,0.886,17.962,-4.628,-1.308,-0.051,0.900,-0.373,-1.221,-1.312,0.671,73.333,230788.000,1.000
-0.522,2.439,1.317,3.766,0.797,14.750,-4.648,-0.340,-0.050,0.899,-0.372,-1.068,-1.434,0.702,73.333,230789.000,1.000
-0.977,0.946,0.271,3.407,0.196,11.096,-5.149,-0.183,-0.050,0.899,-0.374,-0.946,-1.465,0.671,73.333,230790.000,1.000
-2.137,-0.997,-0.903,2.341,-0.869,7.898,-5.746,-0.975,-0.048,0.898,-0.373,-1.038,-1.434,0.702,73.333,230791.000,1.000
-3.117,-3.042,-1.788,1.406,-1.984,5.757,-5.974,-2.113,-0.048,0.899,-0.373,-0.977,-1.343,0.671,73.333,230792.000,1.000
-2.988,-4.790,-1.947,1.274,-2.748,4.216,-5.851,-2.675,-0.048,0.900,-0.375,-0.946,-1.343,0.732,73.333,230793.000,1.000
-1.407,-6.115,-1.236,1.938,-3.165,2.221,-5.976,-2.356,-0.049,0.899,-0.375,-0.946,-1.465,0.763,73.333,230794.000,1.000
1.128,-7.199,-0.037,2.725,-3.621,-0.731,-6.990,-1.833,-0.048,0.898,-0.375,-0.885,-1.465,0.824,73.333,230795.000,1.000
3.678,-8.297,1.051,2.865,-4.469,-4.238,-8.937,-2.080,-0.049,0.899,-0.376,-0.824,-1.495,0.885,73.333,230796.000,1.000
5.512,-9.430,1.540,2.046,-5.626,-7.440,-11.199,-3.479,-0.051,0.900,-0.373,-0.671,-1.465,0.854,73.333,230797.000,1.000
6.420,-10.226,1.470,0.577,-6.571,-9.463,-12.772,-5.578,-0.050,0.899,-0.373,-0.702,-1.282,0.702,73.333,230798.000,1.000
6.591,-10.066,1.330,-0.844,-6.663,-9.728,-12.783,-7.405,-0.051,0.899,-0.372,-0.641,-1.312,0.763,73.333,230799.000,1.000
6.359,-8.407,1.683,-1.471,-5.497,-8.275,-10.939,-7.877,-0.052,0.899,-0.368,-0.671,-1.282,0.763,73.333,230800.000,1.000
6.039,-5.114,2.931,-0.859,-3.141,-5.907,-7.701,-6.385,-0.052,0.904,-0.368,-0.702,-1.221,0.824,73.333,230801.000,1.000
5.846,-0.583,4.956,0.863,-0.154,-3.836,-4.235,-3.346,-0.052,0.901,-0.370,-0.641,-1.251,0.793,73.333,230802.000,1.000
5.784,4.311,7.178,2.953,2.567,-3.032,-1.847,-0.119,-0.054,0.902,-0.369,-0.549,-1.221,0.854,73.333,230803.000,1.000
5.539,8.390,8.710,4.260,4.045,-3.766,-1.344,1.632,-0.053,0.902,-0.373,-0.519,-1.282,0.854,73.333,230804.000,1.000
4.704,10.630,8.803,3.887,3.694,-5.555,-2.636,0.908,-0.053,0.903,-0.372,-0.488,-1.251,0.763,73.333,230805.000,1.000
3.229,10.723,7.558,1.921,1.838,-7.539,-4.661,-1.728,-0.052,0.904,-0.370,-0.549,-1.282,0.763,73.333,230806.000,1.000
1.543,9.216,5.800,-0.596,-0.377,-8.932,-6.015,-4.377,-0.053,0.904,-0.371,-0.580,-1.282,0.793,73.333,230807.000,1.000
0.245,7.067,4.436,-2.551,-1.809,-9.333,-5.871,-5.354,-0.052,0.905,-0.374,-0.732,-1.343,0.763,73.333,230808.000,1.000
-0.290,5.041,3.727,-3.601,-2.143,-9.022,-4.685,-4.664,-0.051,0.905,-0.370,-0.824,-1.251,0.824,73.333,230809.000,1.000
0.018,3.522,3.345,-4.017,-1.813,-8.789,-3.710,-3.610,-0.051,0.905,-0.371,-0.763,-1.343,0.763,73.333,230810.000,1.000
1.057,2.637,3.085,-3.949,-1.298,-9.194,-3.600,-3.104,-0.051,0.902,-0.370,-0.793,-1.343,0.732,73.333,230811.000,1.000
2.549,2.331,2.957,-3.212,-0.699,-10.006,-3.808,-2.899,-0.051,0.900,-0.373,-0.916,-1.343,0.671,73.333,230812.000,1.000
4.042,2.347,3.057,-1.665,0.085,-10.311,-3.095,-2.298,-0.051,0.899,-0.373,-0.854,-1.251,0.763,73.333,230813.000,1.000
4.980,2.232,3.275,0.377,0.993,-9.292,-0.721,-1.190,-0.052,0.900,-0.375,-0.916,-1.251,0.793,73.333,230814.000,1.000
4.888,1.440,3.208,2.197,1.657,-7.229,2.717,-0.167,-0.051,0.900,-0.374,-0.854,-1.251,0.854,73.333,230815.000,1.000
3.551,-0.494,2.467,3.101,1.524,-5.731,5.523,0.048,-0.051,0.900,-0.372,-0.793,-1.251,0.977,73.333,230816.000,1.000
1.109,-3.716,0.753,2.790,0.148,-6.657,5.825,-0.924,-0.052,0.900,-0.375,-0.732,-1.343,0.885,73.333,230817.000,1.000
-1.955,-7.852,-1.820,1.469,-2.471,-10.666,2.829,-2.902,-0.052,0.897,-0.374,-0.732,-1.373,0.916,73.333,230818.000,1.000
-4.938,-12.072,-4.679,-0.355,-5.825,-16.709,-2.648,-5.346,-0.049,0.896,-0.371,-0.671,-1.251,0.885,73.333,230819.000,1.000
-7.055,-15.383,-7.033,-2.104,-9.070,-22.546,-8.591,-7.609,-0.049,0.896,-0.369,-0.610,-1.221,1.007,73.333,230820.000,1.000
-7.642,-16.959,-8.034,-3.216,-11.281,-25.841,-12.652,-8.931,-0.049,0.895,-0.373,-0.580,-1.221,0.977,73.333,230821.000,1.000
-6.475,-16.441,-7.221,-3.296,-11.833,-25.452,-13.335,-8.670,-0.047,0.896,-0.372,-0.519,-1.099,0.977,73.333,230822.000,1.000
-3.965,-14.087,-4.709,-2.234,-10.663,-22.029,-10.636,-6.685,-0.047,0.897,-0.371,-0.397,-1.007,0.977,73.333,230823.000,1.000
-1.003,-10.716,-1.290,-0.369,-8.304,-17.482,-6.048,-3.639,-0.044,0.896,-0.374,-0.244,-1.038,1.038,73.333,230824.000,1.000
1.473,-7.419,1.771,1.478,-5.755,-14.016,-2.024,-0.937,-0.046,0.898,-0.377,-0.183,-0.946,1.038,73.333,230825.000,1.000
2.833,-5.076,3.501,2.385,-3.983,-13.063,-0.495,0.088,-0.048,0.901,-0.373,-0.183,-0.946,1.099,73.333,230826.000,1.000
2.868,-3.845,3.670,1.924,-3.256,-14.349,-1.586,-0.858,-0.048,0.903,-0.373,-0.214,-0.824,1.099,73.333,230827.000,1.000
1.910,-2.976,3.049,0.596,-2.916,-15.996,-3.660,-2.726,-0.050,0.900,-0.371,-0.397,-0.824,1.007,73.333,230828.000,1.000
0.736,-1.345,2.836,-0.482,-2.020,-16.200,-4.938,-3.984,-0.052,0.902,-0.369,-0.397,-0.763,0.977,73.333,230829.000,1.000
0.015,1.525,3.573,-0.636,-0.410,-14.989,-5.192,-4.100,-0.052,0.902,-0.370,-0.366,-0.763,0.885,73.333,230830.000,1.000
-0.171,5.081,4.853,-0.226,1.111,-13.764,-5.462,-3.940,-0.055,0.904,-0.372,-0.366,-0.885,0.763,73.333,230831.000,1.000
-0.131,8.351,5.802,-0.090,1.768,-13.376,-6.430,-4.535,-0.052,0.906,-0.374,-0.366,-1.007,0.702,73.333,230832.000,1.000
-0.037,10.658,6.011,-0.571,1.633,-13.465,-7.497,-5.763,-0.048,0.908,-0.372,-0.488,-0.977,0.793,73.333,230833.000,1.000
0.229,11.837,5.740,-1.306,1.476,-13.223,-7.414,-6.420,-0.044,0.907,-0.371,-0.580,-0.977,0.732,73.333,230834.000,1.000
0.832,12.143,5.461,-1.696,2.087,-12.054,-5.434,-5.329,-0.041,0.907,-0.370,-0.763,-0.885,0.916,73.333,230835.000,1.000
1.672,11.934,5.421,-1.472,3.629,-9.915,-1.922,-2.412,-0.041,0.902,-0.370,-0.946,-0.671,1.038,73.333,230836.000,1.000
2.297,11.200,5.266,-1.034,5.288,-7.749,1.546,0.878,-0.041,0.897,-0.371,-0.916,-0.580,0.977,73.333,230837.000,1.000
2.208,9.526,4.476,-1.177,5.639,-7.323,2.950,2.279,-0.046,0.895,-0.372,-0.885,-0.427,1.007,73.333,230838.000,1.000
1.383,6.770,2.996,-2.233,3.863,-9.746,1.350,0.542,-0.049,0.894,-0.374,-0.824,-0.275,1.038,73.333,230839.000,1.000
0.532,3.759,1.566,-3.445,0.803,-13.949,-1.955,-3.092,-0.050,0.895,-0.378,-0.610,-0.244,1.038,73.333,230840.000,1.000
0.661,1.930,1.416,-3.489,-1.554,-17.143,-4.111,-5.777,-0.048,0.901,-0.378,-0.397,-0.305,1.038,73.333,230841.000,1.000
2.243,2.093,3.006,-1.767,-1.825,-17.178,-3.285,-5.723,-0.046,0.903,-0.378,-0.244,-0.366,1.099,73.333,230842.000,1.000
4.793,3.703,5.538,1.073,-0.264,-14.424,-0.187,-3.421,-0.048,0.905,-0.377,-0.214,-0.336,1.099,73.333,230843.000,1.000
7.198,5.404,7.595,3.835,1.871,-11.067,3.027,-0.455,-0.048,0.906,-0.373,-0.244,-0.397,1.160,73.333,230844.000,1.000
8.471,6.119,8.176,5.738,3.538,-8.945,4.739,1.963,-0.049,0.903,-0.375,-0.336,-0.305,1.190,73.333,230845.000,1.000
8.301,5.602,7.344,6.753,4.408,-8.597,4.685,3.402,-0.052,0.901,-0.374,-0.366,-0.366,1.129,73.333,230846.000,1.000
7.110,4.291,5.860,7.280,4.732,-9.594,3.585,4.079,-0.054,0.899,-0.373,-0.244,-0.336,1.038,73.333,230847.000,1.000
5.681,2.897,4.680,7.749,5.056,-10.955,2.698,4.719,-0.057,0.900,-0.374,-0.183,-0.397,0.916,73.333,230848.000,1.000
4.580,1.868,4.272,8.193,5.681,-11.841,2.953,5.864,-0.057,0.902,-0.374,-0.183,-0.580,0.793,73.333,230849.000,1.000
3.786,1.028,4.161,7.965,6.112,-12.315,3.854,6.799,-0.058,0.907,-0.369,-0.214,-0.824,0.458,73.333,230850.000,1.000
2.937,-0.119,3.493,6.208,5.374,-13.062,3.835,5.865,-0.057,0.911,-0.368,-0.305,-1.038,0.458,73.333,230851.000,1.000
1.973,-1.585,1.912,2.963,3.278,-14.112,2.137,2.560,-0.054,0.913,-0.369,-0.549,-1.129,0.427,73.333,230852.000,1.000
1.354,-2.658,0.057,-0.508,0.891,-14.487,-0.113,-1.442,-0.052,0.911,-0.370,-0.824,-1.282,0.336,73.333,230853.000,1.000
1.461,-2.689,-1.202,-2.882,-0.630,-13.636,-1.393,-4.082,-0.051,0.913,-0.370,-1.038,-1.282,0.336,73.333,230854.000,1.000
2.051,-1.775,-1.676,-3.832,-1.103,-12.367,-1.388,-4.705,-0.050,0.911,-0.373,-1.190,-1.312,0.336,73.333,230855.000,1.000
2.464,-0.453,-1.671,-3.828,-0.958,-11.692,-0.522,-3.823,-0.048,0.909,-0.371,-1.343,-1.526,0.366,73.333,230856.000,1.000
2.126,0.890,-1.712,-3.541,-0.624,-11.709,0.682,-2.436,-0.049,0.908,-0.374,-1.465,-1.495,0.305,73.333,230857.000,1.000
0.744,2.019,-2.254,-3.583,-0.540,-12.021,1.575,-1.730,-0.047,0.906,-0.373,-1.587,-1.404,0.397,73.333,230858.000,1.000
-1.614,2.724,-3.456,-4.282,-1.026,-12.250,1.744,-2.333,-0.048,0.903,-0.374,-1.617,-1.434,0.427,73.333,230859.000,1.000
-4.370,3.028,-4.945,-5.247,-1.742,-11.898,1.701,-3.387,-0.050,0.902,-0.372,-1.740,-1.373,0.549,73.333,230860.000,1.000
-6.649,3.137,-5.922,-5.575,-1.951,-10.830,2.251,-3.243,-0.048,0.900,-0.371,-1.678,-1.373,0.580,73.333,230861.000,1.000
-7.926,2.937,-6.122,-4.934,-1.663,-10.134,2.703,-1.721,-0.048,0.900,-0.370,-1.587,-1.373,0.580,73.333,230862.000,1.000
-8.241,2.051,-5.920,-3.972,-1.742,-11.283,1.224,-0.567,-0.051,0.899,-0.369,-1.648,-1.312,0.641,73.333,230863.000,1.000
-7.785,0.625,-5.627,-3.466,-2.608,-14.097,-2.686,-1.225,-0.053,0.898,-0.371,-1.648,-1.343,0.702,73.333,230864.000,1.000
-6.663,-0.441,-5.225,-3.545,-3.534,-16.365,-7.105,-3.143,-0.053,0.898,-0.369,-1.678,-1.373,0.702,73.333,230865.000,1.000
-5.080,-0.319,-4.588,-3.795,-3.413,-15.818,-9.169,-4.438,-0.055,0.899,-0.371,-1.526,-1.465,0.732,73.333,230866.000,1.000
-3.486,0.874,-3.886,-3.727,-1.848,-12.363,-7.507,-3.654,-0.056,0.897,-0.368,-1.495,-1.556,0.793,73.333,230867.000,1.000
-2.443,2.176,-3.351,-3.035,0.590,-8.111,-3.029,-0.782,-0.058,0.897,-0.368,-1.465,-1.556,0.702,73.333,230868.000,1.000
-2.357,2.611,-3.022,-1.669,2.943,-5.315,2.187,2.965,-0.060,0.896,-0.371,-1.434,-1.648,0.732,73.333,230869.000,1.000
-3.304,1.787,-2.879,0.152,4.449,-4.863,6.246,6.113,-0.055,0.893,-0.370,-1.404,-1.740,0.702,73.333,230870.000,1.000
-5.035,-0.122,-2.913,1.994,4.717,-6.446,8.115,7.740,-0.055,0.892,-0.374,-1.190,-1.770,0.671,73.333,230871.000,1.000
-7.056,-2.613,-3.272,3.329,3.741,-9.194,7.628,7.661,-0.055,0.891,-0.370,-1.038,-1.923,0.671,73.333,230872.000,1.000
-8.749,-5.090,-3.998,3.747,1.805,-12.189,5.281,6.173,-0.054,0.892,-0.368,-0.916,-2.014,0.671,73.333,230873.000,1.000
-9.609,-7.117,-5.003,3.054,-0.748,-14.852,1.833,3.670,-0.051,0.891,-0.368,-0.763,-2.075,0.854,73.333,230874.000,1.000
-9.462,-8.509,-6.248,1.328,-3.664,-16.967,-1.950,0.482,-0.053,0.892,-0.366,-0.671,-2.014,0.946,73.333,230875.000,1.000
-8.456,-9.273,-7.584,-1.025,-6.679,-18.442,-5.204,-2.953,-0.052,0.894,-0.374,-0.580,-1.923,0.977,73.333,230876.000,1.000
-6.885,-9.438,-8.763,-3.368,-9.324,-19.001,-6.987,-5.906,-0.052,0.897,-0.374,-0.336,-1.953,1.129,73.333,230877.000,1.000
-4.943,-8.822,-9.277,-4.968,-10.811,-17.928,-6.230,-7.323,-0.051,0.897,-0.370,-0.214,-2.014,1.160,73.333,230878.000,1.000
-2.658,-7.150,-8.584,-5.283,-10.393,-14.616,-2.272,-6.358,-0.051,0.895,-0.365,-0.153,-2.075,1.312,73.333,230879.000,1.000
-0.164,-4.650,-6.743,-4.427,-8.201,-10.084,3.752,-3.375,-0.050,0.899,-0.365,-0.092,-2.014,1.312,73.333,230880.000,1.000
1.945,-2.401,-4.663,-3.431,-5.678,-7.314,8.652,-0.366,-0.048,0.899,-0.369,-0.061,-1.984,1.404,73.333,230881.000,1.000
2.754,-1.633,-3.769,-3.674,-4.625,-8.891,9.323,0.329,-0.049,0.899,-0.370,-0.061,-1.984,1.434,73.333,230882.000,1.000
1.791,-2.583,-4.734,-5.599,-5.633,-14.496,5.474,-1.823,-0.050,0.898,-0.371,-0.061,-1.984,1.495,73.333,230883.000,1.000
-0.492,-4.331,-6.953,-8.337,-7.818,-21.171,-0.430,-5.389,-0.046,0.900,-0.371,0.122,-1.831,1.526,73.333,230884.000,1.000
-3.068,-5.644,-9.256,-10.599,-9.770,-25.518,-5.324,-8.580,-0.047,0.900,-0.372,0.122,-1.740,1.526,73.333,230885.000,1.000
-4.979,-5.778,-10.526,-11.459,-10.334,-25.726,-7.029,-9.986,-0.047,0.901,-0.373,0.214,-1.648,1.678,73.333,230886.000,1.000
-5.761,-4.764,-10.267,-10.598,-9.056,-22.497,-5.179,-8.809,-0.045,0.901,-0.373,0.214,-1.495,1.678,73.333,230887.000,1.000
-5.606,-3.322,-8.810,-8.426,-6.562,-18.399,-1.536,-5.621,-0.044,0.901,-0.374,0.153,-1.373,1.740,73.333,230888.000,1.000
-5.119,-2.390,-7.069,-5.899,-4.226,-15.957,1.199,-2.256,-0.042,0.903,-0.373,0.061,-1.190,1.862,73.333,230889.000,1.000
-4.707,-2.402,-5.790,-3.790,-3.035,-15.865,1.614,-0.185,-0.042,0.902,-0.372,0.092,-1.038,1.801,73.333,230890.000,1.000
-4.220,-2.966,-4.899,-2.159,-2.821,-16.713,0.714,0.668,-0.044,0.902,-0.375,0.061,-0.916,1.740,73.333,230891.000,1.000
-3.300,-3.304,-4.018,-0.666,-2.709,-16.545,0.411,1.237,-0.044,0.904,-0.371,0.031,-0.854,1.770,73.333,230892.000,1.000
-1.979,-3.109,-3.090,0.738,-2.304,-15.024,1.121,1.738,-0.044,0.903,-0.375,0.000,-0.671,1.709,73.333,230893.000,1.000
-0.855,-2.890,-2.512,1.577,-2.149,-13.924,1.185,1.139,-0.044,0.903,-0.375,0.000,-0.549,1.648,73.333,230894.000,1.000
-0.562,-3.315,-2.662,1.483,-2.840,-15.087,-1.040,-1.413,-0.045,0.903,-0.376,-0.092,-0.458,1.587,73.333,230895.000,1.000
-1.177,-4.434,-3.272,0.808,-4.107,-18.376,-5.046,-5.238,-0.046,0.904,-0.378,-0.122,-0.397,1.556,73.333,230896.000,1.000
-2.195,-5.665,-3.761,0.316,-5.054,-21.861,-8.660,-8.682,-0.045,0.905,-0.376,-0.061,-0.275,1.434,73.333,230897.000,1.000
-2.923,-6.295,-3.579,0.600,-4.895,-23.511,-9.817,-10.255,-0.045,0.906,-0.375,-0.122,-0.122,1.343,73.333,230898.000,1.000
-2.935,-5.991,-2.590,1.705,-3.508,-22.838,-8.060,-9.442,-0.046,0.905,-0.373,-0.031,-0.092,1.282,73.333,230899.000,1.000
-2.362,-4.958,-1.334,2.996,-1.606,-21.137,-4.859,-7.212,-0.047,0.907,-0.372,-0.275,-0.061,1.221,73.333,230900.000,1.000
-1.716,-3.594,-0.453,3.529,-0.235,-20.057,-2.267,-5.418,-0.046,0.905,-0.371,-0.305,-0.092,1.099,73.333,230901.000,1.000
-1.368,-2.043,-0.184,2.779,0.111,-20.049,-1.347,-5.273,-0.044,0.903,-0.370,-0.336,0.000,0.946,73.333,230902.000,1.000
-1.186,-0.160,-0.098,1.157,-0.134,-20.230,-1.474,-6.347,-0.045,0.902,-0.369,-0.458,0.031,0.946,73.333,230903.000,1.000
-0.701,2.057,0.449,-0.352,-0.174,-19.635,-1.209,-7.193,-0.045,0.897,-0.372,-0.366,0.214,0.793,73.333,230904.000,1.000
0.443,4.152,1.664,-1.027,0.275,-18.475,-0.004,-6.865,-0.044,0.898,-0.375,-0.366,0.366,0.793,73.333,230905.000,1.000
2.209,5.445,3.390,-0.807,0.783,-18.008,1.278,-5.616,-0.042,0.900,-0.375,-0.214,0.397,0.793,73.333,230906.000,1.000
4.172,5.538,5.174,-0.081,0.759,-19.396,1.397,-4.293,-0.043,0.904,-0.378,-0.214,0.488,0.854,73.333,230907.000,1.000
5.823,4.629,6.639,0.808,0.133,-22.807,0.274,-3.198,-0.042,0.907,-0.375,-0.244,0.458,0.946,73.333,230908.000,1.000
6.891,3.433,7.721,1.844,-0.489,-27.248,-0.725,-1.825,-0.042,0.909,-0.371,-0.397,0.549,0.946,73.333,230909.000,1.000
7.339,2.724,8.532,3.199,-0.380,-31.221,-0.158,0.284,-0.040,0.906,-0.369,-0.580,0.671,1.099,73.333,230910.000,1.000
7.210,2.842,9.239,4.987,0.642,-33.718,2.194,2.887,-0.040,0.904,-0.370,-0.732,0.671,1.099,73.333,230911.000,1.000
6.566,3.546,9.735,7.083,2.156,-34.612,5.287,5.354,-0.042,0.899,-0.370,-0.793,0.793,1.160,73.333,230912.000,1.000
5.538,4.321,9.799,9.159,3.625,-34.101,7.912,7.326,-0.047,0.895,-0.372,-0.702,0.824,1.251,73.333,230913.000,1.000
4.388,4.867,9.424,10.955,4.909,-32.021,9.669,9.040,-0.052,0.895,-0.375,-0.702,0.763,1.129,73.333,230914.000,1.000
3.486,5.303,8.833,12.447,6.276,-27.930,10.973,11.063,-0.054,0.897,-0.374,-0.549,0.732,0.946,73.333,230915.000,1.000
3.103,5.786,8.342,13.543,7.739,-22.133,12.125,13.318,-0.057,0.900,-0.374,-0.549,0.549,0.824,73.333,230916.000,1.000
3.256,6.082,7.939,13.823,8.624,-16.399,12.353,14.575,-0.058,0.903,-0.375,-0.549,0.305,0.732,73.333,230917.000,1.000
3.814,5.756,7.480,12.953,8.165,-13.046,10.507,13.561,-0.057,0.903,-0.373,-0.641,0.092,0.610,73.333,230918.000,1.000
4.631,4.689,6.950,11.151,6.420,-13.065,6.601,10.360,-0.057,0.902,-0.370,-0.671,-0.061,0.580,73.333,230919.000,1.000
5.615,3.341,6.482,9.146,4.521,-14.976,2.433,6.626,-0.057,0.901,-0.370,-0.671,-0.305,0.519,73.333,230920.000,1.000
6.717,2.528,6.453,7.782,3.993,-15.534,0.739,4.613,-0.054,0.902,-0.373,-0.885,-0.458,0.458,73.333,230921.000,1.000
7.802,2.816,6.967,7.379,5.509,-12.245,2.821,5.415,-0.055,0.900,-0.373,-0.977,-0.732,0.458,73.333,230922.000,1.000
8.567,4.025,7.660,7.412,8.141,-5.624,7.008,7.937,-0.054,0.900,-0.376,-0.977,-0.732,0.366,73.333,230923.000,1.000
8.676,5.449,8.053,6.960,10.188,1.570,10.184,10.066,-0.051,0.898,-0.374,-0.916,-0.946,0.366,73.333,230924.000,1.000
7.971,6.476,7.890,5.498,10.671,7.057,10.674,10.630,-0.051,0.896,-0.375,-0.854,-0.977,0.427,73.333,230925.000,1.000
6.474,6.785,7.225,3.133,9.669,10.165,8.999,9.709,-0.050,0.894,-0.373,-0.793,-1.129,0.397,73.333,230926.000,1.000
4.303,6.255,6.000,0.300,7.794,11.293,6.570,7.830,-0.048,0.896,-0.377,-0.610,-1.190,0.427,73.333,230927.000,1.000
1.738,5.109,4.273,-2.384,5.917,11.729,4.989,5.887,-0.046,0.897,-0.374,-0.549,-1.312,0.427,73.333,230928.000,1.000
-0.756,3.885,2.405,-4.301,4.819,13.130,5.463,4.904,-0.046,0.898,-0.377,-0.336,-1.373,0.488,73.333,230929.000,1.000
-2.808,2.848,0.572,-5.322,4.379,15.752,7.294,4.774,-0.047,0.901,-0.374,-0.305,-1.556,0.519,73.333,230930.000,1.000
-4.388,1.600,-1.404,-5.977,3.458,17.739,7.833,3.963,-0.047,0.900,-0.374,-0.275,-1.556,0.519,73.333,230931.000,1.000
-5.652,-0.323,-3.795,-6.864,1.245,17.398,5.222,1.435,-0.049,0.899,-0.374,-0.305,-1.526,0.458,73.333,230932.000,1.000
-6.594,-2.675,-6.364,-7.932,-1.669,15.437,0.705,-1.806,-0.049,0.900,-0.375,-0.214,-1.556,0.549,73.333,230933.000,1.000
-7.086,-4.753,-8.558,-8.624,-4.028,13.844,-2.873,-3.784,-0.050,0.902,-0.374,-0.305,-1.678,0.610,73.333,230934.000,1.000
-7.102,-6.105,-10.087,-8.474,-5.103,13.672,-3.848,-3.353,-0.051,0.899,-0.371,-0.275,-1.740,0.641,73.333,230935.000,1.000
-6.709,-6.659,-10.778,-7.375,-4.859,14.833,-2.271,-0.686,-0.051,0.901,-0.374,-0.275,-1.740,0.549,73.333,230936.000,1.000
-5.986,-6.531,-10.640,-5.599,-3.649,16.858,0.746,3.041,-0.051,0.901,-0.372,-0.183,-1.892,0.458,73.333,230937.000,1.000
-5.194,-6.143,-10.000,-3.784,-2.266,18.755,3.388,5.981,-0.050,0.900,-0.374,-0.275,-1.984,0.519,73.333,230938.000,1.000
-4.928,-6.300,-9.553,-2.797,-1.876,18.921,3.616,6.229,-0.049,0.900,-0.372,-0.122,-2.136,0.549,73.333,230939.000,1.000
-5.689,-7.549,-9.917,-3.105,-3.113,16.453,0.601,3.256,-0.049,0.901,-0.371,-0.153,-2.167,0.488,73.333,230940.000,1.000
-7.310,-9.531,-10.916,-4.222,-5.315,12.444,-4.127,-1.176,-0.051,0.899,-0.375,-0.244,-2.258,0.336,73.333,230941.000,1.000
-9.059,-11.325,-12.022,-5.194,-7.141,9.252,-7.880,-4.390,-0.050,0.901,-0.375,-0.244,-2.197,0.397,73.333,230942.000,1.000
-10.245,-12.379,-12.929,-5.537,-7.886,8.328,-9.054,-5.040,-0.048,0.901,-0.374,-0.275,-2.197,0.305,73.333,230943.000,1.000
-10.632,-12.882,-13.673,-5.556,-7.938,9.125,-8.106,-3.778,-0.050,0.899,-0.373,-0.336,-2.228,0.244,73.333,230944.000,1.000
-10.356,-13.242,-14.360,-5.784,-8.008,10.270,-6.508,-2.014,-0.049,0.901,-0.374,-0.275,-2.258,0.183,73.333,230945.000,1.000
-9.662,-13.501,-14.732,-6.338,-8.308,11.079,-5.166,-0.622,-0.047,0.903,-0.373,-0.305,-2.167,0.183,73.333,230946.000,1.000
-8.860,-13.365,-14.543,-6.967,-8.596,11.673,-4.244,0.072,-0.047,0.903,-0.371,-0.336,-2.258,0.244,73.333,230947.000,1.000
-8.307,-12.526,-13.740,-7.390,-8.603,12.404,-3.551,-0.142,-0.047,0.902,-0.372,-0.397,-2.289,0.275,73.333,230948.000,1.000
-8.233,-10.859,-12.437,-7.494,-8.209,13.464,-2.786,-1.311,-0.048,0.904,-0.373,-0.519,-2.258,0.305,73.333,230949.000,1.000
-8.570,-8.527,-11.015,-7.315,-7.438,14.365,-1.843,-3.049,-0.049,0.903,-0.373,-0.580,-2.197,0.214,73.333,230950.000,1.000
-9.018,-6.070,-9.893,-7.004,-6.532,13.363,-0.969,-4.645,-0.049,0.903,-0.370,-0.519,-2.167,0.183,73.333,230951.000,1.000
-9.274,-4.277,-9.445,-6.860,-5.934,7.971,-0.754,-5.687,-0.050,0.901,-0.374,-0.641,-2.136,0.153,73.333,230952.000,1.000
-9.117,-3.736,-9.661,-7.162,-5.996,-3.278,-1.557,-6.357,-0.049,0.901,-0.374,-0.702,-2.136,0.153,73.333,230953.000,1.000
-8.348,-4.451,-10.083,-7.889,-6.640,-19.384,-3.003,-6.949,-0.049,0.901,-0.374,-0.732,-2.197,0.092,73.333,230954.000,1.000
-6.750,-5.787,-10.135,-8.509,-7.214,-36.814,-3.976,-7.013,-0.051,0.899,-0.373,-0.671,-2.258,0.153,73.333,230955.000,1.000
-4.181,-6.770,-9.203,-8.064,-6.766,-51.075,-3.173,-5.382,-0.052,0.900,-0.375,-0.671,-2.258,0.183,73.333,230956.000,1.000
-0.836,-6.670,-7.072,-5.875,-4.849,-59.359,-0.480,-1.722,-0.051,0.902,-0.374,-0.702,-2.197,0.031,73.333,230957.000,1.000
2.549,-5.499,-4.203,-2.341,-2.168,-62.272,2.512,2.382,-0.052,0.899,-0.377,-0.702,-2.197,0.061,73.333,230958.000,1.000
4.866,-4.097,-1.739,1.004,-0.357,-63.474,3.473,4.273,-0.052,0.900,-0.377,-0.702,-2.136,0.092,73.333,230959.000,1.000
