EEG 1,EEG 2,EEG 3,EEG 4,EEG 5,EEG 6,EEG 7,EEG 8,Accelerometer X,Accelerometer Y,Accelerometer Z,Gyroscope X,Gyroscope Y,Gyroscope Z,Battery Level,Counter,Validation Indicator
-2.536,1.824,-3.832,-4.854,-2.885,-1.198,-7.217,-10.078,-0.010,0.950,-0.256,-0.061,-0.702,1.038,73.333,311337.000,1.000
-2.239,0.549,-4.103,-4.633,-3.603,-1.705,-7.160,-10.348,-0.010,0.949,-0.258,-0.092,-0.610,1.007,73.333,311338.000,1.000
-1.669,-0.878,-4.082,-3.851,-4.544,-2.441,-7.696,-10.257,-0.010,0.950,-0.257,-0.061,-0.458,0.946,73.333,311339.000,1.000
-0.671,-1.861,-3.893,-2.549,-5.102,-2.726,-7.489,-8.999,-0.008,0.951,-0.259,-0.122,-0.458,0.946,73.333,311340.000,1.000
0.534,-2.236,-3.913,-1.147,-5.083,-2.214,-6.051,-6.495,-0.008,0.950,-0.256,-0.214,-0.275,1.038,73.333,311341.000,1.000
1.364,-2.442,-4.718,-0.500,-5.072,-1.404,-4.459,-4.099,-0.006,0.953,-0.258,-0.244,-0.153,1.007,73.333,311342.000,1.000
1.303,-2.978,-6.468,-1.179,-5.653,-1.072,-4.045,-3.205,-0.006,0.955,-0.258,-0.183,-0.061,1.007,73.333,311343.000,1.000
0.183,-3.976,-8.653,-2.990,-6.759,-1.661,-5.176,-3.877,-0.007,0.954,-0.260,-0.305,0.000,1.038,73.333,311344.000,1.000
-1.738,-5.206,-10.625,-5.138,-7.768,-3.069,-7.108,-4.950,-0.010,0.953,-0.259,-0.305,0.092,1.007,73.333,311345.000,1.000
-3.799,-6.201,-11.699,-6.684,-8.041,-4.708,-8.546,-5.279,-0.010,0.954,-0.259,-0.366,0.061,1.038,73.333,311346.000,1.000
-5.206,-6.401,-11.504,-7.066,-7.383,-5.606,-8.557,-4.776,-0.013,0.956,-0.257,-0.488,0.122,0.946,73.333,311347.000,1.000
-5.442,-5.356,-10.040,-6.166,-5.852,-4.630,-6.527,-3.628,-0.011,0.958,-0.260,-0.580,0.092,0.946,73.333,311348.000,1.000
-4.608,-3.084,-7.665,-4.195,-3.593,-1.394,-2.236,-1.443,-0.014,0.957,-0.260,-0.671,0.092,0.946,73.333,311349.000,1.000
-3.464,-0.371,-5.433,-1.923,-1.346,2.797,3.022,1.562,-0.016,0.957,-0.258,-0.793,0.061,0.916,73.333,311350.000,1.000
-2.917,1.601,-4.505,-0.518,-0.356,5.767,6.882,3.724,-0.016,0.954,-0.256,-0.824,0.031,0.824,73.333,311351.000,1.000
-3.308,2.133,-5.388,-0.721,-1.172,6.469,7.936,3.507,-0.016,0.952,-0.256,-0.854,-0.153,0.763,73.333,311352.000,1.000
-4.207,1.483,-7.431,-2.199,-2.967,5.514,6.743,1.288,-0.016,0.948,-0.257,-0.977,-0.336,0.732,73.333,311353.000,1.000
-4.835,0.516,-9.190,-3.889,-4.338,4.016,4.702,-1.184,-0.015,0.946,-0.259,-0.885,-0.275,0.671,73.333,311354.000,1.000
-4.579,0.124,-9.520,-4.798,-4.296,2.890,2.803,-2.369,-0.014,0.945,-0.261,-0.824,-0.397,0.549,73.333,311355.000,1.000
-3.169,0.906,-7.880,-4.335,-2.449,3.003,1.890,-1.421,-0.014,0.945,-0.260,-0.763,-0.336,0.610,73.333,311356.000,1.000
-0.802,2.875,-4.692,-2.485,0.986,4.821,2.676,1.751,-0.013,0.947,-0.263,-0.671,-0.305,0.671,73.333,311357.000,1.000
1.765,5.209,-1.347,0.001,4.861,7.669,4.828,6.005,-0.013,0.951,-0.260,-0.641,-0.366,0.793,73.333,311358.000,1.000
3.537,6.557,0.547,1.845,7.268,9.840,6.471,8.934,-0.011,0.953,-0.260,-0.488,-0.458,0.885,73.333,311359.000,1.000
3.976,6.030,0.119,2.068,6.742,9.846,5.446,8.297,-0.014,0.951,-0.261,-0.580,-0.549,0.885,73.333,311360.000,1.000
3.374,3.975,-1.951,0.723,3.455,7.594,1.510,3.945,-0.013,0.944,-0.258,-0.610,-0.397,0.977,73.333,311361.000,1.000
2.509,1.684,-4.190,-1.231,-0.896,4.255,-3.545,-1.940,-0.012,0.939,-0.259,-0.519,-0.397,0.977,73.333,311362.000,1.000
2.054,0.397,-5.391,-2.590,-4.243,1.194,-7.525,-6.331,-0.014,0.938,-0.260,-0.305,-0.641,0.916,73.333,311363.000,1.000
2.258,0.588,-5.086,-2.607,-5.246,-0.778,-9.074,-7.207,-0.017,0.940,-0.261,-0.122,-0.732,0.885,73.333,311364.000,1.000
2.955,1.971,-3.694,-1.398,-3.773,-1.459,-7.965,-4.598,-0.020,0.943,-0.261,0.092,-0.854,0.763,73.333,311365.000,1.000
3.744,3.845,-1.984,0.195,-0.815,-1.213,-5.055,-0.358,-0.022,0.944,-0.259,0.153,-0.885,0.671,73.333,311366.000,1.000
4.234,5.411,-0.888,1.129,2.023,-0.910,-2.284,2.868,-0.020,0.947,-0.263,0.122,-1.068,0.671,73.333,311367.000,1.000
4.365,6.189,-0.939,0.971,3.545,-1.216,-1.255,3.321,-0.021,0.952,-0.260,0.092,-1.282,0.519,73.333,311368.000,1.000
4.512,6.321,-1.688,0.302,3.759,-1.916,-1.619,1.339,-0.021,0.953,-0.257,0.061,-1.465,0.488,73.333,311369.000,1.000
5.078,6.318,-2.236,0.095,3.489,-2.442,-2.029,-1.282,-0.019,0.953,-0.258,0.000,-1.465,0.458,73.333,311370.000,1.000
6.039,6.528,-1.852,0.862,3.443,-2.786,-1.919,-2.937,-0.018,0.951,-0.257,0.031,-1.709,0.336,73.333,311371.000,1.000
6.976,6.975,-0.600,2.401,3.886,-3.238,-1.583,-3.081,-0.017,0.951,-0.258,-0.183,-1.892,0.244,73.333,311372.000,1.000
7.493,7.570,0.927,4.184,4.857,-3.586,-1.010,-1.945,-0.016,0.950,-0.260,-0.275,-1.923,0.305,73.333,311373.000,1.000
7.574,8.295,2.304,5.787,6.257,-3.168,0.335,-0.028,-0.014,0.950,-0.261,-0.153,-1.923,0.183,73.333,311374.000,1.000
7.541,9.138,3.290,6.988,7.762,-1.510,2.676,1.983,-0.013,0.949,-0.260,-0.275,-1.953,0.275,73.333,311375.000,1.000
7.715,9.931,3.926,7.718,8.878,1.197,5.560,3.272,-0.013,0.949,-0.260,-0.305,-1.984,0.366,73.333,311376.000,1.000
8.113,10.393,4.254,8.025,9.288,4.114,7.978,3.397,-0.013,0.949,-0.259,-0.305,-1.923,0.458,73.333,311377.000,1.000
8.459,10.356,4.340,8.118,9.116,6.272,9.005,2.727,-0.012,0.949,-0.260,-0.183,-2.075,0.488,73.333,311378.000,1.000
8.341,9.783,4.358,8.170,8.647,7.039,8.390,1.917,-0.011,0.948,-0.261,-0.153,-2.167,0.488,73.333,311379.000,1.000
7.400,8.625,4.262,8.106,8.006,6.296,6.622,1.273,-0.014,0.948,-0.264,-0.244,-2.045,0.610,73.333,311380.000,1.000
5.646,6.922,4.059,7.847,7.297,4.497,4.862,1.014,-0.012,0.949,-0.260,-0.305,-2.014,0.641,73.333,311381.000,1.000
3.497,4.900,3.661,7.355,6.591,2.391,4.041,1.180,-0.011,0.949,-0.258,-0.336,-2.045,0.732,73.333,311382.000,1.000
1.445,2.848,2.769,6.405,5.646,0.635,4.079,1.086,-0.012,0.949,-0.261,-0.244,-2.075,0.854,73.333,311383.000,1.000
-0.179,1.088,1.254,4.776,4.263,-0.115,4.521,-0.045,-0.011,0.949,-0.262,-0.122,-2.045,0.977,73.333,311384.000,1.000
-1.165,-0.011,-0.656,2.749,2.891,0.710,5.469,-1.737,-0.013,0.949,-0.259,-0.214,-2.045,0.854,73.333,311385.000,1.000
-1.495,-0.295,-2.312,1.014,2.242,2.739,7.282,-2.507,-0.013,0.948,-0.260,-0.153,-2.075,0.824,73.333,311386.000,1.000
-1.505,-0.054,-3.368,-0.041,2.439,4.418,9.429,-1.609,-0.013,0.950,-0.262,-0.244,-2.045,0.793,73.333,311387.000,1.000
-1.693,0.253,-3.952,-0.586,3.014,4.304,10.694,0.355,-0.013,0.950,-0.261,-0.244,-2.075,0.824,73.333,311388.000,1.000
-2.363,0.360,-4.294,-1.024,3.445,2.300,10.301,2.268,-0.013,0.950,-0.260,-0.122,-1.953,0.793,73.333,311389.000,1.000
-3.509,0.295,-4.650,-1.592,3.549,-0.348,8.599,3.587,-0.011,0.949,-0.259,-0.183,-1.953,0.793,73.333,311390.000,1.000
-4.911,0.308,-4.858,-2.079,3.626,-1.828,7.338,4.881,-0.009,0.951,-0.260,-0.275,-1.862,0.763,73.333,311391.000,1.000
-6.406,0.500,-4.741,-2.229,3.970,-1.055,8.221,6.734,-0.011,0.950,-0.261,-0.366,-1.801,0.732,73.333,311392.000,1.000
-8.097,0.464,-4.569,-2.378,4.091,1.224,10.780,8.170,-0.009,0.950,-0.260,-0.397,-1.740,0.641,73.333,311393.000,1.000
-10.134,-0.416,-4.778,-3.322,2.916,2.886,12.343,7.114,-0.007,0.949,-0.262,-0.336,-1.831,0.580,73.333,311394.000,1.000
-12.328,-2.261,-5.648,-5.436,-0.024,2.269,10.433,2.644,-0.008,0.949,-0.261,-0.397,-1.678,0.580,73.333,311395.000,1.000
-14.146,-4.506,-6.870,-8.133,-3.958,-0.560,5.009,-3.809,-0.007,0.948,-0.257,-0.397,-1.709,0.488,73.333,311396.000,1.000
-15.140,-6.453,-8.042,-10.405,-7.573,-4.287,-2.142,-9.794,-0.010,0.950,-0.261,-0.427,-1.648,0.458,73.333,311397.000,1.000
-15.231,-7.755,-8.962,-11.519,-9.905,-7.557,-8.873,-13.446,-0.011,0.948,-0.259,-0.458,-1.526,0.397,73.333,311398.000,1.000
-14.628,-8.415,-9.428,-11.246,-10.569,-9.564,-13.208,-13.978,-0.010,0.947,-0.260,-0.519,-1.404,0.305,73.333,311399.000,1.000
-13.709,-8.600,-9.407,-9.926,-9.730,-10.005,-13.985,-11.843,-0.012,0.946,-0.259,-0.397,-1.404,0.275,73.333,311400.000,1.000
-12.802,-8.383,-8.750,-8.148,-7.851,-8.724,-11.111,-8.231,-0.011,0.947,-0.262,-0.397,-1.312,0.153,73.333,311401.000,1.000
-12.020,-7.663,-7.431,-6.349,-5.386,-5.727,-5.528,-4.170,-0.013,0.945,-0.262,-0.427,-1.312,0.092,73.333,311402.000,1.000
-11.350,-6.490,-5.885,-4.850,-2.953,-1.970,0.709,-0.529,-0.014,0.947,-0.260,-0.397,-1.343,-0.061,73.333,311403.000,1.000
-10.784,-5.269,-4.826,-3.987,-1.400,0.653,4.983,1.542,-0.016,0.945,-0.261,-0.275,-1.251,-0.031,73.333,311404.000,1.000
-10.268,-4.370,-4.772,-3.857,-1.057,1.161,5.818,1.258,-0.015,0.944,-0.262,-0.275,-1.282,-0.122,73.333,311405.000,1.000
-9.582,-3.690,-5.233,-3.981,-1.129,0.698,4.243,-0.580,-0.015,0.947,-0.261,-0.336,-1.312,-0.153,73.333,311406.000,1.000
-8.478,-2.841,-5.238,-3.661,-0.331,1.129,2.692,-1.895,-0.017,0.948,-0.263,-0.275,-1.282,-0.122,73.333,311407.000,1.000
-6.935,-1.599,-4.213,-2.611,1.937,3.027,2.857,-1.074,-0.017,0.946,-0.262,-0.336,-1.373,-0.153,73.333,311408.000,1.000
-5.251,-0.029,-2.219,-1.191,5.059,5.341,4.569,1.729,-0.017,0.947,-0.264,-0.366,-1.282,-0.122,73.333,311409.000,1.000
-3.951,1.562,-0.015,-0.206,7.585,6.506,6.248,4.754,-0.017,0.946,-0.260,-0.305,-1.343,-0.122,73.333,311410.000,1.000
-3.477,2.703,1.629,-0.345,8.124,5.681,6.546,5.937,-0.016,0.949,-0.261,-0.427,-1.373,-0.122,73.333,311411.000,1.000
-3.807,2.981,2.226,-1.730,6.127,3.101,5.067,4.170,-0.018,0.950,-0.259,-0.397,-1.495,0.000,73.333,311412.000,1.000
-4.370,2.374,1.789,-3.808,2.221,-0.281,2.166,0.030,-0.019,0.949,-0.260,-0.427,-1.404,-0.031,73.333,311413.000,1.000
-4.400,1.437,0.958,-5.578,-1.954,-3.121,-1.012,-4.330,-0.021,0.949,-0.261,-0.488,-1.434,0.000,73.333,311414.000,1.000
-3.471,0.944,0.386,-6.284,-4.639,-4.304,-3.025,-6.778,-0.022,0.948,-0.260,-0.427,-1.434,0.122,73.333,311415.000,1.000
-1.821,1.204,0.458,-6.035,-5.201,-3.867,-3.374,-7.162,-0.020,0.950,-0.261,-0.488,-1.587,0.092,73.333,311416.000,1.000
-0.089,1.925,1.046,-5.547,-4.252,-2.824,-2.985,-7.013,-0.020,0.949,-0.263,-0.610,-1.740,0.305,73.333,311417.000,1.000
1.356,2.801,1.957,-5.031,-2.423,-1.737,-2.443,-6.930,-0.018,0.948,-0.265,-0.580,-1.678,0.305,73.333,311418.000,1.000
2.643,3.785,3.324,-3.869,0.251,-0.184,-0.820,-5.609,-0.017,0.951,-0.264,-0.610,-1.740,0.305,73.333,311419.000,1.000
3.933,4.676,4.949,-1.673,3.430,2.058,2.384,-2.151,-0.019,0.949,-0.262,-0.702,-1.801,0.427,73.333,311420.000,1.000
4.967,4.851,6.255,0.945,5.848,4.012,5.597,2.109,-0.017,0.950,-0.262,-0.763,-1.831,0.427,73.333,311421.000,1.000
5.180,3.734,6.624,2.910,6.328,4.397,6.736,4.920,-0.017,0.949,-0.263,-0.793,-1.831,0.549,73.333,311422.000,1.000
4.180,1.477,6.029,3.722,5.158,3.375,5.933,5.523,-0.017,0.951,-0.262,-0.854,-1.831,0.580,73.333,311423.000,1.000
1.984,-1.158,5.002,3.552,3.679,2.427,5.119,4.595,-0.016,0.950,-0.259,-0.824,-1.892,0.671,73.333,311424.000,1.000
-1.085,-3.582,3.684,2.612,2.667,2.432,5.151,2.530,-0.017,0.948,-0.261,-0.916,-1.892,0.702,73.333,311425.000,1.000
-4.379,-5.647,2.070,1.167,1.875,2.804,5.370,-0.494,-0.015,0.948,-0.259,-0.854,-1.984,0.793,73.333,311426.000,1.000
-7.098,-7.406,0.246,-0.308,0.782,2.422,5.085,-3.584,-0.015,0.949,-0.261,-0.854,-1.984,0.732,73.333,311427.000,1.000
-8.817,-9.020,-1.726,-1.462,-0.940,0.649,4.234,-5.636,-0.015,0.949,-0.260,-0.854,-1.923,0.793,73.333,311428.000,1.000
-9.682,-10.642,-3.759,-2.269,-3.242,-2.342,3.088,-6.174,-0.013,0.949,-0.258,-0.763,-1.984,0.763,73.333,311429.000,1.000
-10.063,-12.093,-5.735,-2.830,-5.532,-5.683,1.883,-5.354,-0.012,0.949,-0.259,-0.946,-1.923,0.793,73.333,311430.000,1.000
-10.130,-12.792,-7.105,-3.179,-6.918,-8.123,0.945,-3.670,-0.012,0.949,-0.259,-0.916,-1.831,0.763,73.333,311431.000,1.000
-9.776,-12.155,-7.317,-3.359,-6.793,-8.502,0.693,-1.821,-0.013,0.951,-0.260,-0.977,-1.709,0.702,73.333,311432.000,1.000
-8.829,-10.186,-6.264,-3.522,-5.382,-6.576,1.220,-0.638,-0.012,0.949,-0.257,-1.007,-1.678,0.702,73.333,311433.000,1.000
-7.327,-7.674,-4.310,-3.892,-3.732,-3.498,1.845,-0.776,-0.013,0.949,-0.256,-1.007,-1.617,0.763,73.333,311434.000,1.000
-5.545,-5.617,-2.245,-4.491,-2.787,-0.876,1.750,-1.882,-0.013,0.947,-0.260,-0.946,-1.556,0.793,73.333,311435.000,1.000
-3.786,-4.404,-0.509,-4.898,-2.493,0.680,1.314,-2.391,-0.011,0.948,-0.261,-0.946,-1.495,0.763,73.333,311436.000,1.000
-2.272,-3.747,0.795,-4.717,-2.142,1.681,1.541,-1.132,-0.011,0.948,-0.260,-1.007,-1.373,0.824,73.333,311437.000,1.000
-1.115,-3.235,1.666,-4.111,-1.387,2.764,2.561,1.139,-0.011,0.948,-0.263,-0.885,-1.343,0.763,73.333,311438.000,1.000
-0.194,-2.675,2.297,-3.573,-0.532,4.012,3.577,2.455,-0.011,0.947,-0.262,-0.793,-1.160,0.824,73.333,311439.000,1.000
0.898,-2.032,2.853,-3.367,-0.003,5.048,3.817,1.699,-0.012,0.947,-0.261,-0.885,-1.038,0.793,73.333,311440.000,1.000
2.704,-1.318,3.679,-3.252,0.149,5.509,3.386,-0.341,-0.012,0.945,-0.262,-0.763,-1.038,0.824,73.333,311441.000,1.000
5.578,-0.596,4.985,-2.745,0.254,5.398,3.024,-1.882,-0.011,0.946,-0.262,-0.854,-0.946,0.854,73.333,311442.000,1.000
9.394,0.012,6.656,-1.525,0.642,4.973,3.172,-1.813,-0.012,0.947,-0.260,-0.793,-0.885,0.824,73.333,311443.000,1.000
13.428,0.292,8.346,0.195,1.134,4.160,3.048,-0.817,-0.011,0.944,-0.261,-0.641,-0.854,0.885,73.333,311444.000,1.000
16.581,-0.089,9.311,1.653,0.974,2.288,0.869,-0.955,-0.010,0.944,-0.261,-0.610,-0.641,0.793,73.333,311445.000,1.000
18.074,-1.239,9.184,2.261,-0.355,-1.066,-4.028,-3.589,-0.014,0.946,-0.266,-0.641,-0.519,0.824,73.333,311446.000,1.000
18.058,-2.589,8.360,2.301,-2.299,-4.987,-9.972,-7.794,-0.013,0.946,-0.263,-0.488,-0.458,0.916,73.333,311447.000,1.000
17.442,-3.130,7.769,2.751,-3.537,-7.549,-14.061,-10.984,-0.014,0.944,-0.262,-0.336,-0.397,0.793,73.333,311448.000,1.000
17.152,-2.281,8.206,4.374,-3.076,-7.481,-14.225,-10.977,-0.011,0.946,-0.260,-0.366,-0.397,0.763,73.333,311449.000,1.000
17.517,-0.361,9.522,7.017,-0.935,-5.217,-10.558,-7.536,-0.010,0.949,-0.257,-0.275,-0.336,0.793,73.333,311450.000,1.000
18.263,1.880,11.195,9.893,2.177,-2.158,-4.790,-2.075,-0.013,0.947,-0.261,-0.244,-0.366,0.824,73.333,311451.000,1.000
18.867,4.007,12.816,12.300,5.564,0.720,1.065,3.700,-0.013,0.947,-0.261,-0.275,-0.366,0.732,73.333,311452.000,1.000
18.917,6.038,14.241,13.966,8.706,3.163,5.697,8.537,-0.013,0.947,-0.259,-0.214,-0.305,0.824,73.333,311453.000,1.000
18.224,7.974,15.462,14.781,10.832,4.903,8.199,11.154,-0.014,0.948,-0.259,-0.214,-0.122,0.763,73.333,311454.000,1.000
16.813,9.535,16.105,14.575,11.040,5.451,7.570,10.278,-0.016,0.950,-0.263,-0.275,-0.214,0.854,73.333,311455.000,1.000
14.972,10.472,15.936,13.452,9.176,4.696,3.806,6.062,-0.016,0.949,-0.261,-0.214,-0.244,0.824,73.333,311456.000,1.000
13.163,10.843,15.023,11.884,6.179,3.097,-1.492,0.479,-0.014,0.949,-0.260,-0.122,-0.214,0.824,73.333,311457.000,1.000
11.781,10.878,13.660,10.398,3.383,1.251,-6.194,-4.121,-0.015,0.950,-0.260,-0.061,-0.336,0.763,73.333,311458.000,1.000
11.046,10.768,12.401,9.391,1.725,-0.349,-8.908,-6.338,-0.015,0.948,-0.260,-0.092,-0.183,0.732,73.333,311459.000,1.000
11.038,10.672,11.682,9.159,1.557,-1.201,-9.218,-5.895,-0.015,0.947,-0.258,-0.122,-0.214,0.763,73.333,311460.000,1.000
11.806,10.815,12.009,9.959,2.869,-0.788,-7.011,-3.143,-0.019,0.949,-0.262,0.000,-0.305,0.732,73.333,311461.000,1.000
13.360,11.357,13.593,11.820,5.392,1.046,-2.556,1.315,-0.018,0.949,-0.259,-0.122,-0.275,0.732,73.333,311462.000,1.000
15.443,12.044,15.948,14.195,8.365,3.558,2.772,6.483,-0.018,0.950,-0.258,-0.183,-0.305,0.763,73.333,311463.000,1.000
17.345,12.145,18.000,15.913,10.436,5.270,6.558,10.515,-0.018,0.950,-0.255,-0.183,-0.519,0.732,73.333,311464.000,1.000
18.174,10.978,18.431,15.797,10.417,5.132,6.856,11.406,-0.019,0.949,-0.258,-0.122,-0.671,0.763,73.333,311465.000,1.000
17.450,8.515,16.790,13.596,8.262,3.411,3.860,8.696,-0.017,0.948,-0.258,-0.244,-0.763,0.793,73.333,311466.000,1.000
15.378,5.447,13.627,10.194,5.196,1.490,-0.324,4.161,-0.018,0.949,-0.260,-0.275,-0.732,1.007,73.333,311467.000,1.000
12.621,2.751,10.065,7.076,2.958,0.982,-2.888,0.841,-0.017,0.950,-0.263,-0.305,-0.854,0.916,73.333,311468.000,1.000
9.788,0.999,7.169,5.311,2.549,2.444,-2.047,0.870,-0.018,0.949,-0.264,-0.244,-0.916,0.916,73.333,311469.000,1.000
7.109,-0.028,5.027,4.791,3.410,4.566,1.311,3.774,-0.015,0.949,-0.260,-0.275,-0.854,0.885,73.333,311470.000,1.000
4.536,-1.028,3.039,4.486,3.817,4.893,4.112,6.846,-0.015,0.949,-0.259,-0.214,-1.007,0.946,73.333,311471.000,1.000
1.957,-2.602,0.349,3.245,2.104,1.611,3.037,6.963,-0.012,0.949,-0.258,-0.275,-1.007,1.007,73.333,311472.000,1.000
-0.531,-4.680,-3.278,0.765,-1.854,-4.677,-2.794,3.098,-0.013,0.949,-0.260,-0.244,-1.038,0.977,73.333,311473.000,1.000
-2.464,-6.331,-6.677,-1.910,-6.029,-10.695,-10.258,-2.347,-0.013,0.947,-0.261,-0.214,-0.977,1.099,73.333,311474.000,1.000
-3.367,-6.447,-8.273,-3.177,-7.618,-12.676,-14.408,-5.364,-0.013,0.949,-0.262,-0.183,-0.977,1.038,73.333,311475.000,1.000
-3.271,-4.734,-7.181,-2.162,-5.373,-9.359,-12.592,-3.730,-0.014,0.948,-0.261,-0.275,-1.007,0.977,73.333,311476.000,1.000
-2.827,-2.054,-4.070,0.588,-0.671,-3.072,-6.788,1.084,-0.015,0.948,-0.260,-0.305,-1.007,0.977,73.333,311477.000,1.000
-2.809,0.273,-0.639,3.690,3.769,2.214,-1.504,5.586,-0.014,0.945,-0.264,-0.336,-1.038,1.038,73.333,311478.000,1.000
-3.374,1.647,1.935,6.280,6.378,4.326,0.854,8.044,-0.015,0.948,-0.264,-0.275,-1.038,0.977,73.333,311479.000,1.000
-3.904,2.586,3.485,8.505,7.693,4.336,1.558,9.645,-0.015,0.948,-0.263,-0.214,-1.099,0.916,73.333,311480.000,1.000
-3.716,3.776,4.518,10.585,8.697,4.390,2.686,11.586,-0.015,0.949,-0.264,-0.244,-1.129,0.824,73.333,311481.000,1.000
-2.866,5.009,5.139,11.907,9.147,4.979,4.194,12.759,-0.013,0.950,-0.263,-0.275,-1.160,0.793,73.333,311482.000,1.000
-1.993,5.530,5.095,11.670,8.282,5.246,5.013,11.559,-0.014,0.949,-0.262,-0.458,-1.099,0.732,73.333,311483.000,1.000
-1.479,5.126,4.650,9.954,6.287,4.909,5.228,8.281,-0.012,0.950,-0.264,-0.427,-1.190,0.580,73.333,311484.000,1.000
-1.116,4.372,4.389,7.709,4.260,4.528,5.684,4.766,-0.011,0.947,-0.263,-0.427,-1.190,0.519,73.333,311485.000,1.000
-0.491,3.926,4.942,6.044,3.153,4.433,6.828,2.779,-0.012,0.949,-0.267,-0.366,-1.160,0.488,73.333,311486.000,1.000
0.502,3.861,6.243,5.435,2.988,4.231,7.953,2.693,-0.013,0.948,-0.264,-0.488,-1.129,0.427,73.333,311487.000,1.000
1.566,3.727,7.432,5.506,2.971,3.181,7.439,3.349,-0.014,0.948,-0.262,-0.488,-1.160,0.397,73.333,311488.000,1.000
2.211,3.044,7.608,5.487,2.260,0.804,4.017,3.211,-0.014,0.948,-0.262,-0.458,-1.221,0.336,73.333,311489.000,1.000
2.009,1.614,6.207,4.748,0.656,-2.628,-2.115,1.694,-0.015,0.946,-0.264,-0.427,-1.251,0.305,73.333,311490.000,1.000
0.878,-0.426,3.575,3.196,-1.288,-5.988,-8.906,-0.341,-0.015,0.948,-0.263,-0.519,-1.251,0.275,73.333,311491.000,1.000
-0.780,-2.664,0.557,1.236,-2.697,-7.787,-13.497,-1.376,-0.015,0.948,-0.263,-0.519,-1.190,0.214,73.333,311492.000,1.000
-2.164,-4.453,-1.985,-0.395,-2.764,-6.857,-13.511,-0.092,-0.015,0.948,-0.263,-0.519,-1.282,0.153,73.333,311493.000,1.000
-2.389,-5.154,-3.250,-0.842,-1.046,-3.018,-8.007,4.210,-0.016,0.951,-0.260,-0.580,-1.343,0.183,73.333,311494.000,1.000
-1.078,-4.664,-3.155,0.174,1.935,2.390,1.212,10.537,-0.017,0.951,-0.261,-0.732,-1.282,0.214,73.333,311495.000,1.000
1.233,-3.584,-2.261,1.831,4.547,7.000,9.794,15.714,-0.015,0.950,-0.261,-0.732,-1.312,0.305,73.333,311496.000,1.000
3.351,-2.704,-1.512,2.574,5.098,8.834,13.255,16.225,-0.016,0.949,-0.262,-0.854,-1.312,0.305,73.333,311497.000,1.000
4.143,-2.508,-1.635,1.185,3.000,7.054,9.597,10.761,-0.016,0.948,-0.263,-0.793,-1.282,0.366,73.333,311498.000,1.000
3.183,-3.049,-2.634,-2.343,-1.014,1.981,0.195,1.042,-0.015,0.946,-0.261,-0.854,-1.434,0.397,73.333,311499.000,1.000
0.997,-3.844,-4.086,-6.625,-5.109,-4.496,-10.630,-8.731,-0.016,0.946,-0.260,-0.854,-1.465,0.397,73.333,311500.000,1.000
-1.217,-3.975,-5.019,-9.460,-6.986,-9.127,-17.086,-13.457,-0.015,0.948,-0.266,-0.793,-1.465,0.397,73.333,311501.000,1.000
-2.391,-2.828,-4.651,-9.269,-5.404,-9.408,-15.589,-10.433,-0.016,0.947,-0.263,-0.885,-1.465,0.427,73.333,311502.000,1.000
-2.303,-0.762,-3.171,-6.282,-1.267,-5.647,-7.509,-1.671,-0.015,0.949,-0.266,-0.793,-1.465,0.519,73.333,311503.000,1.000
-1.586,1.194,-1.466,-2.256,3.111,-0.545,2.201,7.706,-0.015,0.951,-0.265,-0.885,-1.404,0.549,73.333,311504.000,1.000
-1.116,2.263,-0.532,0.842,5.759,3.217,8.711,13.226,-0.015,0.950,-0.264,-0.977,-1.404,0.549,73.333,311505.000,1.000
-1.383,2.424,-0.564,2.016,6.076,4.710,10.187,13.429,-0.015,0.951,-0.261,-0.977,-1.434,0.580,73.333,311506.000,1.000
-2.382,2.031,-1.334,1.402,4.540,4.320,7.506,9.592,-0.014,0.949,-0.261,-1.007,-1.495,0.549,73.333,311507.000,1.000
-3.839,1.285,-2.711,-0.227,1.932,2.643,2.499,4.201,-0.015,0.948,-0.263,-1.007,-1.434,0.549,73.333,311508.000,1.000
-5.409,0.187,-4.481,-2.064,-1.106,0.272,-3.074,-0.621,-0.017,0.948,-0.262,-1.007,-1.404,0.671,73.333,311509.000,1.000
-6.738,-1.237,-6.407,-3.577,-4.029,-2.106,-7.870,-3.802,-0.015,0.950,-0.261,-0.977,-1.465,0.610,73.333,311510.000,1.000
-7.469,-2.748,-7.844,-4.340,-6.135,-3.801,-10.670,-4.816,-0.017,0.947,-0.262,-1.007,-1.373,0.610,73.333,311511.000,1.000
-7.440,-3.956,-8.200,-4.125,-6.707,-4.159,-10.537,-3.575,-0.015,0.949,-0.262,-1.068,-1.404,0.610,73.333,311512.000,1.000
-6.838,-4.575,-7.414,-3.159,-5.582,-2.880,-7.479,-0.810,-0.016,0.950,-0.259,-1.007,-1.526,0.671,73.333,311513.000,1.000
-6.053,-4.673,-5.843,-2.023,-3.500,-0.733,-2.899,2.191,-0.014,0.950,-0.262,-1.038,-1.587,0.580,73.333,311514.000,1.000
-5.419,-4.660,-4.284,-1.289,-1.642,0.601,0.941,4.440,-0.015,0.949,-0.261,-1.007,-1.465,0.641,73.333,311515.000,1.000
-5.003,-4.844,-3.163,-1.074,-0.712,0.054,2.682,5.804,-0.014,0.949,-0.263,-0.977,-1.556,0.549,73.333,311516.000,1.000
-4.633,-5.105,-2.470,-1.174,-0.690,-1.883,2.402,6.346,-0.015,0.948,-0.262,-1.007,-1.495,0.641,73.333,311517.000,1.000
-4.117,-5.108,-2.081,-1.431,-1.291,-3.892,0.925,5.826,-0.015,0.950,-0.262,-1.099,-1.465,0.580,73.333,311518.000,1.000
-3.340,-4.597,-1.752,-1.726,-2.166,-4.969,-0.682,4.441,-0.016,0.947,-0.262,-1.129,-1.495,0.580,73.333,311519.000,1.000
-2.338,-3.597,-1.525,-2.021,-3.044,-4.967,-1.958,2.791,-0.015,0.947,-0.261,-1.068,-1.465,0.549,73.333,311520.000,1.000
-1.367,-2.455,-1.486,-2.510,-3.977,-4.436,-3.262,0.858,-0.016,0.948,-0.261,-1.038,-1.404,0.488,73.333,311521.000,1.000
-0.714,-1.429,-1.580,-3.313,-4.897,-3.701,-4.578,-1.518,-0.015,0.948,-0.261,-1.038,-1.404,0.488,73.333,311522.000,1.000
-0.384,-0.217,-1.359,-3.925,-4.998,-2.067,-4.443,-3.192,-0.014,0.950,-0.262,-1.007,-1.373,0.427,73.333,311523.000,1.000
-0.249,1.720,-0.223,-3.588,-3.399,1.568,-1.192,-2.617,-0.014,0.949,-0.262,-1.038,-1.312,0.427,73.333,311524.000,1.000
-0.419,4.370,1.546,-2.325,-0.395,7.202,4.797,-0.132,-0.014,0.950,-0.262,-1.099,-1.312,0.427,73.333,311525.000,1.000
-1.096,6.996,3.193,-0.968,2.614,13.097,11.236,2.370,-0.013,0.950,-0.263,-1.129,-1.312,0.397,73.333,311526.000,1.000
-2.266,8.617,3.995,-0.392,4.246,16.661,15.584,3.581,-0.015,0.948,-0.262,-1.251,-1.282,0.366,73.333,311527.000,1.000
-3.756,8.613,3.562,-0.891,4.039,16.374,16.846,3.728,-0.015,0.948,-0.257,-1.221,-1.282,0.427,73.333,311528.000,1.000
-5.381,7.084,2.141,-2.011,2.647,13.069,16.330,4.051,-0.017,0.948,-0.258,-1.251,-1.221,0.366,73.333,311529.000,1.000
-7.004,4.613,0.138,-3.005,1.139,8.906,15.863,5.617,-0.014,0.950,-0.256,-1.221,-1.221,0.427,73.333,311530.000,1.000
-8.603,1.695,-2.026,-3.538,-0.092,5.351,15.634,8.027,-0.012,0.949,-0.258,-1.282,-1.160,0.305,73.333,311531.000,1.000
-10.238,-1.554,-4.341,-4.084,-1.732,2.309,13.834,8.996,-0.014,0.947,-0.259,-1.343,-1.190,0.275,73.333,311532.000,1.000
-11.757,-5.066,-6.941,-5.266,-4.639,-1.150,8.500,6.178,-0.014,0.946,-0.261,-1.312,-1.129,0.336,73.333,311533.000,1.000
-12.472,-8.163,-9.218,-6.813,-8.397,-5.013,0.139,-0.158,-0.016,0.942,-0.260,-1.251,-1.129,0.458,73.333,311534.000,1.000
-11.446,-9.616,-10.180,-7.609,-11.167,-7.583,-7.811,-6.846,-0.016,0.941,-0.262,-1.129,-1.190,0.458,73.333,311535.000,1.000
-8.287,-8.690,-9.088,-6.699,-11.250,-7.321,-11.460,-10.182,-0.016,0.941,-0.262,-0.916,-1.190,0.427,73.333,311536.000,1.000
-3.675,-5.954,-6.290,-4.132,-8.567,-4.783,-9.607,-8.545,-0.015,0.943,-0.265,-0.885,-1.099,0.458,73.333,311537.000,1.000
0.880,-2.957,-3.098,-0.956,-4.696,-2.148,-4.446,-3.378,-0.016,0.944,-0.263,-0.793,-1.160,0.488,73.333,311538.000,1.000
3.819,-1.310,-0.869,1.326,-1.917,-1.607,0.009,1.714,-0.016,0.946,-0.264,-0.702,-1.190,0.488,73.333,311539.000,1.000
4.372,-1.773,-0.485,1.603,-1.798,-4.044,0.484,3.416,-0.016,0.947,-0.262,-0.610,-1.129,0.519,73.333,311540.000,1.000
3.095,-3.692,-1.428,0.109,-3.910,-8.128,-2.743,1.421,-0.016,0.948,-0.257,-0.580,-1.190,0.549,73.333,311541.000,1.000
1.545,-5.415,-2.218,-1.680,-6.115,-10.918,-6.164,-1.552,-0.016,0.949,-0.257,-0.549,-1.190,0.549,73.333,311542.000,1.000
1.166,-5.597,-1.781,-2.453,-6.636,-10.350,-6.779,-2.934,-0.016,0.949,-0.259,-0.702,-1.099,0.549,73.333,311543.000,1.000
2.272,-4.231,-0.266,-2.292,-5.741,-7.170,-5.017,-3.034,-0.014,0.948,-0.261,-0.732,-1.160,0.488,73.333,311544.000,1.000
4.063,-2.293,1.045,-2.260,-4.965,-3.914,-3.705,-3.918,-0.015,0.951,-0.263,-0.702,-1.190,0.580,73.333,311545.000,1.000
5.616,-0.498,1.414,-2.831,-5.016,-2.218,-4.408,-6.244,-0.012,0.951,-0.264,-0.610,-1.160,0.519,73.333,311546.000,1.000
6.573,1.152,1.252,-3.455,-5.186,-1.856,-6.057,-8.603,-0.010,0.948,-0.261,-0.610,-1.099,0.580,73.333,311547.000,1.000
7.067,2.839,1.567,-3.343,-4.434,-1.820,-6.451,-9.242,-0.009,0.950,-0.259,-0.671,-1.038,0.732,73.333,311548.000,1.000
7.306,4.488,3.211,-2.174,-2.408,-1.392,-4.072,-7.478,-0.008,0.949,-0.263,-0.763,-0.916,0.763,73.333,311549.000,1.000
7.186,5.765,5.865,-0.362,0.265,-0.585,0.555,-4.056,-0.008,0.946,-0.260,-0.732,-0.763,0.763,73.333,311550.000,1.000
6.332,6.338,8.411,1.258,2.396,-0.017,5.122,-0.483,-0.008,0.944,-0.258,-0.732,-0.671,0.885,73.333,311551.000,1.000
4.522,6.168,9.571,1.954,3.041,-0.182,7.231,1.961,-0.011,0.943,-0.260,-0.671,-0.580,0.824,73.333,311552.000,1.000
2.006,5.569,8.686,1.501,2.141,-0.792,6.232,2.834,-0.011,0.942,-0.261,-0.549,-0.519,0.885,73.333,311553.000,1.000
-0.514,5.000,6.318,0.334,0.569,-0.830,3.598,2.526,-0.013,0.945,-0.260,-0.580,-0.458,0.854,73.333,311554.000,1.000
-2.279,4.679,3.563,-0.776,-0.558,0.495,1.287,1.701,-0.013,0.949,-0.261,-0.366,-0.427,0.916,73.333,311555.000,1.000
-2.981,4.232,1.379,-1.304,-0.913,2.490,-0.063,0.651,-0.015,0.951,-0.263,-0.427,-0.427,0.977,73.333,311556.000,1.000
-2.882,2.979,-0.096,-1.278,-1.081,3.290,-1.318,-0.652,-0.013,0.955,-0.260,-0.397,-0.366,1.099,73.333,311557.000,1.000
-2.351,0.799,-1.126,-0.909,-1.572,1.812,-3.283,-1.892,-0.012,0.955,-0.258,-0.488,-0.275,1.129,73.333,311558.000,1.000
-1.574,-1.709,-1.667,-0.411,-2.468,-1.512,-6.070,-2.932,-0.012,0.953,-0.261,-0.610,-0.336,1.160,73.333,311559.000,1.000
-0.658,-3.860,-1.830,-0.167,-3.796,-5.613,-9.649,-4.534,-0.011,0.951,-0.260,-0.702,-0.427,1.221,73.333,311560.000,1.000
0.446,-5.102,-1.555,-0.242,-5.157,-8.997,-12.913,-6.821,-0.014,0.950,-0.263,-0.793,-0.366,1.190,73.333,311561.000,1.000
1.941,-4.989,-0.647,-0.191,-5.504,-9.783,-13.627,-8.299,-0.017,0.948,-0.263,-0.732,-0.366,1.160,73.333,311562.000,1.000
3.837,-3.531,0.778,0.264,-4.169,-7.051,-10.632,-7.632,-0.019,0.949,-0.261,-0.641,-0.336,1.068,73.333,311563.000,1.000
5.792,-1.398,2.283,0.843,-1.694,-2.108,-5.221,-5.093,-0.019,0.951,-0.260,-0.610,-0.397,0.854,73.333,311564.000,1.000
7.366,0.513,3.162,1.061,0.708,2.281,-0.069,-1.908,-0.021,0.953,-0.261,-0.854,-0.427,0.763,73.333,311565.000,1.000
8.374,1.723,3.214,0.740,2.195,4.083,3.000,0.780,-0.021,0.956,-0.257,-0.885,-0.580,0.549,73.333,311566.000,1.000
8.934,2.430,2.724,0.088,2.785,3.524,3.998,2.268,-0.021,0.957,-0.257,-1.007,-0.641,0.427,73.333,311567.000,1.000
9.330,3.254,2.221,-0.417,3.135,2.622,4.192,2.581,-0.021,0.956,-0.260,-1.129,-0.824,0.305,73.333,311568.000,1.000
9.773,4.598,2.335,-0.396,3.688,2.944,4.365,2.149,-0.021,0.957,-0.261,-1.282,-0.885,0.244,73.333,311569.000,1.000
10.145,6.140,3.072,-0.033,4.065,3.990,3.725,1.009,-0.021,0.956,-0.259,-1.312,-1.099,0.061,73.333,311570.000,1.000
10.140,7.169,4.174,0.214,3.666,4.288,1.534,-0.912,-0.022,0.956,-0.261,-1.434,-1.221,0.031,73.333,311571.000,1.000
9.681,7.384,5.421,0.206,2.633,3.382,-1.477,-3.132,-0.020,0.955,-0.258,-1.404,-1.221,-0.061,73.333,311572.000,1.000
9.014,7.111,6.666,0.166,1.750,1.950,-3.943,-4.746,-0.017,0.954,-0.260,-1.465,-1.312,-0.061,73.333,311573.000,1.000
8.389,6.872,7.828,0.318,1.691,0.808,-4.910,-4.997,-0.017,0.953,-0.258,-1.495,-1.343,-0.092,73.333,311574.000,1.000
7.801,7.017,8.499,0.620,2.591,0.587,-4.085,-3.837,-0.016,0.951,-0.262,-1.343,-1.465,-0.092,73.333,311575.000,1.000
6.974,7.603,8.323,0.802,3.966,1.641,-1.833,-2.133,-0.015,0.950,-0.260,-1.495,-1.495,-0.092,73.333,311576.000,1.000
5.427,8.289,6.928,0.453,4.853,3.516,0.550,-1.207,-0.016,0.949,-0.259,-1.587,-1.434,0.000,73.333,311577.000,1.000
2.873,8.536,4.168,-0.596,4.509,5.099,1.765,-1.659,-0.014,0.949,-0.257,-1.465,-1.495,-0.031,73.333,311578.000,1.000
-0.276,8.095,0.761,-1.867,3.187,5.801,2.138,-2.566,-0.015,0.946,-0.259,-1.434,-1.465,0.122,73.333,311579.000,1.000
-3.082,7.068,-2.260,-2.587,1.954,6.054,3.260,-2.249,-0.018,0.945,-0.258,-1.404,-1.495,0.275,73.333,311580.000,1.000
-4.823,5.542,-4.060,-2.391,1.562,6.421,6.035,-0.054,-0.019,0.945,-0.257,-1.190,-1.556,0.366,73.333,311581.000,1.000
-5.510,3.389,-4.682,-1.744,1.638,6.663,9.269,2.592,-0.018,0.944,-0.256,-1.099,-1.678,0.458,73.333,311582.000,1.000
-5.754,0.530,-4.852,-1.572,1.126,5.954,10.681,3.365,-0.019,0.945,-0.254,-1.099,-1.678,0.610,73.333,311583.000,1.000
-6.165,-2.698,-5.017,-2.471,-0.585,3.812,9.062,1.256,-0.018,0.945,-0.258,-1.099,-1.709,0.519,73.333,311584.000,1.000
-6.933,-5.574,-5.376,-4.311,-3.113,0.642,4.942,-2.694,-0.018,0.944,-0.256,-1.068,-1.770,0.549,73.333,311585.000,1.000
-7.884,-7.460,-5.920,-6.408,-5.515,-2.566,0.017,-6.427,-0.016,0.941,-0.259,-0.977,-1.831,0.549,73.333,311586.000,1.000
-8.844,-8.304,-6.743,-8.111,-7.130,-5.076,-4.145,-8.466,-0.016,0.940,-0.257,-0.793,-1.831,0.610,73.333,311587.000,1.000
-9.707,-8.568,-7.744,-9.110,-7.904,-6.826,-6.787,-8.497,-0.016,0.941,-0.258,-0.702,-1.770,0.580,73.333,311588.000,1.000
-10.245,-8.613,-8.075,-9.216,-7.902,-7.746,-7.348,-6.737,-0.016,0.942,-0.260,-0.519,-1.801,0.519,73.333,311589.000,1.000
-10.231,-8.374,-7.140,-8.369,-6.981,-7.175,-5.312,-3.596,-0.013,0.941,-0.257,-0.458,-1.740,0.702,73.333,311590.000,1.000
-9.887,-7.820,-5.475,-7.001,-5.365,-4.814,-1.276,-0.143,-0.012,0.940,-0.258,-0.427,-1.648,0.732,73.333,311591.000,1.000
-9.890,-7.404,-4.756,-6.115,-4.080,-1.910,2.344,1.851,-0.011,0.940,-0.259,-0.275,-1.526,0.763,73.333,311592.000,1.000
-10.676,-7.641,-6.129,-6.512,-4.194,-0.497,3.188,1.239,-0.012,0.940,-0.257,-0.183,-1.404,0.763,73.333,311593.000,1.000
-12.001,-8.499,-8.828,-8.147,-5.914,-1.563,1.024,-1.573,-0.013,0.943,-0.257,0.061,-1.343,0.793,73.333,311594.000,1.000
-13.295,-9.478,-11.390,-10.432,-8.671,-4.468,-2.848,-5.452,-0.012,0.944,-0.257,0.061,-1.343,0.824,73.333,311595.000,1.000
-14.038,-9.949,-12.800,-12.550,-11.463,-7.661,-6.761,-9.171,-0.013,0.945,-0.258,0.153,-1.129,0.824,73.333,311596.000,1.000
-13.836,-9.303,-12.914,-13.557,-12.989,-9.477,-9.237,-11.232,-0.011,0.945,-0.259,0.183,-1.038,0.885,73.333,311597.000,1.000
-12.539,-7.126,-11.923,-12.722,-12.124,-8.672,-9.216,-10.222,-0.010,0.947,-0.260,0.183,-0.977,0.916,73.333,311598.000,1.000
-10.438,-3.551,-9.775,-10.086,-8.758,-5.121,-6.381,-5.983,-0.011,0.948,-0.258,0.214,-0.946,0.946,73.333,311599.000,1.000
-8.252,0.523,-6.801,-6.666,-4.151,-0.306,-1.808,-0.327,-0.012,0.949,-0.262,0.183,-0.763,0.946,73.333,311600.000,1.000
-6.740,3.813,-3.842,-3.785,-0.199,3.471,2.382,3.943,-0.012,0.949,-0.263,0.153,-0.732,0.916,73.333,311601.000,1.000
-6.362,5.316,-2.214,-2.296,1.728,4.559,4.081,4.871,-0.012,0.950,-0.261,0.061,-0.610,0.946,73.333,311602.000,1.000
-7.153,4.692,-2.934,-2.308,1.323,2.665,2.274,2.368,-0.011,0.950,-0.259,0.122,-0.580,1.007,73.333,311603.000,1.000
-8.715,2.322,-5.621,-3.319,-0.824,-1.317,-2.435,-2.074,-0.012,0.952,-0.259,0.061,-0.519,0.946,73.333,311604.000,1.000
-10.326,-0.816,-8.856,-4.553,-3.543,-5.760,-8.084,-6.195,-0.010,0.951,-0.260,-0.061,-0.427,0.916,73.333,311605.000,1.000
-11.220,-3.467,-10.973,-5.237,-5.469,-8.870,-11.961,-7.860,-0.010,0.951,-0.262,-0.092,-0.458,0.946,73.333,311606.000,1.000
-11.018,-4.727,-11.319,-4.997,-5.702,-9.385,-12.096,-6.311,-0.011,0.951,-0.262,-0.092,-0.366,1.007,73.333,311607.000,1.000
-9.959,-4.589,-10.468,-4.053,-4.366,-7.345,-8.608,-2.735,-0.010,0.953,-0.263,-0.153,-0.305,1.068,73.333,311608.000,1.000
-8.691,-3.900,-9.267,-2.976,-2.527,-4.303,-3.723,0.680,-0.010,0.954,-0.263,-0.122,-0.244,1.099,73.333,311609.000,1.000
-7.824,-3.667,-8.394,-2.340,-1.459,-2.304,-0.516,2.112,-0.011,0.955,-0.262,-0.214,-0.183,1.038,73.333,311610.000,1.000
-7.576,-4.335,-7.913,-2.452,-1.903,-2.464,-0.927,0.818,-0.013,0.955,-0.262,-0.244,-0.153,1.007,73.333,311611.000,1.000
-7.704,-5.592,-7.725,-3.248,-3.675,-4.408,-4.858,-2.709,-0.015,0.958,-0.263,-0.397,-0.244,0.946,73.333,311612.000,1.000
-7.644,-6.585,-7.725,-4.122,-5.603,-6.546,-10.164,-6.553,-0.015,0.958,-0.260,-0.610,-0.244,1.038,73.333,311613.000,1.000
-6.836,-6.452,-7.485,-4.108,-6.139,-6.992,-13.607,-8.088,-0.015,0.956,-0.255,-0.641,-0.244,0.946,73.333,311614.000,1.000
-5.147,-4.952,-6.740,-2.659,-4.526,-4.791,-13.006,-5.844,-0.016,0.953,-0.258,-0.732,-0.214,0.854,73.333,311615.000,1.000
-3.096,-2.781,-5.516,-0.276,-1.583,-0.780,-8.846,-1.000,-0.018,0.951,-0.260,-0.885,-0.183,0.824,73.333,311616.000,1.000
-1.777,-1.297,-4.518,1.536,0.670,2.649,-4.368,3.001,-0.015,0.951,-0.263,-0.854,-0.214,0.885,73.333,311617.000,1.000
-2.157,-1.451,-4.636,1.461,0.723,3.490,-2.919,3.420,-0.014,0.948,-0.261,-0.763,-0.366,0.793,73.333,311618.000,1.000
-4.280,-2.940,-5.926,-0.476,-1.205,1.760,-5.081,0.441,-0.015,0.947,-0.260,-0.641,-0.397,0.793,73.333,311619.000,1.000
-7.309,-4.694,-7.924,-3.277,-3.901,-1.230,-9.271,-4.045,-0.013,0.948,-0.265,-0.519,-0.336,0.885,73.333,311620.000,1.000
-10.039,-5.663,-9.630,-5.657,-6.044,-4.035,-13.208,-7.769,-0.013,0.951,-0.263,-0.366,-0.366,0.793,73.333,311621.000,1.000
-11.296,-5.030,-9.865,-6.322,-6.232,-5.008,-14.333,-8.217,-0.012,0.952,-0.263,-0.458,-0.305,0.946,73.333,311622.000,1.000
-10.331,-2.407,-7.953,-4.498,-3.500,-2.641,-10.823,-3.984,-0.012,0.949,-0.261,-0.458,-0.397,0.916,73.333,311623.000,1.000
-7.270,1.678,-4.212,-0.646,1.534,2.764,-3.647,3.306,-0.013,0.946,-0.263,-0.427,-0.397,1.038,73.333,311624.000,1.000
-3.217,5.736,-0.218,3.537,6.569,8.303,3.110,9.574,-0.014,0.942,-0.261,-0.488,-0.458,1.129,73.333,311625.000,1.000
0.308,8.156,2.464,6.193,9.127,10.408,5.501,11.417,-0.013,0.941,-0.265,-0.488,-0.427,1.129,73.333,311626.000,1.000
2.130,8.160,3.077,6.327,8.182,7.670,2.672,8.342,-0.018,0.940,-0.267,-0.275,-0.427,1.038,73.333,311627.000,1.000
1.834,6.085,1.687,4.139,4.554,1.729,-3.043,2.440,-0.020,0.942,-0.262,-0.061,-0.397,0.916,73.333,311628.000,1.000
-0.246,2.981,-0.997,0.775,0.233,-3.985,-7.723,-3.204,-0.021,0.943,-0.261,0.092,-0.610,0.824,73.333,311629.000,1.000
-3.311,-0.029,-4.199,-2.288,-2.704,-6.412,-8.161,-5.975,-0.021,0.948,-0.261,0.122,-0.763,0.793,73.333,311630.000,1.000
-6.335,-2.168,-6.851,-3.826,-3.130,-4.742,-3.721,-4.710,-0.022,0.951,-0.259,0.244,-0.916,0.580,73.333,311631.000,1.000
-8.317,-3.145,-8.025,-3.385,-1.385,-0.774,3.093,-0.293,-0.022,0.951,-0.260,0.183,-0.946,0.519,73.333,311632.000,1.000
-8.639,-3.103,-7.552,-1.398,1.130,2.626,8.410,4.830,-0.019,0.952,-0.264,0.092,-1.099,0.488,73.333,311633.000,1.000
-7.370,-2.514,-6.016,1.150,2.929,3.643,9.726,8.114,-0.018,0.955,-0.261,-0.031,-1.190,0.427,73.333,311634.000,1.000
-5.220,-1.922,-4.508,3.232,3.346,2.537,7.220,8.349,-0.018,0.954,-0.261,-0.153,-1.251,0.488,73.333,311635.000,1.000
-3.029,-1.624,-3.440,4.364,2.832,0.937,3.316,6.280,-0.017,0.950,-0.262,-0.153,-1.404,0.488,73.333,311636.000,1.000
-1.420,-1.717,-2.637,4.556,2.231,0.139,0.484,3.447,-0.016,0.950,-0.261,-0.214,-1.373,0.397,73.333,311637.000,1.000
-0.711,-2.251,-2.028,3.959,1.945,0.253,-0.347,0.776,-0.015,0.952,-0.261,-0.336,-1.343,0.427,73.333,311638.000,1.000
-0.810,-3.073,-1.605,2.911,1.996,0.899,0.540,-1.262,-0.012,0.950,-0.259,-0.214,-1.404,0.458,73.333,311639.000,1.000
-1.271,-3.764,-1.434,1.945,2.331,1.987,2.094,-2.244,-0.014,0.948,-0.261,-0.153,-1.465,0.488,73.333,311640.000,1.000
-1.618,-4.004,-1.234,1.441,2.610,3.293,2.858,-2.253,-0.012,0.947,-0.263,-0.153,-1.556,0.549,73.333,311641.000,1.000
-1.638,-3.898,-0.720,1.342,2.212,3.879,1.712,-1.964,-0.013,0.946,-0.260,-0.092,-1.556,0.580,73.333,311642.000,1.000
-1.262,-3.695,0.155,1.538,1.028,2.823,-0.967,-1.533,-0.015,0.949,-0.262,-0.122,-1.556,0.671,73.333,311643.000,1.000
-0.377,-3.337,1.367,2.168,-0.110,0.337,-3.314,-0.270,-0.015,0.948,-0.263,-0.122,-1.587,0.641,73.333,311644.000,1.000
1.029,-2.508,2.546,3.248,-0.132,-2.212,-3.591,2.182,-0.014,0.948,-0.263,-0.031,-1.648,0.763,73.333,311645.000,1.000
2.772,-0.870,3.632,4.588,1.516,-3.076,-1.018,5.400,-0.014,0.946,-0.260,0.031,-1.678,0.763,73.333,311646.000,1.000
4.500,1.660,4.899,5.956,4.597,-1.160,3.917,8.609,-0.015,0.948,-0.261,-0.031,-1.709,0.824,73.333,311647.000,1.000
5.700,4.589,6.333,6.994,8.011,2.924,9.153,10.811,-0.016,0.947,-0.266,-0.061,-1.617,0.916,73.333,311648.000,1.000
5.843,6.896,7.418,7.140,10.146,6.832,11.767,10.860,-0.014,0.945,-0.265,-0.122,-1.587,0.946,73.333,311649.000,1.000
4.828,7.728,7.342,6.064,10.017,8.166,10.045,8.368,-0.014,0.948,-0.263,-0.183,-1.648,0.946,73.333,311650.000,1.000
3.344,7.149,6.245,4.369,8.245,6.471,5.312,4.774,-0.015,0.947,-0.262,-0.183,-1.678,0.916,73.333,311651.000,1.000
2.472,5.961,5.061,3.282,6.415,3.313,0.692,2.234,-0.014,0.946,-0.264,-0.214,-1.678,0.885,73.333,311652.000,1.000
2.894,4.840,4.462,3.595,5.562,0.607,-1.654,1.456,-0.013,0.946,-0.259,-0.153,-1.648,0.946,73.333,311653.000,1.000
4.595,4.000,4.602,5.280,5.750,-0.677,-1.507,1.665,-0.013,0.945,-0.264,-0.122,-1.587,0.916,73.333,311654.000,1.000
7.112,3.541,5.231,7.834,6.757,-0.476,0.246,2.284,-0.012,0.946,-0.259,-0.122,-1.526,0.854,73.333,311655.000,1.000
9.792,3.592,6.364,10.645,8.398,0.825,2.778,3.629,-0.010,0.945,-0.261,-0.183,-1.526,0.763,73.333,311656.000,1.000
11.868,4.000,7.876,12.910,10.166,2.518,5.213,5.893,-0.012,0.947,-0.263,-0.092,-1.434,0.793,73.333,311657.000,1.000
12.719,4.331,9.126,13.760,11.205,3.888,6.516,8.263,-0.011,0.947,-0.260,-0.214,-1.465,0.732,73.333,311658.000,1.000
12.261,4.290,9.498,12.836,10.979,4.793,6.370,9.449,-0.009,0.948,-0.260,-0.183,-1.312,0.702,73.333,311659.000,1.000
10.972,3.864,8.653,10.564,9.639,5.485,5.364,8.674,-0.010,0.947,-0.261,-0.214,-1.282,0.641,73.333,311660.000,1.000
9.577,3.140,7.045,7.901,7.618,5.702,4.142,6.040,-0.011,0.948,-0.260,-0.153,-1.221,0.702,73.333,311661.000,1.000
8.732,2.240,5.551,5.780,5.234,4.559,2.578,2.318,-0.009,0.948,-0.261,-0.183,-1.129,0.580,73.333,311662.000,1.000
8.846,1.462,4.932,4.845,2.920,1.649,0.470,-1.084,-0.011,0.948,-0.259,-0.183,-1.129,0.458,73.333,311663.000,1.000
9.960,1.264,5.624,5.388,1.401,-2.091,-1.421,-2.466,-0.012,0.948,-0.264,-0.275,-1.160,0.488,73.333,311664.000,1.000
11.718,2.063,7.275,7.186,1.369,-4.667,-1.749,-0.919,-0.012,0.948,-0.263,-0.122,-1.099,0.366,73.333,311665.000,1.000
13.568,4.026,9.333,9.543,3.071,-4.110,0.655,3.040,-0.013,0.949,-0.263,-0.092,-1.007,0.397,73.333,311666.000,1.000
14.969,6.868,11.243,11.456,6.096,0.267,5.832,7.753,-0.013,0.947,-0.262,-0.183,-1.068,0.244,73.333,311667.000,1.000
15.500,9.795,12.374,11.912,9.342,7.050,11.981,11.219,-0.015,0.948,-0.262,-0.305,-1.129,0.214,73.333,311668.000,1.000
14.903,11.757,12.173,10.327,11.314,13.098,15.892,11.917,-0.015,0.949,-0.264,-0.336,-1.068,0.244,73.333,311669.000,1.000
13.137,12.028,10.168,6.907,10.960,15.423,14.875,9.552,-0.017,0.949,-0.261,-0.336,-1.068,0.153,73.333,311670.000,1.000
10.567,10.770,6.829,2.853,8.510,13.210,9.224,5.478,-0.017,0.949,-0.263,-0.427,-1.190,0.122,73.333,311671.000,1.000
7.967,8.992,3.470,-0.163,5.432,8.236,2.229,1.977,-0.015,0.949,-0.261,-0.397,-1.129,0.092,73.333,311672.000,1.000
6.192,7.941,1.400,-0.921,3.538,3.596,-2.020,1.007,-0.016,0.949,-0.263,-0.488,-1.160,0.153,73.333,311673.000,1.000
5.615,8.291,1.200,0.592,3.793,1.656,-1.259,2.949,-0.017,0.949,-0.262,-0.458,-1.312,0.183,73.333,311674.000,1.000
5.798,9.628,2.090,3.039,5.603,2.657,3.301,5.972,-0.019,0.950,-0.261,-0.549,-1.404,0.092,73.333,311675.000,1.000
5.906,10.846,2.961,4.730,7.454,5.176,8.395,7.423,-0.020,0.950,-0.262,-0.671,-1.434,0.214,73.333,311676.000,1.000
5.357,11.014,3.194,4.768,8.232,7.625,11.357,5.952,-0.021,0.949,-0.262,-0.732,-1.526,0.214,73.333,311677.000,1.000
4.050,9.842,2.770,3.352,7.745,8.994,11.332,2.036,-0.020,0.950,-0.261,-0.763,-1.587,0.092,73.333,311678.000,1.000
2.204,7.582,2.143,1.403,6.396,8.773,8.997,-2.732,-0.020,0.949,-0.263,-0.824,-1.617,0.153,73.333,311679.000,1.000
0.263,4.824,1.635,0.003,4.875,7.047,5.926,-6.292,-0.020,0.951,-0.263,-0.916,-1.740,0.214,73.333,311680.000,1.000
-1.139,2.307,1.616,-0.087,3.863,4.591,3.927,-7.005,-0.019,0.950,-0.264,-0.916,-1.831,0.275,73.333,311681.000,1.000
-1.505,0.561,2.238,1.082,3.586,2.410,3.688,-4.910,-0.020,0.948,-0.262,-0.977,-1.831,0.336,73.333,311682.000,1.000
-0.740,-0.264,3.384,2.793,3.796,1.177,4.395,-1.608,-0.017,0.948,-0.262,-0.916,-1.923,0.336,73.333,311683.000,1.000
0.880,-0.345,5.038,4.299,4.104,0.887,4.785,1.046,-0.019,0.949,-0.264,-1.038,-1.984,0.397,73.333,311684.000,1.000
2.852,-0.036,6.912,5.177,4.260,1.077,4.154,1.958,-0.018,0.948,-0.265,-1.007,-2.106,0.488,73.333,311685.000,1.000
4.745,0.460,8.788,5.505,4.451,1.728,3.266,1.416,-0.018,0.946,-0.264,-1.129,-2.167,0.549,73.333,311686.000,1.000
6.321,1.169,10.437,5.623,5.112,3.499,3.796,0.709,-0.017,0.948,-0.261,-1.038,-2.136,0.549,73.333,311687.000,1.000
7.301,1.887,11.296,5.600,6.141,6.524,6.229,0.747,-0.016,0.948,-0.259,-1.068,-2.106,0.488,73.333,311688.000,1.000
7.195,1.901,10.690,4.979,6.501,9.354,8.677,1.005,-0.017,0.948,-0.261,-1.068,-1.953,0.580,73.333,311689.000,1.000
5.613,0.494,8.101,3.155,5.011,9.868,8.275,-0.003,-0.015,0.948,-0.264,-1.099,-2.075,0.549,73.333,311690.000,1.000
2.828,-2.229,4.130,0.224,1.629,7.319,4.251,-2.895,-0.016,0.949,-0.264,-1.007,-2.075,0.641,73.333,311691.000,1.000
-0.198,-5.212,0.277,-2.783,-2.201,3.065,-1.085,-6.320,-0.015,0.948,-0.263,-1.007,-2.045,0.641,73.333,311692.000,1.000
-2.457,-7.185,-2.111,-4.610,-4.620,-0.669,-4.435,-8.017,-0.016,0.948,-0.260,-1.068,-2.045,0.702,73.333,311693.000,1.000
-3.529,-7.517,-2.577,-4.765,-4.857,-2.512,-4.334,-7.003,-0.014,0.947,-0.260,-1.129,-2.014,0.641,73.333,311694.000,1.000
-3.573,-6.407,-1.848,-3.791,-3.590,-2.523,-1.996,-4.331,-0.012,0.947,-0.261,-1.099,-1.953,0.641,73.333,311695.000,1.000
-2.862,-4.458,-0.714,-2.549,-2.053,-1.617,0.449,-1.751,-0.013,0.950,-0.263,-1.099,-1.923,0.732,73.333,311696.000,1.000
-1.651,-2.373,0.338,-1.701,-1.241,-0.882,1.498,-0.533,-0.014,0.948,-0.267,-1.068,-2.014,0.702,73.333,311697.000,1.000
-0.227,-0.775,0.967,-1.594,-1.594,-0.984,0.852,-1.107,-0.012,0.948,-0.263,-1.007,-1.953,0.671,73.333,311698.000,1.000
1.248,0.111,1.204,-2.088,-2.807,-1.681,-0.542,-2.892,-0.013,0.949,-0.262,-1.160,-1.862,0.671,73.333,311699.000,1.000
2.798,0.522,1.189,-2.655,-4.032,-2.174,-1.575,-4.758,-0.011,0.949,-0.261,-1.007,-1.831,0.702,73.333,311700.000,1.000
4.433,0.812,1.260,-2.731,-4.530,-2.088,-1.945,-5.811,-0.013,0.948,-0.260,-1.099,-1.678,0.793,73.333,311701.000,1.000
5.887,1.095,1.508,-2.154,-4.150,-1.890,-2.191,-5.851,-0.012,0.947,-0.260,-1.007,-1.648,0.824,73.333,311702.000,1.000
6.743,1.265,1.649,-1.181,-3.197,-2.248,-2.685,-5.134,-0.010,0.948,-0.260,-1.038,-1.556,0.793,73.333,311703.000,1.000
6.852,1.322,1.608,-0.060,-1.913,-3.075,-2.761,-3.708,-0.011,0.949,-0.260,-1.068,-1.404,0.793,73.333,311704.000,1.000
6.516,1.529,1.385,1.158,-0.258,-3.394,-1.338,-1.194,-0.012,0.948,-0.260,-1.068,-1.343,0.763,73.333,311705.000,1.000
6.255,2.158,1.178,2.462,1.734,-2.317,1.988,2.550,-0.011,0.948,-0.259,-1.038,-1.343,0.702,73.333,311706.000,1.000
6.353,3.075,1.000,3.508,3.486,-0.153,6.082,6.387,-0.010,0.947,-0.262,-1.007,-1.221,0.763,73.333,311707.000,1.000
6.615,3.723,0.522,3.676,4.001,1.706,8.742,8.096,-0.011,0.947,-0.261,-1.038,-1.038,0.732,73.333,311708.000,1.000
6.546,3.561,-0.464,2.630,2.645,2.086,8.470,6.160,-0.012,0.948,-0.262,-1.099,-0.946,0.763,73.333,311709.000,1.000
5.751,2.463,-2.039,0.656,-0.259,1.029,5.402,1.043,-0.013,0.947,-0.260,-1.007,-0.946,0.824,73.333,311710.000,1.000
4.215,0.678,-3.861,-1.536,-3.765,-0.693,0.722,-5.396,-0.013,0.945,-0.262,-0.916,-0.793,0.793,73.333,311711.000,1.000
2.275,-1.510,-5.545,-3.330,-7.063,-2.796,-4.579,-11.218,-0.011,0.944,-0.260,-0.824,-0.671,0.763,73.333,311712.000,1.000
0.437,-3.872,-6.937,-4.351,-9.612,-5.513,-9.667,-14.771,-0.011,0.945,-0.263,-0.763,-0.641,0.763,73.333,311713.000,1.000
-0.901,-6.125,-7.952,-4.491,-10.973,-8.571,-13.265,-15.054,-0.014,0.946,-0.266,-0.763,-0.549,0.732,73.333,311714.000,1.000
-1.741,-7.974,-8.860,-4.171,-11.047,-11.023,-14.342,-12.576,-0.014,0.945,-0.263,-0.610,-0.580,0.671,73.333,311715.000,1.000
-2.344,-9.119,-9.717,-4.079,-10.160,-12.016,-12.731,-9.034,-0.014,0.944,-0.260,-0.488,-0.610,0.702,73.333,311716.000,1.000
-2.863,-9.211,-10.258,-4.585,-8.765,-11.323,-9.218,-6.117,-0.015,0.945,-0.261,-0.488,-0.488,0.610,73.333,311717.000,1.000
-3.231,-8.091,-10.265,-5.555,-7.338,-9.557,-5.407,-4.916,-0.014,0.945,-0.262,-0.275,-0.519,0.610,73.333,311718.000,1.000
-3.398,-6.167,-9.712,-6.683,-6.533,-8.101,-3.201,-5.955,-0.013,0.946,-0.260,-0.244,-0.488,0.610,73.333,311719.000,1.000
-3.523,-4.393,-9.053,-7.841,-6.947,-8.306,-3.891,-8.967,-0.016,0.947,-0.259,-0.122,-0.519,0.549,73.333,311720.000,1.000
-3.846,-3.711,-8.630,-8.908,-8.527,-10.415,-6.917,-12.482,-0.016,0.944,-0.261,-0.031,-0.488,0.580,73.333,311721.000,1.000
-4.468,-4.429,-8.554,-9.611,-10.317,-13.175,-9.880,-14.313,-0.017,0.946,-0.260,-0.061,-0.519,0.549,73.333,311722.000,1.000
-5.215,-5.987,-8.655,-9.627,-10.921,-14.549,-10.014,-12.774,-0.016,0.949,-0.261,0.092,-0.519,0.549,73.333,311723.000,1.000
-5.743,-7.462,-8.386,-8.901,-9.564,-13.336,-6.291,-8.013,-0.017,0.950,-0.261,0.000,-0.549,0.580,73.333,311724.000,1.000
-5.877,-8.353,-7.639,-7.957,-6.904,-10.291,-0.606,-2.498,-0.018,0.950,-0.262,0.000,-0.519,0.641,73.333,311725.000,1.000
-5.747,-8.743,-6.709,-7.488,-4.548,-7.393,3.886,0.636,-0.017,0.950,-0.260,0.061,-0.549,0.671,73.333,311726.000,1.000
-5.596,-8.884,-6.055,-7.710,-3.722,-6.128,5.202,-0.066,-0.015,0.951,-0.260,0.061,-0.549,0.641,73.333,311727.000,1.000
-5.371,-8.693,-5.775,-8.007,-4.240,-6.331,3.758,-3.184,-0.015,0.951,-0.261,0.061,-0.641,0.641,73.333,311728.000,1.000
-4.562,-7.628,-5.120,-7.146,-4.546,-6.333,2.215,-5.108,-0.017,0.951,-0.261,0.000,-0.793,0.671,73.333,311729.000,1.000
-2.681,-5.234,-3.388,-4.268,-3.021,-4.425,3.437,-2.827,-0.017,0.953,-0.262,-0.031,-0.763,0.519,73.333,311730.000,1.000
0.084,-1.861,-0.536,0.093,0.356,-0.543,7.834,3.124,-0.016,0.952,-0.263,-0.061,-0.854,0.641,73.333,311731.000,1.000
2.701,1.213,2.460,3.991,3.700,3.409,12.358,8.695,-0.018,0.952,-0.263,-0.092,-0.946,0.671,73.333,311732.000,1.000
3.993,2.622,4.258,5.495,4.816,5.095,13.099,9.857,-0.017,0.952,-0.260,-0.244,-0.977,0.702,73.333,311733.000,1.000
3.596,1.999,4.430,4.290,3.123,3.763,9.076,6.077,-0.018,0.951,-0.262,-0.183,-0.977,0.854,73.333,311734.000,1.000
2.113,0.155,3.379,1.712,-0.073,0.703,2.749,0.214,-0.020,0.949,-0.264,-0.275,-1.038,0.793,73.333,311735.000,1.000
0.466,-1.692,1.963,-0.496,-2.910,-2.012,-2.333,-4.330,-0.020,0.950,-0.260,-0.305,-1.160,0.854,73.333,311736.000,1.000
-0.740,-2.733,0.785,-1.349,-4.308,-3.017,-4.155,-6.110,-0.017,0.951,-0.260,-0.427,-1.221,0.824,73.333,311737.000,1.000
-1.302,-2.778,0.032,-0.826,-4.241,-2.322,-2.993,-5.734,-0.015,0.951,-0.263,-0.519,-1.251,0.732,73.333,311738.000,1.000
-1.224,-1.999,-0.149,0.531,-3.195,-0.954,-0.288,-4.291,-0.014,0.948,-0.262,-0.519,-1.343,0.702,73.333,311739.000,1.000
-0.545,-0.562,0.209,2.061,-1.493,0.162,2.729,-2.072,-0.014,0.947,-0.263,-0.458,-1.343,0.793,73.333,311740.000,1.000
0.750,1.598,1.248,3.450,0.977,1.093,5.867,1.487,-0.016,0.948,-0.264,-0.549,-1.404,0.916,73.333,311741.000,1.000
2.518,4.491,2.905,4.593,4.217,2.507,9.194,6.406,-0.015,0.948,-0.263,-0.519,-1.434,0.824,73.333,311742.000,1.000
4.231,7.636,4.468,5.099,7.430,4.656,11.969,10.904,-0.016,0.947,-0.261,-0.549,-1.404,0.916,73.333,311743.000,1.000
5.195,10.105,5.069,4.388,9.240,6.881,12.907,12.304,-0.018,0.946,-0.262,-0.458,-1.373,0.793,73.333,311744.000,1.000
5.050,10.979,4.099,2.254,8.664,7.812,10.961,9.262,-0.016,0.946,-0.261,-0.458,-1.373,0.854,73.333,311745.000,1.000
4.092,9.939,1.940,-0.721,5.894,6.410,6.335,3.072,-0.017,0.946,-0.261,-0.488,-1.373,0.793,73.333,311746.000,1.000
3.130,7.635,-0.242,-3.394,2.397,3.360,1.044,-3.022,-0.016,0.945,-0.262,-0.427,-1.373,0.702,73.333,311747.000,1.000
2.968,5.431,-1.233,-4.700,0.077,0.838,-2.049,-5.854,-0.016,0.944,-0.263,-0.305,-1.404,0.702,73.333,311748.000,1.000
3.848,4.482,-0.322,-4.278,-0.090,0.373,-1.662,-4.439,-0.016,0.946,-0.263,-0.275,-1.373,0.763,73.333,311749.000,1.000
5.321,5.070,2.094,-2.552,1.457,1.607,0.791,-0.235,-0.014,0.947,-0.263,-0.153,-1.404,0.763,73.333,311750.000,1.000
6.728,6.750,5.131,-0.124,3.686,3.229,3.237,4.737,-0.016,0.948,-0.265,-0.214,-1.404,0.732,73.333,311751.000,1.000
7.646,8.762,7.846,2.454,5.666,4.219,4.622,8.982,-0.018,0.947,-0.267,-0.214,-1.434,0.641,73.333,311752.000,1.000
7.957,10.359,9.462,4.542,6.686,4.298,4.751,11.328,-0.017,0.947,-0.263,-0.153,-1.404,0.580,73.333,311753.000,1.000
7.729,11.089,9.812,5.632,6.456,3.943,4.047,11.297,-0.017,0.945,-0.261,-0.275,-1.434,0.580,73.333,311754.000,1.000
7.102,10.877,9.044,5.594,5.242,3.962,3.320,9.578,-0.016,0.946,-0.264,-0.305,-1.495,0.488,73.333,311755.000,1.000
6.176,9.806,7.587,4.582,3.382,4.390,2.846,7.103,-0.016,0.946,-0.265,-0.397,-1.404,0.488,73.333,311756.000,1.000
4.930,7.925,5.808,2.771,0.866,4.097,1.538,3.900,-0.015,0.950,-0.263,-0.275,-1.465,0.397,73.333,311757.000,1.000
3.444,5.533,4.133,0.645,-2.041,2.306,-1.453,0.072,-0.015,0.950,-0.261,-0.305,-1.373,0.458,73.333,311758.000,1.000
2.044,3.261,3.280,-0.863,-4.381,-0.308,-5.052,-3.066,-0.016,0.950,-0.262,-0.305,-1.465,0.397,73.333,311759.000,1.000
0.934,1.509,3.366,-1.134,-5.370,-2.663,-7.719,-4.253,-0.015,0.950,-0.263,-0.397,-1.434,0.458,73.333,311760.000,1.000
-0.044,0.212,3.938,-0.342,-5.046,-4.193,-8.924,-3.528,-0.013,0.952,-0.263,-0.397,-1.343,0.397,73.333,311761.000,1.000
-1.125,-0.752,4.382,0.918,-3.802,-4.538,-8.738,-1.544,-0.014,0.952,-0.261,-0.488,-1.373,0.519,73.333,311762.000,1.000
-2.316,-1.269,4.333,2.141,-1.893,-3.366,-7.071,1.352,-0.014,0.952,-0.263,-0.580,-1.434,0.427,73.333,311763.000,1.000
-3.537,-1.262,3.838,2.919,0.258,-0.899,-4.064,4.655,-0.013,0.952,-0.263,-0.610,-1.434,0.458,73.333,311764.000,1.000
-4.853,-1.008,2.736,2.769,1.683,1.735,-1.078,6.971,-0.015,0.951,-0.265,-0.824,-1.434,0.519,73.333,311765.000,1.000
-6.286,-0.914,1.030,1.523,1.443,3.149,0.054,6.892,-0.016,0.950,-0.267,-0.793,-1.373,0.458,73.333,311766.000,1.000
-7.536,-1.069,-0.860,-0.297,-0.388,2.863,-1.239,4.468,-0.017,0.948,-0.266,-0.854,-1.434,0.458,73.333,311767.000,1.000
-7.998,-1.104,-2.174,-1.671,-2.525,1.716,-3.583,1.412,-0.017,0.949,-0.264,-0.916,-1.373,0.427,73.333,311768.000,1.000
-7.158,-0.600,-2.101,-1.786,-3.490,0.993,-4.861,-0.276,-0.017,0.950,-0.265,-0.977,-1.465,0.366,73.333,311769.000,1.000
-5.045,0.435,-0.650,-0.706,-2.809,1.350,-4.123,0.125,-0.017,0.949,-0.266,-0.824,-1.434,0.305,73.333,311770.000,1.000
-2.186,1.632,1.590,0.821,-1.151,2.616,-1.867,1.897,-0.017,0.950,-0.261,-0.946,-1.404,0.336,73.333,311771.000,1.000
0.665,2.431,3.734,1.886,0.213,3.842,0.412,3.501,-0.017,0.948,-0.263,-0.977,-1.404,0.305,73.333,311772.000,1.000
2.718,2.166,4.866,1.779,-0.056,3.294,0.607,3.254,-0.016,0.949,-0.263,-0.977,-1.495,0.305,73.333,311773.000,1.000
3.513,0.490,4.704,0.404,-2.586,-0.446,-2.843,0.274,-0.017,0.948,-0.263,-1.007,-1.465,0.427,73.333,311774.000,1.000
3.298,-2.062,3.708,-1.485,-6.514,-6.660,-9.368,-4.645,-0.018,0.946,-0.265,-1.099,-1.465,0.397,73.333,311775.000,1.000
2.902,-4.232,3.094,-2.574,-9.787,-12.338,-15.866,-9.182,-0.017,0.946,-0.266,-0.946,-1.556,0.397,73.333,311776.000,1.000
3.007,-4.974,3.807,-1.947,-10.600,-14.288,-18.781,-10.991,-0.017,0.947,-0.262,-1.038,-1.465,0.427,73.333,311777.000,1.000
3.694,-4.099,5.777,0.364,-8.415,-11.128,-16.160,-8.911,-0.017,0.948,-0.263,-1.007,-1.465,0.366,73.333,311778.000,1.000
4.658,-2.069,8.372,3.706,-3.811,-3.609,-8.044,-3.202,-0.019,0.949,-0.262,-0.916,-1.556,0.336,73.333,311779.000,1.000
5.505,0.367,10.586,7.117,1.867,5.848,3.291,4.372,-0.021,0.947,-0.261,-0.793,-1.526,0.275,73.333,311780.000,1.000
5.668,2.141,11.391,9.403,6.591,13.634,13.616,10.986,-0.020,0.948,-0.263,-0.854,-1.556,0.275,73.333,311781.000,1.000
4.335,1.862,9.695,9.295,8.112,16.088,18.422,14.028,-0.018,0.950,-0.264,-0.946,-1.495,0.305,73.333,311782.000,1.000
0.983,-1.363,4.979,6.186,5.277,11.651,15.571,12.554,-0.015,0.948,-0.264,-0.854,-1.648,0.305,73.333,311783.000,1.000
-3.908,-6.833,-1.544,0.906,-0.807,2.405,7.019,7.886,-0.017,0.945,-0.262,-0.763,-1.648,0.366,73.333,311784.000,1.000
-9.003,-12.367,-7.531,-4.582,-7.163,-6.984,-2.243,2.883,-0.017,0.944,-0.262,-0.824,-1.678,0.427,73.333,311785.000,1.000
-13.079,-15.756,-10.906,-8.412,-10.898,-12.327,-7.343,0.184,-0.016,0.944,-0.260,-0.824,-1.648,0.488,73.333,311786.000,1.000
-15.742,-16.108,-11.286,-10.022,-11.127,-12.217,-6.810,0.161,-0.016,0.943,-0.260,-0.702,-1.678,0.519,73.333,311787.000,1.000
-17.243,-13.957,-9.901,-10.208,-9.185,-8.071,-3.087,0.689,-0.017,0.943,-0.261,-0.580,-1.617,0.580,73.333,311788.000,1.000
-17.907,-10.572,-8.209,-10.192,-7.258,-2.768,0.017,-0.628,-0.018,0.942,-0.262,-0.641,-1.587,0.610,73.333,311789.000,1.000
-17.751,-7.204,-7.151,-10.652,-6.675,1.078,0.234,-4.103,-0.016,0.942,-0.261,-0.641,-1.587,0.580,73.333,311790.000,1.000
-16.365,-4.487,-6.494,-11.205,-7.102,2.465,-1.767,-7.653,-0.016,0.945,-0.265,-0.458,-1.495,0.641,73.333,311791.000,1.000
-13.296,-2.329,-5.316,-10.839,-7.099,2.154,-3.442,-8.537,-0.016,0.945,-0.261,-0.397,-1.495,0.671,73.333,311792.000,1.000
-8.683,-0.333,-2.988,-8.821,-5.379,1.745,-2.476,-5.323,-0.017,0.947,-0.261,-0.427,-1.404,0.702,73.333,311793.000,1.000
-3.600,1.556,0.295,-5.455,-1.951,2.422,1.478,0.853,-0.018,0.946,-0.263,-0.397,-1.465,0.763,73.333,311794.000,1.000
0.271,2.774,3.228,-2.237,1.604,4.210,6.041,6.290,-0.018,0.948,-0.264,-0.366,-1.526,0.732,73.333,311795.000,1.000
1.660,2.719,4.586,-0.791,3.340,6.276,7.979,7.188,-0.017,0.948,-0.261,-0.305,-1.587,0.763,73.333,311796.000,1.000
0.558,1.408,4.120,-1.583,2.524,7.418,5.778,2.725,-0.020,0.950,-0.261,-0.305,-1.587,0.641,73.333,311797.000,1.000
-1.934,-0.664,2.379,-3.759,-0.072,6.320,0.324,-4.517,-0.018,0.952,-0.262,-0.366,-1.465,0.580,73.333,311798.000,1.000
-4.453,-3.007,0.217,-5.959,-3.039,2.407,-5.961,-10.801,-0.015,0.953,-0.262,-0.519,-1.434,0.580,73.333,311799.000,1.000
-6.048,-5.258,-1.849,-7.165,-5.213,-3.334,-10.702,-13.618,-0.015,0.951,-0.266,-0.580,-1.404,0.488,73.333,311800.000,1.000
-6.291,-7.036,-3.307,-6.911,-6.049,-8.773,-12.627,-12.421,-0.013,0.950,-0.267,-0.580,-1.312,0.519,73.333,311801.000,1.000
-5.247,-8.028,-3.792,-5.326,-5.648,-11.851,-11.801,-8.343,-0.012,0.948,-0.265,-0.763,-1.312,0.580,73.333,311802.000,1.000
-3.471,-8.224,-3.495,-3.128,-4.649,-11.637,-9.278,-3.635,-0.012,0.946,-0.264,-0.793,-1.190,0.610,73.333,311803.000,1.000
-1.748,-7.852,-2.880,-1.234,-3.773,-8.592,-6.301,-0.503,-0.010,0.942,-0.265,-0.702,-1.129,0.641,73.333,311804.000,1.000
-0.705,-7.105,-2.457,-0.220,-3.200,-4.007,-3.458,0.307,-0.014,0.941,-0.264,-0.702,-1.007,0.732,73.333,311805.000,1.000
-0.607,-6.113,-2.299,-0.080,-2.545,0.608,-0.430,-0.199,-0.017,0.940,-0.260,-0.702,-0.916,0.671,73.333,311806.000,1.000
-1.363,-5.048,-2.261,-0.504,-1.402,4.029,3.178,-0.526,-0.018,0.941,-0.260,-0.519,-0.916,0.610,73.333,311807.000,1.000
-2.514,-3.937,-2.193,-1.020,0.414,6.014,7.343,0.234,-0.018,0.944,-0.266,-0.336,-0.916,0.702,73.333,311808.000,1.000
-3.423,-2.629,-1.821,-1.084,2.875,7.344,11.665,2.216,-0.018,0.949,-0.269,-0.244,-0.916,0.763,73.333,311809.000,1.000
-3.788,-1.125,-1.286,-0.509,5.593,8.782,15.156,4.782,-0.018,0.951,-0.266,-0.336,-0.885,0.793,73.333,311810.000,1.000
-3.838,0.285,-0.902,0.375,7.912,10.293,16.747,6.855,-0.015,0.952,-0.265,-0.275,-0.916,0.854,73.333,311811.000,1.000
-4.082,1.230,-0.936,0.915,9.241,11.286,15.956,7.471,-0.015,0.953,-0.266,-0.366,-0.824,0.824,73.333,311812.000,1.000
-4.901,1.500,-1.518,0.542,9.340,11.326,13.115,6.375,-0.016,0.950,-0.267,-0.427,-0.824,0.916,73.333,311813.000,1.000
-6.302,1.147,-2.425,-0.873,8.323,10.533,9.222,4.118,-0.015,0.949,-0.264,-0.549,-0.793,0.916,73.333,311814.000,1.000
-7.917,0.435,-3.426,-3.017,6.435,9.327,5.244,1.407,-0.018,0.949,-0.266,-0.549,-0.916,0.916,73.333,311815.000,1.000
-9.083,-0.139,-4.045,-5.115,4.163,8.235,2.132,-0.985,-0.020,0.949,-0.267,-0.488,-0.793,0.885,73.333,311816.000,1.000
-9.049,0.111,-3.665,-6.093,2.487,8.098,1.203,-1.864,-0.021,0.948,-0.264,-0.488,-0.854,0.916,73.333,311817.000,1.000
-7.366,1.632,-2.042,-5.202,2.361,9.719,3.439,-0.303,-0.022,0.950,-0.263,-0.488,-0.916,0.702,73.333,311818.000,1.000
-4.213,4.079,0.416,-2.701,3.697,12.778,7.998,3.040,-0.023,0.954,-0.261,-0.610,-0.885,0.641,73.333,311819.000,1.000
-0.358,6.354,2.527,0.218,5.262,15.649,12.052,6.092,-0.022,0.957,-0.261,-0.641,-0.946,0.519,73.333,311820.000,1.000
3.301,7.397,3.408,2.411,5.796,16.733,12.995,7.187,-0.020,0.955,-0.260,-0.885,-1.129,0.427,73.333,311821.000,1.000
6.115,6.889,2.998,3.481,4.976,15.668,10.316,6.187,-0.021,0.958,-0.260,-1.038,-1.160,0.244,73.333,311822.000,1.000
7.802,5.290,1.832,3.723,3.404,13.181,5.503,4.126,-0.022,0.958,-0.262,-1.221,-1.221,0.183,73.333,311823.000,1.000
8.439,3.436,0.771,3.720,1.962,10.180,0.686,2.245,-0.020,0.957,-0.261,-1.465,-1.251,0.092,73.333,311824.000,1.000
8.342,2.042,0.247,3.856,1.159,7.175,-2.948,1.057,-0.018,0.957,-0.261,-1.587,-1.343,0.061,73.333,311825.000,1.000
7.953,1.492,0.356,4.260,1.035,4.445,-5.186,0.403,-0.018,0.955,-0.260,-1.770,-1.434,0.031,73.333,311826.000,1.000
7.737,1.919,1.067,5.044,1.581,2.491,-5.836,0.308,-0.019,0.955,-0.262,-1.831,-1.465,-0.031,73.333,311827.000,1.000
7.966,3.183,2.250,6.319,2.796,1.769,-4.693,1.141,-0.019,0.953,-0.262,-1.892,-1.495,-0.031,73.333,311828.000,1.000
8.383,4.538,3.590,7.756,4.089,1.646,-2.526,2.523,-0.019,0.950,-0.261,-2.014,-1.556,0.031,73.333,311829.000,1.000
8.233,4.742,4.198,8.426,4.263,0.397,-1.207,2.867,-0.018,0.951,-0.263,-1.984,-1.587,0.153,73.333,311830.000,1.000
6.959,3.128,3.480,7.721,2.757,-2.955,-1.820,1.092,-0.019,0.949,-0.258,-2.014,-1.617,0.092,73.333,311831.000,1.000
4.740,0.337,1.703,6.083,0.475,-7.329,-3.557,-1.925,-0.017,0.946,-0.259,-1.984,-1.617,0.214,73.333,311832.000,1.000
2.268,-2.263,-0.375,4.539,-1.034,-10.675,-4.860,-4.176,-0.018,0.943,-0.260,-1.801,-1.617,0.214,73.333,311833.000,1.000
0.258,-3.603,-1.867,3.885,-0.817,-11.813,-4.778,-3.979,-0.018,0.942,-0.262,-1.740,-1.740,0.275,73.333,311834.000,1.000
-0.809,-3.324,-2.220,4.360,1.129,-10.845,-3.130,-0.727,-0.018,0.942,-0.260,-1.709,-1.678,0.336,73.333,311835.000,1.000
-0.761,-1.690,-1.195,5.675,3.992,-8.515,-0.195,4.530,-0.020,0.944,-0.259,-1.587,-1.709,0.336,73.333,311836.000,1.000
0.090,0.466,0.688,6.928,6.293,-5.909,2.780,8.912,-0.021,0.943,-0.255,-1.648,-1.740,0.397,73.333,311837.000,1.000
0.911,1.964,2.143,6.989,6.548,-4.229,3.832,9.395,-0.020,0.943,-0.255,-1.404,-1.740,0.458,73.333,311838.000,1.000
0.752,1.885,2.116,5.360,4.355,-4.039,2.104,5.290,-0.020,0.941,-0.258,-1.404,-1.709,0.549,73.333,311839.000,1.000
-0.827,0.095,0.275,2.547,0.721,-4.988,-1.391,-1.262,-0.020,0.942,-0.260,-1.221,-1.709,0.549,73.333,311840.000,1.000
-3.422,-2.773,-2.706,-0.298,-2.736,-6.570,-4.915,-6.938,-0.019,0.942,-0.259,-1.099,-1.740,0.671,73.333,311841.000,1.000
-6.025,-5.746,-5.661,-2.089,-4.772,-8.560,-7.371,-9.250,-0.019,0.940,-0.260,-1.129,-1.801,0.641,73.333,311842.000,1.000
-7.562,-7.841,-7.571,-2.263,-4.835,-10.393,-8.229,-7.444,-0.016,0.940,-0.260,-0.854,-1.678,0.641,73.333,311843.000,1.000
-7.412,-8.385,-7.837,-0.935,-3.094,-10.868,-7.034,-2.429,-0.015,0.940,-0.261,-0.763,-1.617,0.702,73.333,311844.000,1.000
-5.792,-7.406,-6.843,1.077,-0.484,-9.068,-4.007,3.673,-0.014,0.939,-0.259,-0.732,-1.465,0.732,73.333,311845.000,1.000
-3.685,-5.691,-5.531,2.714,1.661,-5.400,-0.333,8.568,-0.014,0.940,-0.258,-0.671,-1.587,0.793,73.333,311846.000,1.000
-2.272,-4.277,-4.797,3.312,2.458,-1.402,2.595,11.054,-0.015,0.940,-0.259,-0.427,-1.526,0.793,73.333,311847.000,1.000
-2.185,-3.743,-5.033,2.910,1.980,1.393,4.012,11.368,-0.016,0.941,-0.257,-0.336,-1.495,0.885,73.333,311848.000,1.000
-3.238,-3.991,-5.887,1.972,0.857,2.233,3.713,10.206,-0.017,0.942,-0.257,-0.244,-1.465,0.885,73.333,311849.000,1.000
-4.795,-4.602,-6.944,0.864,-0.375,1.241,1.704,7.790,-0.014,0.944,-0.260,-0.336,-1.404,0.946,73.333,311850.000,1.000
-6.269,-5.261,-7.933,-0.298,-1.529,-0.807,-1.443,4.111,-0.014,0.946,-0.260,-0.183,-1.404,0.916,73.333,311851.000,1.000
-7.404,-5.971,-8.870,-1.578,-2.767,-3.094,-4.879,-0.574,-0.015,0.947,-0.261,-0.214,-1.190,0.916,73.333,311852.000,1.000
-8.103,-6.816,-9.780,-2.832,-4.204,-5.218,-7.955,-5.339,-0.015,0.948,-0.262,-0.153,-1.129,0.916,73.333,311853.000,1.000
-8.087,-7.474,-10.103,-3.354,-5.334,-6.845,-9.782,-8.444,-0.016,0.947,-0.259,-0.214,-1.038,1.038,73.333,311854.000,1.000
-7.133,-7.403,-9.328,-2.474,-5.368,-7.584,-9.580,-8.393,-0.015,0.949,-0.259,-0.214,-1.007,1.007,73.333,311855.000,1.000
-5.670,-6.674,-7.690,-0.551,-4.455,-7.843,-7.967,-5.627,-0.014,0.949,-0.258,-0.244,-0.824,0.946,73.333,311856.000,1.000
-4.707,-6.165,-6.268,0.997,-3.897,-8.861,-7.066,-2.640,-0.014,0.948,-0.260,-0.183,-0.793,1.038,73.333,311857.000,1.000
-4.914,-6.541,-5.999,1.007,-4.655,-11.070,-8.360,-1.711,-0.013,0.950,-0.263,-0.244,-0.763,0.977,73.333,311858.000,1.000
-5.966,-7.433,-6.612,-0.312,-6.157,-13.159,-10.877,-2.774,-0.013,0.950,-0.261,-0.305,-0.671,1.007,73.333,311859.000,1.000
-6.867,-7.807,-7.156,-1.673,-6.792,-13.144,-11.985,-3.734,-0.013,0.951,-0.262,-0.336,-0.641,1.007,73.333,311860.000,1.000
-6.615,-6.770,-6.599,-1.696,-5.153,-9.863,-9.201,-2.249,-0.014,0.953,-0.263,-0.488,-0.610,1.068,73.333,311861.000,1.000
-4.779,-4.257,-4.557,0.066,-1.169,-4.020,-2.247,2.294,-0.015,0.953,-0.265,-0.519,-0.580,1.099,73.333,311862.000,1.000
-1.928,-1.379,-1.862,2.550,3.304,1.454,5.520,7.666,-0.015,0.953,-0.263,-0.549,-0.641,1.038,73.333,311863.000,1.000
0.606,0.185,-0.055,3.774,5.400,3.042,8.792,9.932,-0.018,0.955,-0.263,-0.549,-0.580,1.038,73.333,311864.000,1.000
1.710,-0.418,-0.369,2.388,3.551,-0.298,4.758,6.587,-0.018,0.956,-0.261,-0.641,-0.519,1.038,73.333,311865.000,1.000
1.317,-2.531,-2.514,-1.140,-1.058,-6.088,-3.999,-1.007,-0.018,0.956,-0.260,-0.824,-0.458,1.068,73.333,311866.000,1.000
0.182,-4.763,-5.147,-5.041,-5.558,-10.521,-11.865,-8.609,-0.019,0.953,-0.257,-1.038,-0.488,1.068,73.333,311867.000,1.000
-0.843,-6.056,-7.079,-7.625,-7.611,-11.133,-14.805,-12.356,-0.021,0.953,-0.258,-1.129,-0.641,0.977,73.333,311868.000,1.000
-1.208,-6.030,-7.545,-8.063,-6.494,-7.785,-12.198,-10.767,-0.021,0.951,-0.260,-1.129,-0.610,0.885,73.333,311869.000,1.000
-0.802,-4.936,-6.524,-6.466,-2.847,-2.214,-5.832,-4.512,-0.017,0.950,-0.259,-1.221,-0.671,0.824,73.333,311870.000,1.000
-0.016,-3.474,-4.630,-3.723,1.847,3.187,1.663,4.193,-0.018,0.948,-0.261,-1.038,-0.793,0.916,73.333,311871.000,1.000
0.361,-2.564,-3.014,-1.390,5.511,6.476,7.157,11.498,-0.016,0.946,-0.265,-0.977,-0.732,0.854,73.333,311872.000,1.000
-0.477,-3.037,-2.950,-1.058,6.074,6.411,7.516,13.203,-0.017,0.949,-0.265,-0.885,-0.641,0.916,73.333,311873.000,1.000
-2.770,-5.112,-4.834,-3.157,2.865,2.778,1.778,8.013,-0.015,0.950,-0.261,-0.763,-0.824,0.885,73.333,311874.000,1.000
-5.821,-7.938,-7.859,-6.388,-2.446,-2.841,-7.389,-0.853,-0.016,0.951,-0.262,-0.793,-0.824,0.916,73.333,311875.000,1.000
-8.257,-9.882,-10.209,-8.546,-6.790,-7.427,-15.214,-7.994,-0.015,0.950,-0.266,-0.824,-0.763,1.007,73.333,311876.000,1.000
-8.931,-9.680,-10.373,-8.220,-7.943,-8.446,-18.183,-9.921,-0.013,0.948,-0.262,-0.916,-0.702,1.129,73.333,311877.000,1.000
-7.668,-7.342,-8.299,-5.691,-5.862,-5.431,-15.839,-6.983,-0.013,0.944,-0.264,-0.854,-0.732,1.190,73.333,311878.000,1.000
-5.228,-4.018,-5.075,-2.358,-2.209,0.010,-10.129,-2.017,-0.015,0.941,-0.264,-0.702,-0.671,1.190,73.333,311879.000,1.000
-2.733,-1.209,-2.253,0.203,0.861,5.175,-4.313,1.776,-0.016,0.939,-0.266,-0.397,-0.549,1.068,73.333,311880.000,1.000
-0.981,0.118,-0.789,1.031,1.775,7.597,-1.463,2.258,-0.018,0.942,-0.263,-0.305,-0.519,1.068,73.333,311881.000,1.000
-0.048,0.057,-0.608,0.278,0.433,6.447,-2.488,-0.541,-0.021,0.944,-0.261,-0.122,-0.641,0.916,73.333,311882.000,1.000
0.663,-0.338,-0.795,-0.870,-1.662,3.158,-5.253,-4.223,-0.023,0.944,-0.259,-0.031,-0.824,0.885,73.333,311883.000,1.000
1.850,0.093,-0.160,-1.128,-2.641,0.298,-6.377,-5.929,-0.022,0.946,-0.260,-0.061,-0.916,0.702,73.333,311884.000,1.000
3.669,1.632,1.611,-0.187,-1.881,-0.504,-4.612,-4.975,-0.022,0.948,-0.258,-0.122,-0.946,0.671,73.333,311885.000,1.000
5.712,3.563,3.960,1.246,-0.329,0.401,-1.836,-3.156,-0.021,0.950,-0.261,-0.031,-1.099,0.519,73.333,311886.000,1.000
7.430,4.876,6.013,2.211,0.584,1.432,-0.917,-2.632,-0.022,0.950,-0.263,-0.122,-1.190,0.458,73.333,311887.000,1.000
8.527,5.080,7.170,2.320,0.269,1.285,-2.978,-3.774,-0.022,0.950,-0.261,-0.183,-1.282,0.458,73.333,311888.000,1.000
9.057,4.416,7.515,1.976,-0.722,-0.349,-6.692,-5.174,-0.022,0.951,-0.264,-0.153,-1.404,0.458,73.333,311889.000,1.000
9.172,3.419,7.276,1.751,-1.531,-3.109,-10.000,-5.520,-0.020,0.950,-0.264,-0.153,-1.465,0.488,73.333,311890.000,1.000
8.997,2.563,6.811,1.979,-1.684,-6.321,-11.575,-4.609,-0.020,0.951,-0.264,-0.275,-1.587,0.336,73.333,311891.000,1.000
8.782,2.198,6.591,2.802,-1.119,-9.217,-11.192,-2.911,-0.019,0.950,-0.265,-0.275,-1.556,0.214,73.333,311892.000,1.000
8.946,2.533,6.884,4.183,-0.065,-11.088,-9.401,-1.112,-0.020,0.950,-0.263,-0.305,-1.648,0.214,73.333,311893.000,1.000
9.744,3.585,7.676,5.796,1.083,-11.286,-6.725,0.032,-0.018,0.949,-0.261,-0.427,-1.648,0.275,73.333,311894.000,1.000
10.893,5.083,8.492,7.077,1.967,-9.541,-3.492,0.055,-0.019,0.950,-0.263,-0.458,-1.648,0.305,73.333,311895.000,1.000
11.763,6.543,8.940,7.693,2.490,-6.362,0.001,-0.660,-0.017,0.949,-0.262,-0.519,-1.678,0.427,73.333,311896.000,1.000
11.804,7.457,8.944,7.702,2.732,-2.948,3.251,-1.305,-0.019,0.950,-0.259,-0.336,-1.770,0.427,73.333,311897.000,1.000
10.759,7.433,8.492,7.179,2.585,-0.806,5.411,-1.733,-0.019,0.950,-0.263,-0.427,-1.770,0.549,73.333,311898.000,1.000
8.813,6.394,7.696,6.126,1.825,-0.978,5.853,-2.376,-0.019,0.948,-0.262,-0.458,-1.831,0.702,73.333,311899.000,1.000
6.648,4.791,6.728,4.721,0.588,-3.129,4.803,-3.333,-0.020,0.949,-0.262,-0.549,-1.862,0.671,73.333,311900.000,1.000
5.172,3.534,6.102,3.472,-0.452,-5.516,3.407,-4.035,-0.021,0.950,-0.262,-0.458,-1.953,0.732,73.333,311901.000,1.000
4.945,3.543,6.370,2.959,-0.399,-5.995,3.192,-3.645,-0.022,0.950,-0.260,-0.488,-2.014,0.793,73.333,311902.000,1.000
5.816,5.141,7.544,3.390,1.225,-3.442,5.028,-1.801,-0.020,0.949,-0.262,-0.427,-1.923,0.824,73.333,311903.000,1.000
7.040,7.627,9.058,4.341,3.791,1.076,8.044,0.729,-0.020,0.950,-0.263,-0.549,-2.014,0.824,73.333,311904.000,1.000
7.689,9.513,9.865,4.958,5.761,4.735,9.959,2.397,-0.020,0.948,-0.263,-0.519,-2.106,0.824,73.333,311905.000,1.000
7.156,9.532,9.303,4.671,5.898,5.132,9.223,2.235,-0.020,0.946,-0.264,-0.549,-2.167,0.885,73.333,311906.000,1.000
5.414,7.517,7.486,3.620,4.205,2.039,6.174,0.622,-0.019,0.947,-0.263,-0.580,-2.106,0.854,73.333,311907.000,1.000
2.988,4.519,5.089,2.519,1.914,-2.594,2.560,-0.988,-0.016,0.947,-0.260,-0.610,-1.984,0.824,73.333,311908.000,1.000
0.690,2.102,3.131,2.123,0.639,-6.022,0.472,-1.023,-0.016,0.945,-0.261,-0.610,-2.075,0.916,73.333,311909.000,1.000
-0.892,1.216,2.134,2.486,1.053,-6.711,0.547,0.760,-0.014,0.946,-0.263,-0.641,-2.075,0.916,73.333,311910.000,1.000
-1.669,1.697,1.949,2.900,2.337,-5.227,1.391,2.844,-0.016,0.947,-0.264,-0.671,-2.014,0.885,73.333,311911.000,1.000
-1.893,2.685,2.047,2.577,3.060,-3.212,1.257,3.314,-0.016,0.946,-0.262,-0.671,-2.045,0.763,73.333,311912.000,1.000
-1.867,3.350,1.895,1.276,2.418,-1.918,-0.263,1.418,-0.015,0.947,-0.261,-0.610,-1.953,0.702,73.333,311913.000,1.000
-1.725,3.423,1.467,-0.596,0.716,-1.445,-2.231,-2.070,-0.016,0.947,-0.262,-0.488,-1.923,0.732,73.333,311914.000,1.000
-1.417,3.272,1.092,-2.264,-0.922,-0.809,-3.214,-5.448,-0.016,0.947,-0.265,-0.519,-1.892,0.702,73.333,311915.000,1.000
-0.994,3.328,1.090,-3.077,-1.484,0.931,-2.147,-7.067,-0.015,0.948,-0.262,-0.519,-1.862,0.610,73.333,311916.000,1.000
-0.880,3.417,1.174,-3.100,-1.052,3.213,0.344,-6.562,-0.014,0.946,-0.263,-0.519,-1.801,0.488,73.333,311917.000,1.000
-1.524,2.993,0.646,-2.933,-0.558,4.297,2.084,-4.915,-0.014,0.946,-0.263,-0.488,-1.648,0.488,73.333,311918.000,1.000
-2.790,1.944,-0.561,-2.848,-0.528,3.249,1.719,-2.992,-0.014,0.947,-0.264,-0.549,-1.617,0.366,73.333,311919.000,1.000
-4.083,0.662,-2.056,-2.737,-0.809,0.807,-0.276,-1.201,-0.015,0.946,-0.262,-0.519,-1.587,0.336,73.333,311920.000,1.000
-4.944,-0.504,-3.512,-2.752,-1.364,-1.705,-2.793,-0.422,-0.016,0.947,-0.264,-0.549,-1.556,0.336,73.333,311921.000,1.000
-5.258,-1.417,-4.816,-3.288,-2.333,-3.420,-4.947,-1.540,-0.017,0.947,-0.264,-0.458,-1.434,0.275,73.333,311922.000,1.000
-5.071,-1.941,-5.828,-4.354,-3.456,-4.022,-6.049,-4.102,-0.017,0.947,-0.263,-0.610,-1.434,0.275,73.333,311923.000,1.000
-4.535,-1.981,-6.244,-5.509,-4.303,-3.736,-5.949,-6.814,-0.018,0.949,-0.263,-0.519,-1.312,0.336,73.333,311924.000,1.000
-3.941,-1.633,-6.078,-6.365,-4.846,-3.142,-5.306,-8.995,-0.019,0.947,-0.262,-0.580,-1.343,0.305,73.333,311925.000,1.000
-3.510,-1.073,-5.496,-6.747,-5.357,-2.760,-4.858,-10.690,-0.019,0.948,-0.260,-0.519,-1.343,0.305,73.333,311926.000,1.000
-3.203,-0.455,-4.660,-6.617,-6.017,-2.817,-4.830,-11.969,-0.019,0.950,-0.260,-0.519,-1.282,0.275,73.333,311927.000,1.000
-2.732,0.147,-3.707,-5.994,-6.655,-3.114,-4.841,-12.501,-0.019,0.948,-0.262,-0.549,-1.282,0.275,73.333,311928.000,1.000
-1.719,0.781,-2.488,-4.886,-6.783,-3.109,-4.049,-11.641,-0.019,0.952,-0.264,-0.580,-1.343,0.244,73.333,311929.000,1.000
0.033,1.500,-0.872,-3.414,-5.933,-2.350,-1.904,-8.930,-0.019,0.951,-0.262,-0.732,-1.343,0.244,73.333,311930.000,1.000
2.313,2.156,1.104,-1.878,-4.080,-0.911,1.213,-4.543,-0.019,0.952,-0.261,-0.824,-1.312,0.244,73.333,311931.000,1.000
4.510,2.363,3.045,-0.730,-1.839,0.624,3.999,0.407,-0.019,0.951,-0.263,-0.977,-1.312,0.183,73.333,311932.000,1.000
5.969,1.827,4.377,-0.280,-0.028,1.746,5.267,4.344,-0.020,0.950,-0.260,-1.038,-1.312,0.305,73.333,311933.000,1.000
6.390,0.746,5.037,-0.344,1.038,2.564,5.296,6.412,-0.021,0.951,-0.261,-1.068,-1.312,0.336,73.333,311934.000,1.000
5.789,-0.335,5.258,-0.515,1.572,3.499,5.409,6.764,-0.019,0.951,-0.261,-1.068,-1.373,0.336,73.333,311935.000,1.000
4.215,-1.060,5.190,-0.704,1.715,4.587,6.275,5.818,-0.021,0.948,-0.261,-1.099,-1.434,0.366,73.333,311936.000,1.000
1.683,-1.544,4.704,-1.229,1.306,5.428,7.221,3.763,-0.021,0.949,-0.261,-1.221,-1.495,0.427,73.333,311937.000,1.000
-1.614,-2.208,3.523,-2.431,0.114,5.547,7.126,0.691,-0.021,0.949,-0.261,-1.190,-1.434,0.427,73.333,311938.000,1.000
-5.115,-3.415,1.700,-4.250,-1.885,4.364,5.341,-2.993,-0.020,0.947,-0.260,-1.251,-1.495,0.519,73.333,311939.000,1.000
-7.856,-5.040,-0.241,-5.991,-4.145,1.436,1.998,-6.109,-0.019,0.947,-0.258,-1.312,-1.434,0.427,73.333,311940.000,1.000
-8.773,-6.249,-1.209,-6.504,-5.490,-2.618,-1.718,-7.071,-0.019,0.948,-0.262,-1.312,-1.465,0.488,73.333,311941.000,1.000
-7.465,-6.132,-0.402,-5.164,-5.089,-6.072,-4.334,-5.547,-0.019,0.949,-0.262,-1.373,-1.373,0.580,73.333,311942.000,1.000
-4.717,-4.642,1.685,-2.603,-3.388,-7.495,-5.316,-3.190,-0.020,0.949,-0.263,-1.343,-1.373,0.641,73.333,311943.000,1.000
-2.011,-2.700,3.685,-0.189,-1.727,-6.902,-5.139,-2.131,-0.020,0.949,-0.260,-1.282,-1.404,0.580,73.333,311944.000,1.000
-0.511,-1.394,4.301,1.031,-1.202,-5.469,-4.727,-3.186,-0.019,0.948,-0.264,-1.373,-1.404,0.671,73.333,311945.000,1.000
-0.431,-1.159,3.263,0.952,-1.945,-4.335,-4.631,-5.473,-0.020,0.948,-0.263,-1.312,-1.526,0.641,73.333,311946.000,1.000
-1.120,-1.573,1.308,0.240,-3.160,-3.673,-4.461,-7.301,-0.020,0.946,-0.263,-1.251,-1.526,0.610,73.333,311947.000,1.000
-1.579,-1.761,-0.480,-0.204,-3.708,-2.829,-3.211,-7.316,-0.020,0.948,-0.267,-1.373,-1.465,0.671,73.333,311948.000,1.000
-1.122,-1.023,-1.140,0.185,-2.930,-1.211,-0.426,-5.384,-0.017,0.949,-0.264,-1.190,-1.434,0.610,73.333,311949.000,1.000
0.233,0.755,-0.457,1.216,-1.127,1.045,2.822,-2.881,-0.018,0.950,-0.260,-1.312,-1.465,0.702,73.333,311950.000,1.000
2.020,3.231,1.222,2.276,0.892,3.250,4.874,-1.526,-0.018,0.949,-0.260,-1.282,-1.434,0.763,73.333,311951.000,1.000
3.878,6.002,3.508,3.071,2.696,4.866,5.237,-1.625,-0.019,0.948,-0.261,-1.282,-1.465,0.732,73.333,311952.000,1.000
5.726,8.761,6.098,3.822,4.455,5.936,4.863,-1.911,-0.018,0.950,-0.259,-1.282,-1.373,0.702,73.333,311953.000,1.000
7.458,11.132,8.727,4.757,6.340,6.880,5.038,-1.125,-0.017,0.947,-0.260,-1.282,-1.434,0.763,73.333,311954.000,1.000
8.819,12.698,10.911,5.740,8.217,8.143,6.462,0.878,-0.016,0.950,-0.260,-1.190,-1.312,0.732,73.333,311955.000,1.000
9.797,13.467,12.473,6.681,10.166,10.188,9.630,3.939,-0.016,0.948,-0.260,-1.160,-1.221,0.854,73.333,311956.000,1.000
10.780,13.968,13.781,7.807,12.718,13.276,14.925,8.352,-0.014,0.949,-0.261,-1.251,-1.282,0.854,73.333,311957.000,1.000
12.077,14.717,15.163,9.207,16.078,16.932,21.539,13.839,-0.014,0.948,-0.261,-1.190,-1.160,0.854,73.333,311958.000,1.000
13.450,15.695,16.526,10.426,19.387,19.907,27.105,18.486,-0.012,0.947,-0.261,-1.160,-1.129,0.977,73.333,311959.000,1.000
14.237,16.319,17.230,10.723,21.145,20.804,29.038,19.806,-0.014,0.946,-0.264,-1.160,-1.007,0.946,73.333,311960.000,1.000
13.958,15.917,16.766,9.784,20.384,18.870,26.492,16.970,-0.013,0.947,-0.263,-1.129,-0.916,0.946,73.333,311961.000,1.000
12.675,14.224,15.157,7.941,17.261,14.493,20.743,11.391,-0.014,0.948,-0.260,-1.038,-0.916,1.038,73.333,311962.000,1.000
10.797,11.494,12.745,5.797,12.741,9.030,13.920,5.406,-0.017,0.948,-0.262,-1.038,-0.824,1.099,73.333,311963.000,1.000
8.733,8.346,10.125,3.898,8.124,4.163,7.915,0.962,-0.017,0.948,-0.262,-1.038,-0.824,0.977,73.333,311964.000,1.000
6.740,5.504,7.774,2.588,4.635,1.227,3.930,-1.010,-0.016,0.948,-0.262,-1.038,-0.824,0.916,73.333,311965.000,1.000
4.975,3.534,5.977,2.026,3.020,0.832,2.531,-0.598,-0.019,0.948,-0.264,-0.916,-0.702,1.007,73.333,311966.000,1.000
3.543,2.639,4.754,2.153,3.287,2.736,3.704,1.513,-0.019,0.947,-0.262,-0.946,-0.732,0.977,73.333,311967.000,1.000
2.397,2.499,3.690,2.534,4.621,5.641,6.484,4.433,-0.019,0.948,-0.262,-0.916,-0.641,0.916,73.333,311968.000,1.000
1.269,2.408,2.217,2.436,5.650,7.590,9.012,7.224,-0.017,0.948,-0.260,-0.824,-0.671,0.977,73.333,311969.000,1.000
-0.109,1.840,-0.079,1.324,5.309,7.542,9.733,9.057,-0.019,0.949,-0.261,-0.763,-0.732,0.977,73.333,311970.000,1.000
-1.757,0.888,-2.959,-0.654,3.569,6.272,8.559,9.524,-0.017,0.950,-0.260,-0.763,-0.671,0.916,73.333,311971.000,1.000
-3.496,-0.003,-5.683,-2.842,1.152,5.208,6.300,8.664,-0.016,0.948,-0.261,-0.702,-0.641,1.007,73.333,311972.000,1.000
-5.034,-0.436,-7.532,-4.494,-1.048,5.140,3.708,6.920,-0.017,0.949,-0.262,-0.702,-0.641,0.916,73.333,311973.000,1.000
-5.899,-0.116,-7.855,-4.929,-2.205,6.220,1.584,5.197,-0.017,0.951,-0.262,-0.702,-0.641,0.946,73.333,311974.000,1.000
-5.599,1.098,-6.428,-3.780,-1.891,8.185,0.546,4.367,-0.015,0.950,-0.260,-0.763,-0.580,1.038,73.333,311975.000,1.000
-3.984,2.999,-3.580,-1.288,-0.474,10.341,0.411,4.429,-0.016,0.950,-0.258,-0.671,-0.458,0.946,73.333,311976.000,1.000
-1.438,5.040,-0.121,1.707,1.083,11.902,0.328,4.393,-0.015,0.950,-0.258,-0.763,-0.366,0.946,73.333,311977.000,1.000
1.345,6.713,2.980,4.291,2.044,12.640,-0.207,3.354,-0.018,0.949,-0.256,-0.732,-0.549,1.038,73.333,311978.000,1.000
3.773,7.872,5.241,6.048,2.463,13.029,-0.585,1.607,-0.017,0.949,-0.260,-0.793,-0.610,1.007,73.333,311979.000,1.000
5.482,8.509,6.560,6.971,2.744,13.460,0.159,0.256,-0.016,0.950,-0.262,-0.763,-0.641,0.977,73.333,311980.000,1.000
6.322,8.478,7.012,7.112,2.957,13.569,2.210,0.030,-0.017,0.948,-0.258,-0.763,-0.702,1.007,73.333,311981.000,1.000
6.401,7.650,6.737,6.497,2.770,12.541,4.587,0.713,-0.017,0.949,-0.259,-0.732,-0.671,1.068,73.333,311982.000,1.000
6.034,6.141,5.830,5.231,1.793,9.796,5.533,1.348,-0.017,0.949,-0.260,-0.793,-0.732,1.099,73.333,311983.000,1.000
5.577,4.306,4.513,3.604,-0.087,5.505,3.738,0.873,-0.019,0.947,-0.259,-0.916,-0.763,1.068,73.333,311984.000,1.000
5.315,2.678,3.052,2.068,-2.406,0.855,-0.450,-1.029,-0.018,0.948,-0.260,-0.916,-0.763,1.099,73.333,311985.000,1.000
5.446,1.856,1.826,1.175,-4.159,-2.414,-4.912,-3.332,-0.020,0.948,-0.260,-0.824,-0.793,1.007,73.333,311986.000,1.000
5.976,2.076,1.083,1.258,-4.501,-3.181,-7.300,-4.442,-0.018,0.948,-0.261,-0.763,-0.763,1.129,73.333,311987.000,1.000
6.617,2.894,0.603,2.102,-3.516,-1.876,-6.975,-3.853,-0.018,0.948,-0.262,-0.763,-0.793,1.129,73.333,311988.000,1.000
6.990,3.500,0.128,3.220,-2.029,-0.095,-5.072,-2.290,-0.020,0.947,-0.263,-0.763,-0.763,1.038,73.333,311989.000,1.000
6.818,3.329,-0.454,4.246,-0.803,0.675,-3.204,-0.536,-0.019,0.948,-0.261,-0.793,-0.885,1.068,73.333,311990.000,1.000
5.817,2.149,-1.272,4.751,-0.406,-0.389,-2.826,0.670,-0.019,0.948,-0.260,-0.702,-0.854,1.068,73.333,311991.000,1.000
3.650,-0.159,-2.684,4.056,-1.370,-3.581,-5.039,0.269,-0.019,0.948,-0.259,-0.671,-0.946,1.038,73.333,311992.000,1.000
0.396,-3.265,-4.849,1.946,-3.507,-8.055,-9.311,-1.865,-0.019,0.949,-0.262,-0.610,-1.068,1.007,73.333,311993.000,1.000
-3.082,-6.069,-7.023,-0.714,-5.430,-11.494,-12.852,-3.920,-0.017,0.948,-0.260,-0.671,-1.007,1.007,73.333,311994.000,1.000
-5.571,-7.314,-8.145,-2.593,-5.539,-11.684,-12.858,-3.602,-0.017,0.948,-0.263,-0.671,-1.068,0.946,73.333,311995.000,1.000
-6.245,-6.482,-7.619,-2.838,-3.325,-8.417,-8.978,-0.205,-0.016,0.949,-0.262,-0.671,-1.038,0.824,73.333,311996.000,1.000
-5.095,-4.033,-5.595,-1.453,0.409,-3.533,-3.244,4.979,-0.016,0.949,-0.259,-0.671,-1.129,0.885,73.333,311997.000,1.000
-2.829,-0.961,-2.860,0.898,4.336,0.680,1.822,9.925,-0.015,0.949,-0.261,-0.702,-1.190,0.885,73.333,311998.000,1.000
-0.471,1.628,-0.375,3.223,7.277,2.793,4.597,13.007,-0.017,0.949,-0.262,-0.641,-1.221,0.885,73.333,311999.000,1.000
1.001,2.754,0.880,4.424,8.321,2.361,4.189,12.966,-0.015,0.949,-0.259,-0.702,-1.190,0.824,73.333,312000.000,1.000
1.145,2.114,0.501,3.906,7.228,-0.044,0.798,9.480,-0.016,0.949,-0.257,-0.763,-1.190,0.793,73.333,312001.000,1.000
0.400,0.500,-0.949,2.112,4.885,-2.774,-3.603,4.145,-0.017,0.949,-0.260,-0.854,-1.221,0.824,73.333,312002.000,1.000
-0.260,-0.799,-2.554,0.078,2.671,-4.096,-6.575,-0.333,-0.016,0.949,-0.260,-0.854,-1.251,0.824,73.333,312003.000,1.000
-0.001,-0.863,-3.577,-1.294,1.557,-3.241,-6.830,-1.782,-0.016,0.949,-0.258,-0.946,-1.129,0.793,73.333,312004.000,1.000
1.456,0.538,-3.731,-1.492,2.000,-0.353,-4.184,0.750,-0.016,0.950,-0.259,-1.038,-1.099,0.824,73.333,312005.000,1.000
3.669,2.869,-3.141,-0.509,3.815,3.688,0.681,6.586,-0.015,0.949,-0.260,-0.946,-1.099,0.885,73.333,312006.000,1.000
5.532,4.857,-2.384,0.942,5.836,7.256,5.718,12.935,-0.017,0.950,-0.261,-0.946,-1.190,0.824,73.333,312007.000,1.000
5.882,5.171,-2.309,1.734,6.441,8.687,8.126,16.058,-0.017,0.949,-0.262,-0.885,-1.221,0.702,73.333,312008.000,1.000
4.219,3.245,-3.451,1.055,4.616,7.177,6.145,13.730,-0.017,0.947,-0.261,-0.854,-1.221,0.732,73.333,312009.000,1.000
0.878,-0.575,-5.984,-1.246,0.353,2.872,-0.192,6.441,-0.017,0.948,-0.261,-1.038,-1.312,0.732,73.333,312010.000,1.000
-3.194,-5.274,-9.465,-4.566,-5.372,-3.272,-9.134,-3.050,-0.016,0.948,-0.263,-1.038,-1.282,0.763,73.333,312011.000,1.000
-6.761,-9.408,-12.680,-7.665,-10.680,-9.453,-17.499,-10.823,-0.018,0.949,-0.260,-0.977,-1.251,0.763,73.333,312012.000,1.000
-8.842,-11.587,-14.364,-9.280,-13.471,-13.472,-21.818,-13.569,-0.017,0.947,-0.260,-0.916,-1.190,0.671,73.333,312013.000,1.000
-9.290,-11.292,-14.052,-9.015,-12.791,-13.985,-20.299,-10.590,-0.017,0.945,-0.258,-0.946,-1.251,0.580,73.333,312014.000,1.000
-8.879,-9.355,-12.591,-7.682,-9.625,-11.587,-14.301,-4.267,-0.019,0.946,-0.258,-0.946,-1.251,0.519,73.333,312015.000,1.000
-8.611,-7.347,-11.351,-6.509,-6.059,-8.311,-7.344,1.856,-0.019,0.948,-0.262,-0.854,-1.221,0.580,73.333,312016.000,1.000
-8.910,-6.404,-11.074,-6.078,-3.668,-5.897,-2.423,5.412,-0.017,0.948,-0.259,-0.885,-1.312,0.549,73.333,312017.000,1.000
-9.405,-6.540,-11.565,-6.029,-2.644,-4.595,-0.225,6.098,-0.020,0.949,-0.261,-0.854,-1.251,0.488,73.333,312018.000,1.000
-9.276,-6.831,-11.889,-5.551,-2.048,-3.439,0.751,5.226,-0.020,0.951,-0.259,-0.916,-1.251,0.427,73.333,312019.000,1.000
-7.924,-6.283,-11.253,-4.193,-0.861,-1.524,2.189,4.310,-0.017,0.950,-0.256,-1.007,-1.282,0.458,73.333,312020.000,1.000
-5.438,-4.635,-9.594,-2.262,1.057,1.001,4.155,3.909,-0.018,0.950,-0.258,-0.977,-1.465,0.397,73.333,312021.000,1.000
-2.462,-2.360,-7.459,-0.414,3.123,3.271,5.548,3.952,-0.018,0.950,-0.259,-1.038,-1.465,0.397,73.333,312022.000,1.000
0.273,-0.136,-5.576,0.920,4.804,4.686,5.578,4.475,-0.018,0.951,-0.260,-1.160,-1.404,0.488,73.333,312023.000,1.000
2.250,1.492,-4.358,1.574,5.803,5.210,4.238,5.258,-0.020,0.949,-0.259,-1.160,-1.434,0.488,73.333,312024.000,1.000
3.262,2.272,-3.870,1.442,5.960,5.262,2.219,5.503,-0.019,0.948,-0.257,-1.251,-1.495,0.427,73.333,312025.000,1.000
3.523,2.461,-3.668,0.727,5.657,5.888,1.345,5.023,-0.018,0.951,-0.258,-1.282,-1.556,0.397,73.333,312026.000,1.000
3.592,2.698,-2.955,0.103,5.942,8.395,3.982,5.106,-0.019,0.949,-0.262,-1.251,-1.587,0.458,73.333,312027.000,1.000
3.948,3.408,-1.410,0.173,7.553,12.946,10.697,7.275,-0.019,0.951,-0.260,-1.251,-1.556,0.519,73.333,312028.000,1.000
4.552,4.308,0.479,0.778,9.903,17.680,18.936,11.351,-0.018,0.952,-0.260,-1.251,-1.495,0.519,73.333,312029.000,1.000
4.858,4.579,1.651,0.970,11.320,19.910,24.462,15.015,-0.019,0.952,-0.260,-1.282,-1.465,0.641,73.333,312030.000,1.000
4.298,3.565,1.299,-0.224,10.335,18.250,24.274,15.471,-0.019,0.949,-0.262,-1.343,-1.556,0.702,73.333,312031.000,1.000
2.709,1.250,-0.612,-3.044,6.690,13.243,18.253,11.537,-0.018,0.950,-0.264,-1.251,-1.587,0.671,73.333,312032.000,1.000
0.421,-1.791,-3.464,-6.765,1.421,6.550,8.700,4.365,-0.019,0.949,-0.261,-1.282,-1.587,0.702,73.333,312033.000,1.000
-1.839,-4.599,-6.029,-9.910,-3.631,0.241,-0.918,-3.346,-0.017,0.948,-0.259,-1.282,-1.617,0.702,73.333,312034.000,1.000
-3.219,-6.108,-7.007,-10.950,-6.648,-3.885,-7.644,-8.946,-0.017,0.946,-0.261,-1.404,-1.587,0.763,73.333,312035.000,1.000
-3.229,-5.657,-5.679,-9.245,-6.797,-5.188,-10.478,-11.277,-0.017,0.945,-0.263,-1.343,-1.617,0.824,73.333,312036.000,1.000
-2.088,-3.370,-2.271,-5.458,-4.534,-4.158,-10.197,-10.894,-0.018,0.942,-0.260,-1.099,-1.617,0.732,73.333,312037.000,1.000
-0.487,0.003,2.069,-0.991,-1.042,-1.634,-8.113,-9.033,-0.018,0.941,-0.261,-1.007,-1.617,0.763,73.333,312038.000,1.000
0.920,3.444,5.990,2.884,2.359,1.317,-5.518,-6.819,-0.018,0.942,-0.261,-1.038,-1.617,0.732,73.333,312039.000,1.000
1.752,5.934,8.498,5.388,4.503,3.195,-3.871,-5.379,-0.017,0.947,-0.262,-0.885,-1.556,0.763,73.333,312040.000,1.000
1.942,6.839,9.386,6.371,4.808,2.775,-4.155,-5.655,-0.019,0.944,-0.260,-0.641,-1.648,0.763,73.333,312041.000,1.000
1.655,6.195,9.169,6.261,3.545,0.017,-6.092,-7.735,-0.018,0.948,-0.259,-0.671,-1.587,0.793,73.333,312042.000,1.000
1.051,4.513,8.408,5.652,1.460,-4.021,-8.554,-10.830,-0.018,0.949,-0.258,-0.793,-1.648,0.793,73.333,312043.000,1.000
0.175,2.369,7.467,4.947,-0.745,-7.857,-10.217,-13.737,-0.017,0.949,-0.257,-0.824,-1.587,0.732,73.333,312044.000,1.000
-0.858,0.241,6.521,4.362,-2.483,-10.114,-9.945,-15.021,-0.020,0.950,-0.259,-0.732,-1.556,0.702,73.333,312045.000,1.000
-1.768,-1.523,5.684,3.995,-3.353,-10.191,-7.278,-13.416,-0.018,0.951,-0.259,-0.946,-1.526,0.549,73.333,312046.000,1.000
-2.438,-2.951,4.838,3.543,-3.684,-8.954,-3.183,-9.259,-0.017,0.952,-0.259,-0.885,-1.495,0.488,73.333,312047.000,1.000
-3.186,-4.503,3.429,2.220,-4.627,-8.244,0.074,-5.135,-0.014,0.951,-0.260,-0.793,-1.495,0.488,73.333,312048.000,1.000
-4.494,-6.594,1.089,-0.495,-7.074,-9.276,0.783,-3.836,-0.013,0.949,-0.262,-0.824,-1.495,0.702,73.333,312049.000,1.000
-6.511,-9.087,-1.922,-4.187,-10.686,-11.734,-0.881,-6.029,-0.016,0.951,-0.262,-0.946,-1.434,0.671,73.333,312050.000,1.000
-8.765,-11.196,-4.726,-7.634,-14.075,-14.261,-3.348,-10.084,-0.012,0.950,-0.263,-0.977,-1.373,0.671,73.333,312051.000,1.000
-10.313,-11.881,-6.204,-9.548,-15.736,-15.424,-4.887,-13.484,-0.014,0.948,-0.263,-1.007,-1.190,0.854,73.333,312052.000,1.000
-10.395,-10.712,-5.833,-9.455,-15.139,-14.651,-4.865,-14.658,-0.015,0.945,-0.260,-1.099,-1.160,0.854,73.333,312053.000,1.000
-9.015,-8.426,-4.001,-7.995,-13.197,-12.789,-4.181,-13.995,-0.015,0.944,-0.263,-1.099,-1.068,0.946,73.333,312054.000,1.000
-6.831,-6.285,-1.710,-6.236,-11.313,-11.261,-4.091,-12.822,-0.013,0.943,-0.263,-0.977,-0.946,0.946,73.333,312055.000,1.000
-4.546,-4.896,0.268,-4.694,-9.969,-10.440,-4.414,-11.543,-0.016,0.944,-0.265,-1.038,-1.007,0.946,73.333,312056.000,1.000
-2.625,-4.007,1.759,-3.209,-8.619,-9.577,-3.655,-9.453,-0.016,0.947,-0.266,-0.885,-0.916,1.038,73.333,312057.000,1.000
-1.435,-3.231,2.662,-1.641,-6.824,-8.241,-1.246,-6.339,-0.015,0.950,-0.264,-0.793,-0.854,1.160,73.333,312058.000,1.000
-1.317,-2.588,2.745,-0.357,-5.037,-6.967,1.308,-3.467,-0.015,0.953,-0.263,-0.824,-1.007,1.190,73.333,312059.000,1.000
-2.445,-2.499,1.680,-0.007,-4.227,-6.489,1.874,-2.620,-0.015,0.953,-0.263,-0.977,-0.824,1.221,73.333,312060.000,1.000
-4.613,-3.433,-0.623,-0.886,-4.947,-6.917,-0.165,-4.301,-0.013,0.955,-0.263,-1.038,-0.671,1.373,73.333,312061.000,1.000
-7.147,-5.463,-3.663,-2.554,-6.812,-7.667,-3.487,-7.156,-0.014,0.956,-0.264,-1.160,-0.732,1.434,73.333,312062.000,1.000
-9.096,-8.011,-6.526,-4.063,-8.716,-7.878,-6.090,-9.016,-0.016,0.953,-0.262,-1.312,-0.702,1.434,73.333,312063.000,1.000
-9.690,-10.018,-8.229,-4.550,-9.473,-6.863,-6.413,-8.327,-0.017,0.952,-0.260,-1.282,-0.671,1.404,73.333,312064.000,1.000
-8.889,-10.625,-8.437,-3.931,-8.641,-4.541,-4.129,-5.253,-0.018,0.952,-0.260,-1.282,-0.702,1.282,73.333,312065.000,1.000
-7.564,-9.932,-7.877,-3.202,-7.102,-1.807,-0.661,-2.038,-0.020,0.953,-0.258,-1.373,-0.702,1.129,73.333,312066.000,1.000
-6.939,-8.924,-7.827,-3.770,-6.514,-0.145,1.580,-1.625,-0.021,0.953,-0.263,-1.373,-0.732,0.977,73.333,312067.000,1.000
-7.550,-8.426,-9.032,-6.117,-7.688,-0.392,1.114,-4.944,-0.020,0.956,-0.262,-1.465,-0.671,0.854,73.333,312068.000,1.000
-8.739,-8.260,-10.847,-9.142,-9.667,-1.920,-1.191,-9.671,-0.022,0.957,-0.260,-1.587,-0.885,0.549,73.333,312069.000,1.000
-9.325,-7.603,-11.890,-11.027,-10.576,-3.194,-2.911,-12.119,-0.022,0.957,-0.259,-1.709,-0.946,0.336,73.333,312070.000,1.000
-8.641,-5.885,-11.203,-10.554,-9.157,-2.980,-2.127,-10.148,-0.021,0.956,-0.258,-1.984,-0.977,0.183,73.333,312071.000,1.000
-6.934,-3.238,-8.723,-7.749,-5.541,-1.084,1.366,-4.433,-0.021,0.955,-0.260,-1.862,-1.099,0.061,73.333,312072.000,1.000
-5.041,-0.370,-5.304,-3.710,-1.001,1.644,6.101,2.266,-0.020,0.954,-0.259,-1.923,-1.282,-0.031,73.333,312073.000,1.000
-3.778,1.909,-2.069,0.160,2.956,4.009,9.991,7.210,-0.017,0.956,-0.257,-1.923,-1.312,0.000,73.333,312074.000,1.000
-3.424,3.260,0.226,2.983,5.625,5.436,11.876,9.673,-0.017,0.952,-0.256,-2.045,-1.404,-0.092,73.333,312075.000,1.000
-3.665,3.981,1.531,4.622,7.309,6.281,12.317,10.895,-0.016,0.953,-0.259,-2.106,-1.373,-0.031,73.333,312076.000,1.000
-4.061,4.486,2.184,5.155,8.403,7.012,12.394,12.001,-0.017,0.951,-0.259,-2.228,-1.434,-0.122,73.333,312077.000,1.000
-4.504,4.693,2.122,4.370,8.508,7.314,11.791,12.348,-0.016,0.949,-0.259,-2.136,-1.404,0.031,73.333,312078.000,1.000
-5.137,4.082,1.058,2.046,6.820,6.363,9.302,10.392,-0.017,0.948,-0.256,-2.106,-1.312,0.092,73.333,312079.000,1.000
-5.959,2.347,-0.863,-1.360,3.396,4.016,5.062,6.003,-0.017,0.948,-0.257,-2.045,-1.343,0.153,73.333,312080.000,1.000
-6.680,-0.148,-2.823,-4.571,-0.367,1.425,1.211,1.366,-0.020,0.946,-0.257,-1.984,-1.373,0.275,73.333,312081.000,1.000
-6.998,-2.674,-3.901,-6.324,-2.776,0.232,0.066,-0.808,-0.020,0.946,-0.256,-1.801,-1.434,0.244,73.333,312082.000,1.000
-6.950,-4.748,-3.976,-6.366,-3.263,1.157,1.933,0.315,-0.020,0.947,-0.253,-1.770,-1.404,0.366,73.333,312083.000,1.000
-6.894,-6.345,-3.696,-5.556,-2.653,3.428,5.056,3.309,-0.021,0.946,-0.254,-1.709,-1.526,0.366,73.333,312084.000,1.000
-7.201,-7.701,-3.974,-5.126,-2.342,5.374,7.108,5.889,-0.022,0.947,-0.253,-1.709,-1.526,0.427,73.333,312085.000,1.000
-7.995,-9.048,-5.424,-5.873,-3.394,5.498,6.535,6.331,-0.021,0.945,-0.258,-1.587,-1.587,0.519,73.333,312086.000,1.000
-9.208,-10.508,-8.015,-7.912,-6.183,3.286,3.147,3.990,-0.020,0.944,-0.251,-1.556,-1.648,0.580,73.333,312087.000,1.000
-10.720,-12.009,-11.205,-10.750,-10.243,-0.560,-1.897,-0.584,-0.021,0.943,-0.252,-1.434,-1.740,0.549,73.333,312088.000,1.000
-12.283,-13.165,-13.955,-13.312,-14.241,-4.432,-6.430,-5.576,-0.018,0.944,-0.255,-1.343,-1.709,0.610,73.333,312089.000,1.000
-13.509,-13.466,-15.283,-14.405,-16.654,-6.706,-8.508,-8.894,-0.017,0.943,-0.256,-1.251,-1.678,0.702,73.333,312090.000,1.000
-14.135,-12.756,-14.921,-13.579,-16.898,-6.823,-7.910,-9.880,-0.015,0.943,-0.259,-1.099,-1.678,0.732,73.333,312091.000,1.000
-14.217,-11.400,-13.251,-11.427,-15.649,-5.528,-6.200,-9.659,-0.014,0.943,-0.257,-1.038,-1.556,0.824,73.333,312092.000,1.000
-13.914,-9.806,-10.833,-8.908,-13.885,-3.880,-5.007,-9.564,-0.014,0.941,-0.256,-1.007,-1.556,0.885,73.333,312093.000,1.000
-13.220,-8.015,-7.884,-6.565,-11.995,-2.354,-4.478,-9.733,-0.013,0.943,-0.256,-0.854,-1.434,0.946,73.333,312094.000,1.000
-12.082,-5.946,-4.566,-4.543,-10.028,-1.138,-4.103,-9.567,-0.013,0.943,-0.253,-0.824,-1.312,1.038,73.333,312095.000,1.000
-10.592,-3.691,-1.257,-2.847,-8.128,-0.585,-3.906,-8.627,-0.013,0.944,-0.254,-0.702,-1.312,1.038,73.333,312096.000,1.000
-8.912,-1.404,1.708,-1.340,-6.309,-0.774,-3.821,-6.687,-0.012,0.949,-0.256,-0.702,-1.190,1.099,73.333,312097.000,1.000
-7.178,0.855,4.036,0.116,-4.277,-1.061,-3.020,-3.801,-0.014,0.948,-0.255,-0.580,-1.160,1.099,73.333,312098.000,1.000
-5.478,3.044,5.609,1.441,-1.823,-0.614,-0.723,-0.593,-0.013,0.950,-0.254,-0.519,-1.068,1.129,73.333,312099.000,1.000
-3.876,5.026,6.494,2.369,0.768,0.608,2.464,1.863,-0.013,0.949,-0.254,-0.580,-0.977,1.160,73.333,312100.000,1.000
-2.300,6.742,7.014,2.842,3.001,1.932,4.956,2.851,-0.015,0.950,-0.256,-0.610,-0.946,1.129,73.333,312101.000,1.000
-0.496,8.398,7.805,3.251,4.775,3.039,6.083,2.694,-0.014,0.953,-0.255,-0.671,-0.885,1.190,73.333,312102.000,1.000
1.643,10.091,9.158,3.999,6.215,3.932,6.172,2.191,-0.013,0.952,-0.255,-0.763,-0.793,1.190,73.333,312103.000,1.000
3.770,11.282,10.626,5.003,7.082,3.875,5.181,1.712,-0.012,0.952,-0.258,-0.763,-0.610,1.221,73.333,312104.000,1.000
5.342,11.165,11.431,5.869,6.987,1.869,2.820,1.246,-0.013,0.952,-0.257,-0.885,-0.610,1.221,73.333,312105.000,1.000
6.163,9.551,11.242,6.377,6.050,-1.752,-0.320,0.901,-0.014,0.952,-0.255,-0.946,-0.519,1.221,73.333,312106.000,1.000
6.521,7.047,10.473,6.601,4.912,-5.402,-3.064,0.988,-0.014,0.952,-0.256,-0.916,-0.427,1.251,73.333,312107.000,1.000
6.889,4.581,9.722,6.714,4.262,-7.629,-4.638,1.805,-0.013,0.951,-0.255,-0.824,-0.427,1.282,73.333,312108.000,1.000
7.542,2.966,9.405,6.842,4.493,-7.785,-4.681,3.362,-0.012,0.952,-0.255,-0.977,-0.427,1.282,73.333,312109.000,1.000
8.293,2.560,9.509,6.989,5.527,-6.041,-3.248,5.196,-0.012,0.953,-0.256,-0.916,-0.366,1.251,73.333,312110.000,1.000
8.636,3.093,9.680,7.131,6.892,-3.307,-1.066,6.655,-0.014,0.955,-0.257,-0.946,-0.366,1.221,73.333,312111.000,1.000
8.158,3.869,9.680,7.299,8.000,-0.871,0.774,7.268,-0.015,0.954,-0.258,-1.068,-0.214,1.312,73.333,312112.000,1.000
6.786,4.177,9.381,7.437,8.328,0.276,1.334,6.730,-0.015,0.953,-0.257,-1.160,-0.244,1.343,73.333,312113.000,1.000
4.784,3.624,8.762,7.340,7.588,0.013,0.441,5.034,-0.017,0.955,-0.256,-1.099,-0.336,1.282,73.333,312114.000,1.000
2.664,2.294,7.826,6.866,6.018,-0.940,-1.100,2.863,-0.017,0.956,-0.256,-1.221,-0.183,1.190,73.333,312115.000,1.000
1.049,0.722,6.622,6.181,4.405,-1.624,-2.037,1.551,-0.018,0.956,-0.253,-1.160,-0.244,1.221,73.333,312116.000,1.000
0.338,-0.441,5.399,5.656,3.562,-1.507,-1.535,2.174,-0.020,0.956,-0.252,-1.190,-0.366,1.160,73.333,312117.000,1.000
0.382,-0.897,4.279,5.398,3.651,-0.763,0.152,4.326,-0.018,0.952,-0.249,-1.373,-0.397,1.068,73.333,312118.000,1.000
0.571,-0.878,3.215,5.133,4.130,-0.080,1.998,6.261,-0.019,0.949,-0.251,-1.434,-0.519,1.007,73.333,312119.000,1.000
0.293,-0.960,2.068,4.510,4.200,-0.338,2.797,6.288,-0.016,0.946,-0.254,-1.495,-0.519,0.916,73.333,312120.000,1.000
-0.687,-1.751,0.569,3.264,3.111,-2.312,1.326,3.516,-0.017,0.946,-0.256,-1.343,-0.397,0.916,73.333,312121.000,1.000
-2.180,-3.532,-1.466,1.306,0.517,-6.106,-3.028,-1.847,-0.017,0.948,-0.259,-1.282,-0.458,0.854,73.333,312122.000,1.000
-3.585,-5.771,-3.864,-0.955,-2.841,-10.438,-9.059,-7.881,-0.015,0.951,-0.260,-1.160,-0.397,0.885,73.333,312123.000,1.000
-4.081,-7.138,-5.832,-2.605,-5.138,-12.772,-13.544,-11.437,-0.017,0.952,-0.257,-1.007,-0.458,0.885,73.333,312124.000,1.000
-3.207,-6.426,-6.519,-3.035,-4.742,-10.877,-13.309,-10.359,-0.016,0.952,-0.256,-0.916,-0.488,0.854,73.333,312125.000,1.000
-1.349,-3.597,-5.820,-2.582,-1.600,-4.772,-7.829,-5.126,-0.015,0.950,-0.258,-1.038,-0.519,0.977,73.333,312126.000,1.000
0.498,0.075,-4.326,-2.158,2.679,2.852,0.321,1.710,-0.014,0.948,-0.259,-1.007,-0.519,1.038,73.333,312127.000,1.000
1.505,2.936,-2.845,-2.346,6.118,8.535,7.440,7.503,-0.012,0.944,-0.256,-0.916,-0.458,1.007,73.333,312128.000,1.000
1.572,4.056,-1.761,-2.868,7.715,10.478,11.245,11.094,-0.014,0.942,-0.260,-0.824,-0.519,1.099,73.333,312129.000,1.000
1.119,3.486,-1.106,-3.072,7.550,9.145,11.468,12.434,-0.018,0.942,-0.259,-0.732,-0.427,1.068,73.333,312130.000,1.000
0.492,1.768,-0.978,-2.786,6.000,6.088,8.833,11.261,-0.020,0.944,-0.256,-0.458,-0.519,0.916,73.333,312131.000,1.000
-0.255,-0.494,-1.442,-2.408,3.398,2.746,4.489,7.231,-0.023,0.948,-0.258,-0.458,-0.702,0.824,73.333,312132.000,1.000
-1.130,-2.723,-2.412,-2.292,0.344,0.074,-0.097,1.208,-0.023,0.951,-0.254,-0.397,-0.732,0.763,73.333,312133.000,1.000
-1.999,-4.364,-3.472,-2.336,-2.235,-1.401,-3.569,-4.663,-0.024,0.954,-0.255,-0.397,-0.854,0.549,73.333,312134.000,1.000
-2.576,-4.932,-4.029,-2.115,-3.509,-1.502,-5.226,-8.336,-0.022,0.956,-0.255,-0.427,-1.007,0.336,73.333,312135.000,1.000
-2.429,-4.035,-3.528,-1.077,-2.922,-0.209,-4.729,-8.596,-0.022,0.955,-0.252,-0.610,-1.129,0.275,73.333,312136.000,1.000
-1.194,-1.577,-1.567,1.242,-0.258,2.369,-1.737,-5.042,-0.022,0.956,-0.252,-0.763,-1.312,0.183,73.333,312137.000,1.000
0.967,1.885,1.497,4.707,3.951,5.664,3.221,1.423,-0.021,0.955,-0.257,-0.763,-1.434,0.214,73.333,312138.000,1.000
3.255,5.244,4.606,8.427,8.319,8.629,8.354,8.506,-0.019,0.952,-0.255,-0.824,-1.495,0.153,73.333,312139.000,1.000
4.704,7.465,6.585,11.205,11.303,10.337,11.603,13.656,-0.018,0.949,-0.257,-0.824,-1.526,0.122,73.333,312140.000,1.000
4.800,8.143,6.705,12.155,12.052,10.564,11.745,15.304,-0.020,0.951,-0.259,-0.824,-1.587,0.092,73.333,312141.000,1.000
3.826,7.657,5.163,11.146,10.796,9.911,9.160,13.498,-0.018,0.949,-0.261,-0.854,-1.617,0.214,73.333,312142.000,1.000
2.728,6.912,2.846,8.904,8.711,9.385,5.863,9.940,-0.020,0.948,-0.260,-0.977,-1.678,0.244,73.333,312143.000,1.000
2.523,6.737,0.842,6.551,7.088,9.498,4.106,6.926,-0.018,0.949,-0.258,-0.946,-1.648,0.336,73.333,312144.000,1.000
3.604,7.300,-0.260,4.810,6.384,9.762,4.380,5.660,-0.017,0.948,-0.258,-0.854,-1.678,0.366,73.333,312145.000,1.000
5.575,8.161,-0.600,3.759,6.271,9.314,5.394,5.996,-0.016,0.948,-0.258,-0.763,-1.648,0.519,73.333,312146.000,1.000
7.687,8.717,-0.524,3.136,6.228,7.720,5.663,7.168,-0.013,0.949,-0.258,-0.732,-1.740,0.549,73.333,312147.000,1.000
9.320,8.497,-0.447,2.464,5.680,5.053,4.198,7.793,-0.015,0.948,-0.260,-0.763,-1.770,0.610,73.333,312148.000,1.000
10.164,7.300,-0.729,1.252,4.146,1.782,0.856,6.326,-0.016,0.948,-0.260,-0.671,-1.648,0.641,73.333,312149.000,1.000
10.195,5.266,-1.548,-0.580,1.698,-1.346,-3.276,2.452,-0.015,0.948,-0.256,-0.641,-1.770,0.580,73.333,312150.000,1.000
9.649,2.872,-2.759,-2.433,-0.817,-3.634,-6.304,-2.124,-0.018,0.948,-0.258,-0.702,-1.770,0.641,73.333,312151.000,1.000
8.919,0.728,-3.770,-3.325,-2.304,-4.840,-6.805,-4.741,-0.017,0.950,-0.258,-0.671,-1.740,0.641,73.333,312152.000,1.000
8.251,-0.835,-4.176,-2.783,-2.437,-5.415,-5.258,-4.218,-0.015,0.948,-0.259,-0.732,-1.709,0.702,73.333,312153.000,1.000
7.681,-1.888,-3.971,-1.261,-1.926,-6.056,-3.578,-1.886,-0.016,0.951,-0.258,-0.732,-1.801,0.793,73.333,312154.000,1.000
7.286,-2.588,-3.334,0.320,-1.694,-6.868,-3.232,-0.111,-0.016,0.950,-0.257,-0.671,-1.770,0.641,73.333,312155.000,1.000
7.255,-2.964,-2.520,1.281,-2.126,-7.359,-4.354,-0.270,-0.015,0.948,-0.256,-0.549,-1.831,0.641,73.333,312156.000,1.000
7.668,-2.988,-1.681,1.561,-2.940,-7.159,-6.055,-1.881,-0.017,0.950,-0.258,-0.732,-1.740,0.641,73.333,312157.000,1.000
8.341,-2.604,-0.863,1.646,-3.342,-6.149,-6.935,-3.014,-0.016,0.950,-0.258,-0.702,-1.740,0.641,73.333,312158.000,1.000
8.904,-1.703,0.175,2.235,-2.394,-4.062,-5.415,-1.478,-0.014,0.950,-0.260,-0.641,-1.740,0.549,73.333,312159.000,1.000
8.996,-0.284,1.659,3.678,0.279,-0.697,-0.782,3.512,-0.017,0.950,-0.260,-0.702,-1.678,0.580,73.333,312160.000,1.000
8.450,1.369,3.215,5.546,3.866,3.433,5.592,10.154,-0.015,0.950,-0.259,-0.763,-1.709,0.580,73.333,312161.000,1.000
7.365,2.703,4.064,6.846,6.575,6.971,10.598,14.833,-0.014,0.952,-0.258,-0.885,-1.587,0.519,73.333,312162.000,1.000
5.965,3.089,3.450,6.704,6.708,8.283,11.159,14.609,-0.014,0.948,-0.259,-0.854,-1.434,0.519,73.333,312163.000,1.000
4.430,2.099,1.259,5.043,3.831,6.273,6.337,9.522,-0.016,0.949,-0.258,-0.885,-1.434,0.458,73.333,312164.000,1.000
2.894,-0.229,-1.821,2.617,-0.986,0.977,-2.026,2.460,-0.018,0.951,-0.260,-0.977,-1.343,0.458,73.333,312165.000,1.000
1.439,-3.331,-4.806,0.305,-6.015,-6.232,-10.603,-3.349,-0.016,0.949,-0.259,-0.885,-1.343,0.366,73.333,312166.000,1.000
0.077,-6.280,-6.807,-1.504,-9.768,-12.845,-16.114,-6.347,-0.016,0.949,-0.259,-0.824,-1.251,0.397,73.333,312167.000,1.000
-1.145,-8.043,-7.502,-2.824,-11.268,-16.156,-16.546,-6.506,-0.017,0.949,-0.256,-0.824,-1.190,0.305,73.333,312168.000,1.000
-1.996,-7.884,-7.093,-3.679,-10.179,-14.708,-12.088,-4.510,-0.018,0.949,-0.258,-0.854,-1.129,0.305,73.333,312169.000,1.000
-2.152,-5.818,-6.062,-4.060,-7.104,-9.222,-5.239,-1.657,-0.017,0.950,-0.258,-1.007,-1.129,0.336,73.333,312170.000,1.000
-1.480,-2.684,-4.945,-4.032,-3.402,-2.209,0.696,0.559,-0.017,0.948,-0.258,-0.916,-1.190,0.336,73.333,312171.000,1.000
-0.226,0.294,-3.999,-3.629,-0.317,3.497,3.793,1.656,-0.017,0.947,-0.258,-0.885,-1.190,0.336,73.333,312172.000,1.000
1.070,2.155,-3.420,-2.810,1.696,6.285,4.052,2.427,-0.017,0.949,-0.256,-0.946,-1.129,0.305,73.333,312173.000,1.000
1.880,2.603,-3.325,-1.590,2.851,6.368,2.512,3.819,-0.017,0.950,-0.258,-0.946,-1.129,0.427,73.333,312174.000,1.000
1.933,1.881,-3.633,-0.209,3.502,5.086,0.302,5.917,-0.018,0.950,-0.257,-0.885,-1.190,0.366,73.333,312175.000,1.000
1.285,0.412,-4.182,0.919,3.801,3.690,-1.714,8.070,-0.019,0.949,-0.258,-0.946,-1.129,0.366,73.333,312176.000,1.000
0.348,-1.285,-4.603,1.522,3.767,2.888,-2.836,9.541,-0.021,0.950,-0.256,-1.068,-1.190,0.427,73.333,312177.000,1.000
-0.097,-2.445,-4.455,1.729,3.485,3.081,-2.827,9.835,-0.020,0.949,-0.255,-1.099,-1.190,0.458,73.333,312178.000,1.000
0.854,-2.224,-3.265,2.013,3.101,4.328,-2.078,8.839,-0.020,0.949,-0.254,-1.007,-1.068,0.366,73.333,312179.000,1.000
3.555,-0.364,-0.871,2.657,2.520,5.861,-1.537,6.568,-0.021,0.949,-0.253,-1.007,-1.251,0.427,73.333,312180.000,1.000
7.354,2.397,2.190,3.408,1.357,6.185,-2.454,3.058,-0.018,0.950,-0.253,-1.129,-1.221,0.427,73.333,312181.000,1.000
10.933,4.818,5.183,3.827,-0.509,4.234,-5.369,-1.038,-0.020,0.951,-0.255,-1.129,-1.343,0.427,73.333,312182.000,1.000
13.103,5.996,7.535,3.667,-2.615,0.384,-9.581,-4.496,-0.021,0.951,-0.258,-1.129,-1.434,0.488,73.333,312183.000,1.000
13.473,5.846,9.118,2.996,-4.207,-3.741,-13.597,-6.407,-0.021,0.950,-0.256,-1.190,-1.434,0.488,73.333,312184.000,1.000
12.602,5.061,10.249,2.187,-4.599,-6.145,-15.811,-6.628,-0.021,0.949,-0.257,-1.282,-1.434,0.580,73.333,312185.000,1.000
11.540,4.632,11.291,1.712,-3.391,-5.421,-15.087,-5.589,-0.021,0.951,-0.257,-1.282,-1.556,0.732,73.333,312186.000,1.000
11.144,5.177,12.458,1.802,-0.742,-1.659,-11.371,-3.939,-0.021,0.952,-0.256,-1.434,-1.556,0.671,73.333,312187.000,1.000
11.595,6.543,13.524,2.192,2.467,3.324,-6.165,-2.392,-0.020,0.952,-0.257,-1.404,-1.587,0.671,73.333,312188.000,1.000
12.414,7.948,14.021,2.273,4.977,7.057,-1.740,-1.654,-0.020,0.952,-0.257,-1.282,-1.587,0.702,73.333,312189.000,1.000
12.902,8.548,13.649,1.600,5.897,7.972,0.240,-2.123,-0.018,0.953,-0.258,-1.404,-1.678,0.732,73.333,312190.000,1.000
12.612,7.925,12.413,0.335,5.282,6.131,-0.445,-3.344,-0.020,0.952,-0.258,-1.404,-1.740,0.702,73.333,312191.000,1.000
11.446,6.157,10.679,-0.869,3.942,2.782,-2.476,-4.090,-0.020,0.951,-0.256,-1.495,-1.709,0.671,73.333,312192.000,1.000
9.449,3.526,8.587,-1.554,2.534,-0.884,-4.320,-3.659,-0.019,0.950,-0.257,-1.434,-1.648,0.824,73.333,312193.000,1.000
6.759,0.363,5.977,-1.781,1.007,-4.473,-5.578,-2.644,-0.018,0.952,-0.255,-1.465,-1.648,0.916,73.333,312194.000,1.000
3.806,-2.745,2.965,-1.740,-0.833,-7.732,-6.626,-2.052,-0.017,0.951,-0.253,-1.556,-1.617,0.946,73.333,312195.000,1.000
1.373,-4.850,0.271,-1.388,-2.609,-9.815,-7.541,-2.164,-0.018,0.952,-0.255,-1.587,-1.556,0.946,73.333,312196.000,1.000
0.274,-5.160,-0.980,-0.607,-3.596,-9.861,-7.922,-2.574,-0.016,0.951,-0.257,-1.617,-1.587,1.038,73.333,312197.000,1.000
0.861,-3.672,-0.266,0.449,-3.381,-7.848,-7.404,-2.868,-0.016,0.951,-0.256,-1.617,-1.526,1.007,73.333,312198.000,1.000
2.820,-1.158,2.017,1.407,-1.997,-4.478,-5.591,-2.710,-0.014,0.952,-0.254,-1.587,-1.526,1.007,73.333,312199.000,1.000
5.294,1.327,4.901,1.862,0.156,-0.819,-2.353,-1.910,-0.014,0.952,-0.255,-1.617,-1.465,1.068,73.333,312200.000,1.000
7.261,2.952,7.154,1.456,2.256,1.840,1.339,-0.985,-0.014,0.949,-0.253,-1.617,-1.404,1.068,73.333,312201.000,1.000
8.120,3.482,8.011,0.127,3.385,2.587,3.861,-1.059,-0.014,0.948,-0.255,-1.556,-1.312,1.038,73.333,312202.000,1.000
8.009,3.354,7.496,-1.660,3.274,1.615,4.326,-2.690,-0.015,0.947,-0.255,-1.587,-1.251,1.099,73.333,312203.000,1.000
7.561,3.309,6.422,-2.995,2.621,0.088,3.402,-4.896,-0.014,0.948,-0.255,-1.587,-1.190,1.068,73.333,312204.000,1.000
7.339,3.827,5.827,-3.087,2.486,-0.763,2.580,-5.743,-0.015,0.950,-0.257,-1.587,-1.038,0.977,73.333,312205.000,1.000
7.541,4.880,6.214,-1.844,3.389,-0.320,2.821,-4.025,-0.013,0.950,-0.255,-1.587,-1.038,1.007,73.333,312206.000,1.000
8.086,6.059,7.537,0.055,4.980,1.336,4.091,-0.369,-0.012,0.949,-0.252,-1.495,-0.946,1.007,73.333,312207.000,1.000
8.759,6.785,9.198,1.598,6.405,3.564,5.658,3.272,-0.013,0.947,-0.253,-1.312,-0.824,1.099,73.333,312208.000,1.000
9.310,6.580,10.452,2.119,7.056,5.583,7.080,5.411,-0.012,0.948,-0.252,-1.343,-0.763,1.099,73.333,312209.000,1.000
9.517,5.305,10.841,1.665,6.918,6.941,8.704,6.066,-0.014,0.949,-0.254,-1.312,-0.732,1.068,73.333,312210.000,1.000
9.202,3.141,10.143,0.678,6.119,7.318,10.432,5.812,-0.014,0.949,-0.254,-1.251,-0.702,1.007,73.333,312211.000,1.000
8.242,0.421,8.486,-0.515,4.430,6.181,10.766,4.572,-0.014,0.946,-0.253,-1.251,-0.610,1.007,73.333,312212.000,1.000
6.581,-2.422,6.148,-1.871,1.604,3.253,7.971,1.867,-0.013,0.946,-0.254,-1.221,-0.580,0.977,73.333,312213.000,1.000
4.279,-4.854,3.532,-3.388,-1.987,-0.853,2.116,-2.126,-0.014,0.947,-0.255,-1.129,-0.397,1.038,73.333,312214.000,1.000
1.597,-6.298,1.155,-4.853,-5.278,-4.605,-4.512,-6.279,-0.014,0.947,-0.254,-1.038,-0.366,0.977,73.333,312215.000,1.000
-0.969,-6.267,-0.492,-5.787,-6.915,-5.996,-8.627,-8.971,-0.016,0.947,-0.257,-0.977,-0.397,0.916,73.333,312216.000,1.000
-2.815,-4.689,-0.877,-5.590,-5.995,-3.773,-7.822,-8.819,-0.014,0.948,-0.257,-1.068,-0.458,0.854,73.333,312217.000,1.000
-3.504,-2.254,0.011,-4.075,-2.969,0.968,-2.712,-5.908,-0.016,0.949,-0.257,-0.885,-0.366,0.763,73.333,312218.000,1.000
-2.908,-0.150,1.564,-1.809,0.334,5.080,3.074,-2.238,-0.018,0.948,-0.258,-0.946,-0.336,0.793,73.333,312219.000,1.000
-1.130,0.791,3.145,0.343,2.085,5.922,5.838,-0.149,-0.017,0.948,-0.258,-0.885,-0.305,0.854,73.333,312220.000,1.000
1.622,0.679,4.498,2.027,1.889,3.477,4.665,-0.235,-0.018,0.949,-0.253,-0.824,-0.336,0.916,73.333,312221.000,1.000
5.129,0.406,5.969,3.659,0.903,0.148,1.722,-1.105,-0.017,0.950,-0.251,-0.793,-0.305,0.763,73.333,312222.000,1.000
9.134,0.947,7.937,5.895,0.734,-1.206,0.004,-0.948,-0.018,0.951,-0.253,-0.763,-0.275,0.854,73.333,312223.000,1.000
13.100,2.566,10.284,8.811,2.035,0.459,0.674,0.742,-0.015,0.952,-0.253,-0.702,-0.244,0.885,73.333,312224.000,1.000
16.079,4.448,12.239,11.480,3.827,3.450,2.135,2.629,-0.014,0.953,-0.254,-0.824,-0.275,0.854,73.333,312225.000,1.000
17.119,5.270,12.723,12.545,4.383,4.775,1.826,2.853,-0.018,0.951,-0.254,-0.793,-0.427,0.854,73.333,312226.000,1.000
15.983,4.322,11.480,11.452,2.961,2.949,-0.813,0.976,-0.017,0.951,-0.256,-0.854,-0.366,0.793,73.333,312227.000,1.000
13.412,2.128,9.261,8.988,0.515,-0.642,-3.794,-1.619,-0.019,0.952,-0.256,-0.824,-0.427,0.824,73.333,312228.000,1.000
10.657,-0.058,7.214,6.640,-1.269,-3.337,-4.711,-3.010,-0.020,0.952,-0.252,-0.854,-0.397,0.763,73.333,312229.000,1.000
8.626,-1.343,6.021,5.421,-1.476,-3.769,-2.939,-2.429,-0.019,0.953,-0.256,-0.763,-0.427,0.854,73.333,312230.000,1.000
7.418,-1.732,5.436,5.267,-0.543,-2.604,0.002,-0.941,-0.020,0.952,-0.253,-0.824,-0.488,0.763,73.333,312231.000,1.000
6.537,-1.717,4.948,5.451,0.443,-1.355,2.001,-0.278,-0.021,0.951,-0.255,-0.824,-0.519,0.793,73.333,312232.000,1.000
5.471,-1.557,4.255,5.398,0.931,-0.799,2.225,-0.937,-0.019,0.951,-0.256,-0.916,-0.671,0.763,73.333,312233.000,1.000
4.236,-0.846,3.690,5.271,1.588,-0.175,2.191,-1.387,-0.018,0.951,-0.253,-0.885,-0.671,0.824,73.333,312234.000,1.000
3.416,1.223,4.154,5.809,3.810,2.194,4.705,0.753,-0.018,0.951,-0.252,-0.854,-0.610,0.824,73.333,312235.000,1.000
3.490,4.909,6.058,7.364,8.170,6.995,10.760,6.252,-0.018,0.953,-0.248,-0.977,-0.732,0.854,73.333,312236.000,1.000
4.154,9.275,8.784,9.216,13.329,12.638,17.784,12.844,-0.017,0.953,-0.248,-0.977,-0.763,0.824,73.333,312237.000,1.000
4.576,12.796,10.993,10.126,16.991,16.473,21.793,16.881,-0.019,0.951,-0.253,-0.885,-0.916,0.824,73.333,312238.000,1.000
4.251,14.533,11.816,9.590,17.895,17.217,21.211,16.612,-0.018,0.950,-0.254,-0.916,-0.916,0.824,73.333,312239.000,1.000
3.392,14.595,11.383,8.208,16.520,15.666,17.683,13.238,-0.018,0.949,-0.254,-0.885,-0.977,0.824,73.333,312240.000,1.000
2.637,13.796,10.268,7.031,14.306,13.577,14.106,9.332,-0.015,0.949,-0.253,-0.885,-0.977,0.854,73.333,312241.000,1.000
2.537,13.005,9.196,6.771,12.515,12.353,12.626,6.830,-0.014,0.949,-0.254,-0.854,-1.129,0.854,73.333,312242.000,1.000
3.147,12.542,8.446,7.308,11.403,12.180,12.979,5.914,-0.016,0.947,-0.253,-0.793,-1.068,0.793,73.333,312243.000,1.000
4.062,12.087,7.753,7.886,10.295,11.965,12.734,5.439,-0.015,0.949,-0.252,-0.885,-1.160,0.885,73.333,312244.000,1.000
4.739,11.097,6.718,7.699,8.340,10.232,9.503,4.004,-0.014,0.946,-0.254,-0.702,-1.282,0.854,73.333,312245.000,1.000
4.827,9.333,5.037,6.393,5.287,6.539,3.025,0.868,-0.016,0.946,-0.253,-0.641,-1.221,0.854,73.333,312246.000,1.000
4.448,7.297,3.185,4.574,2.137,2.595,-3.727,-2.817,-0.017,0.946,-0.251,-0.519,-1.129,0.824,73.333,312247.000,1.000
4.091,5.971,2.159,3.508,0.673,1.209,-6.323,-4.359,-0.018,0.948,-0.253,-0.397,-1.282,0.793,73.333,312248.000,1.000
3.902,5.634,2.337,3.760,1.485,3.088,-3.183,-2.499,-0.019,0.946,-0.255,-0.366,-1.373,0.824,73.333,312249.000,1.000
3.301,5.296,2.850,4.458,2.944,5.550,2.467,0.784,-0.016,0.948,-0.254,-0.275,-1.434,0.763,73.333,312250.000,1.000
1.588,3.683,2.311,4.210,2.760,5.106,5.596,2.282,-0.017,0.947,-0.255,-0.214,-1.343,0.641,73.333,312251.000,1.000
-1.328,0.439,0.267,2.397,0.049,0.504,3.764,0.550,-0.017,0.947,-0.257,-0.061,-1.343,0.641,73.333,312252.000,1.000
-4.870,-3.630,-2.699,-0.555,-4.185,-6.624,-1.604,-3.374,-0.017,0.948,-0.256,-0.031,-1.343,0.580,73.333,312253.000,1.000
-8.120,-6.942,-5.353,-3.521,-7.836,-12.818,-6.722,-6.969,-0.016,0.948,-0.251,0.092,-1.434,0.580,73.333,312254.000,1.000
-10.189,-7.828,-6.287,-5.161,-8.769,-14.418,-7.800,-7.594,-0.014,0.948,-0.253,0.153,-1.404,0.488,73.333,312255.000,1.000
-10.601,-5.465,-4.865,-4.584,-6.015,-9.798,-3.531,-3.997,-0.015,0.948,-0.251,0.244,-1.495,0.458,73.333,312256.000,1.000
-9.634,-0.667,-1.701,-2.064,-0.776,-1.205,3.528,2.394,-0.015,0.949,-0.253,0.122,-1.526,0.488,73.333,312257.000,1.000
-8.437,4.236,1.206,0.727,3.869,6.225,8.263,7.685,-0.016,0.947,-0.252,0.183,-1.373,0.397,73.333,312258.000,1.000
-8.332,6.886,1.808,1.867,5.134,8.463,7.194,8.222,-0.016,0.949,-0.254,0.244,-1.434,0.366,73.333,312259.000,1.000
-9.618,6.680,-0.192,0.926,2.799,5.589,1.367,3.652,-0.017,0.951,-0.256,0.244,-1.526,0.366,73.333,312260.000,1.000
-11.371,4.812,-3.453,-0.865,-1.047,0.392,-5.654,-3.104,-0.017,0.950,-0.260,0.183,-1.465,0.336,73.333,312261.000,1.000
-12.501,2.750,-6.274,-2.033,-4.235,-4.867,-11.387,-8.600,-0.016,0.951,-0.259,0.183,-1.404,0.336,73.333,312262.000,1.000
-12.585,1.274,-7.827,-1.969,-5.792,-9.097,-15.109,-11.011,-0.016,0.953,-0.257,0.092,-1.434,0.366,73.333,312263.000,1.000
-11.870,0.572,-8.092,-0.835,-5.628,-11.202,-16.202,-10.117,-0.018,0.951,-0.258,0.214,-1.404,0.366,73.333,312264.000,1.000
-10.933,0.476,-7.369,0.923,-4.013,-10.077,-13.718,-6.505,-0.016,0.952,-0.258,0.305,-1.465,0.336,73.333,312265.000,1.000
-10.241,0.675,-6.188,2.887,-1.440,-5.816,-7.730,-1.193,-0.018,0.952,-0.260,0.092,-1.434,0.305,73.333,312266.000,1.000
-9.818,0.984,-4.824,4.811,1.430,-0.216,-0.008,4.527,-0.017,0.952,-0.256,0.000,-1.343,0.427,73.333,312267.000,1.000
-9.270,1.480,-3.294,6.620,4.065,4.583,6.955,9.495,-0.016,0.951,-0.255,0.000,-1.312,0.397,73.333,312268.000,1.000
-8.353,2.145,-1.749,8.118,6.120,7.592,11.399,13.039,-0.015,0.950,-0.257,0.031,-1.465,0.397,73.333,312269.000,1.000
-7.685,2.222,-1.074,8.401,6.785,8.516,12.315,14.215,-0.016,0.950,-0.256,0.061,-1.434,0.458,73.333,312270.000,1.000
-8.482,0.459,-2.720,6.115,4.856,7.012,9.200,11.560,-0.016,0.950,-0.256,0.122,-1.373,0.488,73.333,312271.000,1.000
-11.400,-3.699,-7.085,0.892,0.160,3.279,3.246,5.067,-0.018,0.951,-0.257,0.214,-1.373,0.427,73.333,312272.000,1.000
-16.056,-9.576,-13.171,-6.105,-5.868,-1.773,-2.938,-2.807,-0.017,0.948,-0.256,0.092,-1.465,0.519,73.333,312273.000,1.000
-21.437,-15.930,-19.405,-13.164,-11.649,-7.811,-8.123,-9.608,-0.017,0.945,-0.262,0.214,-1.404,0.580,73.333,312274.000,1.000
-26.384,-21.694,-24.445,-19.126,-16.749,-15.410,-13.838,-15.278,-0.018,0.944,-0.262,0.305,-1.465,0.580,73.333,312275.000,1.000
-29.920,-25.942,-27.546,-23.394,-20.987,-23.637,-21.022,-20.365,-0.020,0.942,-0.259,0.427,-1.556,0.519,73.333,312276.000,1.000
-31.427,-27.639,-28.061,-25.354,-23.069,-28.453,-26.322,-23.195,-0.021,0.941,-0.263,0.580,-1.587,0.610,73.333,312277.000,1.000
-30.694,-26.109,-25.752,-24.558,-21.544,-25.923,-25.069,-21.573,-0.021,0.940,-0.257,0.702,-1.709,0.549,73.333,312278.000,1.000
-27.987,-21.759,-21.183,-21.231,-16.645,-16.593,-16.793,-15.955,-0.021,0.941,-0.258,0.854,-1.587,0.549,73.333,312279.000,1.000
-24.140,-16.053,-15.540,-16.197,-10.119,-4.886,-5.227,-8.624,-0.021,0.941,-0.259,0.977,-1.678,0.549,73.333,312280.000,1.000
-20.504,-10.840,-10.404,-10.628,-3.860,4.850,5.569,-1.303,-0.022,0.940,-0.260,1.038,-1.740,0.549,73.333,312281.000,1.000
-18.539,-7.780,-7.222,-6.011,0.412,10.043,12.886,4.501,-0.022,0.938,-0.259,1.343,-1.770,0.549,73.333,312282.000,1.000
-19.304,-8.097,-7.323,-3.987,0.955,9.277,14.362,6.398,-0.024,0.939,-0.259,1.617,-1.953,0.549,73.333,312283.000,1.000
-22.917,-12.098,-11.275,-5.416,-3.023,2.566,8.771,2.948,-0.024,0.939,-0.259,1.709,-1.953,0.580,73.333,312284.000,1.000
-28.140,-18.514,-17.861,-9.436,-10.095,-7.769,-1.934,-4.141,-0.022,0.937,-0.261,2.045,-2.075,0.580,73.333,312285.000,1.000
-32.813,-24.784,-24.539,-13.910,-17.146,-17.762,-13.252,-11.295,-0.020,0.935,-0.261,2.289,-2.167,0.671,73.333,312286.000,1.000
-35.107,-28.483,-28.725,-16.863,-21.357,-23.869,-20.966,-15.944,-0.020,0.935,-0.261,2.502,-2.136,0.702,73.333,312287.000,1.000
-34.514,-28.598,-29.233,-17.461,-21.590,-24.597,-23.153,-17.373,-0.019,0.934,-0.265,2.960,-2.350,0.671,73.333,312288.000,1.000
-31.789,-25.639,-26.423,-15.935,-18.328,-20.667,-19.799,-15.640,-0.022,0.935,-0.263,3.174,-2.350,0.641,73.333,312289.000,1.000
-28.103,-20.882,-21.466,-13.044,-13.010,-14.175,-12.159,-11.217,-0.021,0.937,-0.262,3.510,-2.319,0.610,73.333,312290.000,1.000
-24.183,-15.413,-15.703,-9.444,-7.128,-7.196,-2.520,-5.029,-0.022,0.937,-0.262,3.845,-2.411,0.580,73.333,312291.000,1.000
-20.140,-9.630,-9.839,-5.301,-1.318,-0.364,7.315,2.426,-0.019,0.941,-0.259,4.059,-2.411,0.397,73.333,312292.000,1.000
-16.081,-3.774,-4.401,-0.954,4.177,6.666,16.255,10.381,-0.019,0.946,-0.261,4.181,-2.380,0.305,73.333,312293.000,1.000
-12.654,1.156,-0.406,2.235,8.119,12.850,22.023,15.928,-0.017,0.950,-0.262,4.303,-2.258,0.366,73.333,312294.000,1.000
-10.700,3.688,1.156,2.649,8.762,15.387,21.750,15.713,-0.014,0.950,-0.259,4.242,-2.197,0.366,73.333,312295.000,1.000
-10.594,3.066,0.078,-0.062,5.843,12.417,15.323,9.721,-0.016,0.948,-0.264,4.120,-2.075,0.427,73.333,312296.000,1.000
-12.194,-0.310,-2.867,-4.834,0.862,4.813,5.980,1.157,-0.016,0.946,-0.268,4.211,-2.075,0.275,73.333,312297.000,1.000
-14.950,-5.092,-6.676,-10.078,-4.126,-4.353,-2.443,-6.571,-0.018,0.945,-0.268,4.395,-2.014,0.061,73.333,312298.000,1.000
-17.750,-9.148,-10.133,-14.072,-7.064,-10.889,-6.806,-11.001,-0.017,0.946,-0.266,4.425,-1.953,-0.031,73.333,312299.000,1.000
-19.185,-10.296,-11.765,-15.300,-6.303,-10.977,-4.857,-10.551,-0.016,0.948,-0.266,4.547,-1.953,-0.275,73.333,312300.000,1.000
-18.406,-7.740,-10.879,-13.346,-1.820,-3.790,2.832,-5.494,-0.012,0.947,-0.267,4.700,-1.862,-0.336,73.333,312301.000,1.000
-15.736,-2.845,-8.062,-9.366,4.073,6.858,11.710,1.421,-0.011,0.949,-0.266,4.669,-1.770,-0.366,73.333,312302.000,1.000
-12.315,1.990,-4.859,-5.255,8.367,15.254,16.483,6.882,-0.011,0.948,-0.265,4.761,-1.678,-0.366,73.333,312303.000,1.000
-9.062,5.442,-2.295,-2.012,10.107,18.990,16.378,10.096,-0.009,0.943,-0.263,4.608,-1.434,-0.183,73.333,312304.000,1.000
-6.187,7.824,-0.181,0.618,10.549,19.813,14.904,12.434,-0.009,0.940,-0.265,4.639,-1.373,-0.061,73.333,312305.000,1.000
-3.809,9.481,1.523,2.682,10.329,19.163,13.797,13.636,-0.013,0.935,-0.264,4.608,-1.221,0.092,73.333,312306.000,1.000
-2.406,9.720,2.125,3.253,8.049,15.555,10.391,10.848,-0.016,0.930,-0.265,4.852,-0.946,0.214,73.333,312307.000,1.000
-2.153,8.014,1.065,1.701,2.669,7.689,2.188,2.759,-0.018,0.929,-0.269,5.096,-0.977,0.153,73.333,312308.000,1.000
-2.342,5.429,-0.848,-0.934,-3.886,-1.639,-7.953,-7.061,-0.019,0.928,-0.269,5.432,-0.916,0.122,73.333,312309.000,1.000
-1.905,4.063,-1.691,-2.539,-7.715,-6.571,-13.254,-12.419,-0.020,0.932,-0.270,5.890,-0.977,0.031,73.333,312310.000,1.000
-0.246,5.253,-0.132,-1.687,-6.336,-3.457,-9.446,-9.739,-0.018,0.936,-0.270,6.256,-0.885,-0.061,73.333,312311.000,1.000
2.446,8.487,3.675,1.300,-0.869,5.316,1.183,-0.943,-0.018,0.940,-0.271,6.622,-0.885,-0.031,73.333,312312.000,1.000
5.270,11.850,7.937,4.544,4.896,13.491,11.682,8.054,-0.017,0.943,-0.267,6.866,-0.854,-0.031,73.333,312313.000,1.000
7.162,13.506,10.473,6.021,7.512,16.473,16.140,11.754,-0.016,0.945,-0.270,6.989,-0.824,-0.031,73.333,312314.000,1.000
7.794,12.911,10.467,5.152,6.148,13.752,13.368,8.739,-0.017,0.945,-0.270,7.111,-0.824,0.061,73.333,312315.000,1.000
7.707,10.638,8.519,2.841,2.225,7.075,5.686,1.512,-0.017,0.945,-0.268,7.019,-0.702,0.092,73.333,312316.000,1.000
7.629,7.646,6.007,0.414,-2.113,-1.036,-3.152,-5.957,-0.015,0.945,-0.270,7.111,-0.671,0.183,73.333,312317.000,1.000
8.259,5.269,4.491,-0.788,-4.558,-7.125,-8.866,-9.822,-0.017,0.944,-0.270,7.111,-0.641,0.183,73.333,312318.000,1.000
10.145,4.736,5.115,0.226,-3.590,-8.678,-8.979,-8.080,-0.018,0.944,-0.270,7.355,-0.702,0.031,73.333,312319.000,1.000
12.863,5.766,7.456,2.904,-0.187,-6.696,-5.371,-2.812,-0.020,0.945,-0.268,7.385,-0.671,-0.031,73.333,312320.000,1.000
14.948,6.694,9.441,5.247,2.932,-3.916,-1.974,1.371,-0.022,0.947,-0.267,7.599,-0.793,-0.244,73.333,312321.000,1.000
15.237,6.406,9.619,5.854,4.278,-1.146,0.116,2.205,-0.023,0.948,-0.268,7.477,-0.885,-0.488,73.333,312322.000,1.000
13.753,5.128,8.057,4.921,4.374,2.423,2.354,0.982,-0.024,0.948,-0.266,7.568,-0.977,-0.732,73.333,312323.000,1.000
11.232,3.383,5.422,3.214,3.877,6.326,5.043,-0.583,-0.023,0.949,-0.266,7.477,-1.099,-0.824,73.333,312324.000,1.000
8.456,1.285,2.219,1.209,2.650,8.425,6.744,-2.006,-0.023,0.951,-0.267,7.172,-1.251,-0.824,73.333,312325.000,1.000
6.120,-0.906,-1.228,-0.629,0.849,7.632,6.995,-2.692,-0.023,0.948,-0.271,7.111,-1.343,-0.885,73.333,312326.000,1.000
4.967,-2.122,-3.903,-1.376,-0.149,6.030,8.151,-1.087,-0.026,0.947,-0.273,7.111,-1.404,-1.221,73.333,312327.000,1.000
5.533,-1.206,-4.660,-0.303,0.974,6.459,12.183,3.266,-0.024,0.945,-0.272,7.416,-1.434,-1.434,73.333,312328.000,1.000
7.375,1.317,-3.773,1.762,3.107,7.732,16.016,7.340,-0.024,0.945,-0.272,7.568,-1.648,-1.556,73.333,312329.000,1.000
8.956,3.186,-3.026,2.646,3.249,5.484,13.892,6.688,-0.025,0.944,-0.274,7.538,-1.709,-1.434,73.333,312330.000,1.000
9.040,2.906,-3.840,1.130,0.301,-1.178,5.223,0.675,-0.024,0.938,-0.276,7.477,-1.801,-1.343,73.333,312331.000,1.000
7.748,1.183,-5.623,-1.819,-3.549,-7.801,-3.809,-6.562,-0.026,0.932,-0.276,7.385,-1.709,-1.190,73.333,312332.000,1.000
5.899,-0.596,-7.126,-4.552,-5.754,-10.383,-7.614,-10.755,-0.026,0.926,-0.281,7.721,-1.862,-1.251,73.333,312333.000,1.000
4.296,-1.674,-7.637,-5.987,-5.497,-9.040,-5.696,-10.416,-0.024,0.927,-0.276,8.148,-2.075,-1.312,73.333,312334.000,1.000
3.772,-1.492,-6.597,-5.423,-2.861,-5.485,-0.008,-5.788,-0.025,0.931,-0.276,8.698,-2.045,-1.373,73.333,312335.000,1.000
4.869,0.400,-3.859,-2.733,1.696,-0.766,7.258,1.767,-0.024,0.939,-0.272,9.155,-2.167,-1.312,73.333,312336.000,1.000
7.267,3.530,0.025,1.164,6.807,3.989,13.432,9.553,-0.024,0.950,-0.271,9.277,-2.258,-1.282,73.333,312337.000,1.000
9.973,6.479,3.815,4.758,10.693,7.324,16.195,14.831,-0.025,0.958,-0.267,9.125,-2.411,-1.038,73.333,312338.000,1.000
12.208,8.129,6.520,7.088,12.559,8.855,15.552,16.737,-0.025,0.963,-0.262,8.698,-2.533,-0.916,73.333,312339.000,1.000
13.786,8.382,7.974,8.002,12.722,9.359,13.278,15.944,-0.026,0.967,-0.261,8.270,-2.655,-0.854,73.333,312340.000,1.000
14.692,7.553,8.169,7.517,11.488,9.063,10.231,12.859,-0.025,0.966,-0.262,7.782,-2.655,-0.702,73.333,312341.000,1.000
15.004,6.008,7.484,5.944,9.138,7.550,6.492,7.996,-0.025,0.963,-0.265,7.233,-2.838,-0.427,73.333,312342.000,1.000
15.169,4.475,6.825,4.357,6.819,5.446,3.318,3.422,-0.025,0.956,-0.270,6.836,-2.960,-0.214,73.333,312343.000,1.000
15.608,3.625,7.023,3.849,5.804,4.016,2.340,1.460,-0.027,0.947,-0.269,6.378,-3.052,-0.244,73.333,312344.000,1.000
15.972,3.180,7.903,4.294,5.817,3.104,2.944,1.998,-0.027,0.938,-0.274,6.042,-3.174,-0.061,73.333,312345.000,1.000
15.379,2.234,8.179,4.541,5.312,1.377,2.640,2.693,-0.025,0.929,-0.275,6.073,-3.265,0.153,73.333,312346.000,1.000
13.530,0.564,7.122,3.910,3.513,-1.394,0.581,1.940,-0.023,0.924,-0.276,6.317,-3.326,0.061,73.333,312347.000,1.000
11.272,-0.807,5.403,3.086,1.652,-3.263,-0.814,1.031,-0.023,0.925,-0.276,6.744,-3.387,-0.061,73.333,312348.000,1.000
9.880,-0.605,4.427,3.406,1.777,-1.960,1.599,2.758,-0.021,0.927,-0.275,7.141,-3.357,-0.122,73.333,312349.000,1.000
9.664,0.939,4.724,4.946,3.935,1.679,7.146,7.132,-0.021,0.934,-0.275,7.263,-3.326,-0.214,73.333,312350.000,1.000
9.575,1.852,5.046,5.899,5.450,3.313,10.608,10.002,-0.022,0.940,-0.276,7.324,-3.387,-0.305,73.333,312351.000,1.000
8.447,0.398,4.093,4.575,3.768,-0.696,7.415,7.472,-0.022,0.944,-0.274,7.202,-3.326,-0.336,73.333,312352.000,1.000
