EEG 1,EEG 2,EEG 3,EEG 4,EEG 5,EEG 6,EEG 7,EEG 8,Accelerometer X,Accelerometer Y,Accelerometer Z,Gyroscope X,Gyroscope Y,Gyroscope Z,Battery Level,Counter,Validation Indicator
-3178.981,5095.764,3375.846,-366.517,5138.888,5059.018,5087.228,5058.852,0.068,0.840,-0.402,0.000,0.000,0.000,80.000,1.000,1.000
-16284.470,35738.424,21541.790,-4676.888,36031.567,35439.449,35628.800,35452.329,0.077,0.863,-0.426,0.000,0.000,0.000,80.000,2.000,1.000
-41231.002,119265.154,64231.789,-24022.964,120238.830,118249.932,118884.233,118300.095,0.080,0.866,-0.432,0.000,0.000,0.000,80.000,3.000,1.000
-58177.680,258814.241,122319.924,-75378.338,260924.627,256601.595,257996.291,256719.919,0.078,0.868,-0.434,0.000,0.000,0.000,80.000,4.000,1.000
-40351.635,420970.869,173218.548,-172341.071,424401.929,417365.486,419676.458,417573.704,0.077,0.870,-0.439,0.000,0.000,0.000,80.000,5.000,1.000
13291.285,556605.413,205166.554,-307618.286,561141.280,551833.677,554951.695,552129.795,0.079,0.870,-0.439,-3.754,4.913,1.221,80.000,6.000,1.000
73502.454,626786.271,229178.469,-429226.210,631894.403,621410.180,624980.642,621762.291,0.080,0.867,-0.442,3.174,0.397,2.441,80.000,7.000,1.000
105263.084,618505.842,266735.619,-447672.465,623547.537,613200.394,616755.081,613557.096,0.078,0.866,-0.445,5.737,-0.763,2.563,80.000,8.000,1.000
80306.780,549538.517,329077.551,-297426.469,553357.504,544825.901,547983.312,545141.974,0.079,0.866,-0.449,6.714,-1.282,2.258,80.000,9.000,1.000
-19582.270,456998.348,407793.751,5711.351,456361.032,453349.666,455705.367,453576.865,0.078,0.866,-0.449,7.111,-1.465,1.862,80.000,10.000,1.000
-182563.286,370658.209,478720.518,369920.387,360285.263,369315.315,369704.515,369314.494,0.079,0.866,-0.445,7.141,-1.556,1.556,80.000,11.000,1.000
-359320.184,292772.852,513951.175,677863.753,269175.261,296144.793,292345.204,295644.806,0.081,0.868,-0.445,7.080,-1.617,1.282,80.000,12.000,1.000
-492257.549,205837.546,498838.436,842431.154,171016.348,216127.591,206156.833,214871.234,0.083,0.868,-0.445,6.989,-1.617,1.038,80.000,13.000,1.000
-546607.706,97951.894,443406.504,844559.033,58937.608,115203.976,99056.345,113156.692,0.084,0.866,-0.445,6.866,-1.556,0.885,80.000,14.000,1.000
-516425.602,-22325.559,375561.098,734417.688,-56759.266,-776.729,-20652.993,-3348.262,0.085,0.869,-0.446,6.744,-1.587,0.763,80.000,15.000,1.000
-416778.505,-132811.082,319721.589,591655.174,-155779.533,-111316.487,-130896.651,-113926.698,0.086,0.868,-0.444,6.561,-1.556,0.641,80.000,16.000,1.000
-276332.216,-214864.984,280235.261,472637.823,-224087.404,-197677.785,-212987.281,-199812.067,0.088,0.867,-0.443,6.439,-1.495,0.519,80.000,17.000,1.000
-130404.436,-263955.932,243798.479,386628.195,-262252.539,-253497.924,-262297.898,-254823.850,0.088,0.866,-0.442,6.165,-1.282,0.519,80.000,18.000,1.000
-10650.551,-287104.473,195848.438,314285.178,-280057.743,-283165.275,-285755.590,-283653.810,0.087,0.869,-0.442,6.195,-1.312,0.488,80.000,19.000,1.000
66332.135,-294012.215,133420.392,240598.375,-286353.859,-294404.683,-292971.985,-294283.499,0.088,0.868,-0.446,6.073,-1.221,0.458,80.000,20.000,1.000
103454.043,-291736.929,63697.149,168066.443,-285265.087,-293906.222,-290943.044,-293481.796,0.088,0.867,-0.451,5.920,-1.190,0.305,80.000,21.000,1.000
116063.549,-285188.142,-4774.752,105865.993,-279463.391,-287525.269,-284570.431,-287022.189,0.089,0.866,-0.448,5.798,-1.068,0.214,80.000,22.000,1.000
119248.995,-278576.059,-65624.645,56693.472,-272886.413,-280609.942,-278083.122,-280134.637,0.090,0.866,-0.448,5.890,-0.977,0.214,80.000,23.000,1.000
120464.247,-274311.602,-112669.651,17356.137,-268606.828,-276101.150,-273892.462,-275691.806,0.087,0.864,-0.448,5.768,-0.977,0.061,80.000,24.000,1.000
121532.560,-271476.543,-140966.839,-13268.549,-265815.622,-273112.096,-271071.367,-272776.812,0.087,0.864,-0.450,5.646,-0.946,0.092,80.000,25.000,1.000
123763.394,-267146.223,-152157.514,-33003.333,-261089.105,-268761.468,-266721.718,-268475.178,0.086,0.865,-0.450,5.615,-0.977,-0.061,80.000,26.000,1.000
128855.284,-259701.939,-155856.883,-42847.376,-252723.167,-261611.079,-259285.769,-261316.821,0.087,0.866,-0.448,5.554,-0.854,-0.092,80.000,27.000,1.000
136182.593,-250360.956,-162692.680,-50084.391,-242646.061,-252883.920,-250016.317,-252530.330,0.087,0.866,-0.449,5.524,-0.854,-0.153,80.000,28.000,1.000
142220.269,-241421.033,-175971.510,-62322.039,-233822.626,-244548.887,-241183.244,-244132.396,0.088,0.867,-0.449,5.280,-0.824,-0.092,80.000,29.000,1.000
143982.359,-233727.737,-191279.014,-80026.236,-226864.103,-237094.978,-233579.720,-236657.284,0.088,0.866,-0.450,5.157,-0.854,-0.153,80.000,30.000,1.000
142142.942,-226348.009,-203479.505,-97244.400,-220005.537,-229593.559,-226259.037,-229175.768,0.087,0.863,-0.451,5.127,-0.732,-0.061,80.000,31.000,1.000
139846.411,-218291.080,-212119.385,-109212.095,-211846.796,-221379.469,-218259.220,-220985.092,0.086,0.864,-0.452,5.096,-0.671,-0.122,80.000,32.000,1.000
138995.784,-209779.015,-219752.729,-117098.375,-203013.271,-212919.020,-209819.890,-212523.293,0.085,0.863,-0.451,4.883,-0.702,0.000,80.000,33.000,1.000
138742.691,-201686.523,-227231.190,-124914.985,-194949.150,-205005.351,-201792.378,-204591.249,0.085,0.860,-0.449,4.791,-0.702,0.000,80.000,34.000,1.000
137476.528,-194275.072,-232721.841,-133891.866,-187920.480,-197674.696,-194409.521,-197250.280,0.086,0.859,-0.449,4.669,-0.610,0.092,80.000,35.000,1.000
135115.382,-186930.421,-234925.796,-141687.698,-180860.922,-190258.481,-187068.297,-189841.265,0.085,0.858,-0.449,4.669,-0.671,0.092,80.000,36.000,1.000
132830.558,-179021.179,-235316.212,-146381.272,-172900.870,-182277.309,-179175.739,-181872.023,0.084,0.860,-0.451,4.578,-0.610,0.214,80.000,37.000,1.000
131191.822,-170640.428,-236373.267,-149206.872,-164393.894,-173945.030,-170838.942,-173542.436,0.082,0.858,-0.451,4.456,-0.641,0.336,80.000,38.000,1.000
129501.745,-162406.266,-238596.982,-152722.259,-156310.211,-165809.448,-162649.117,-165403.105,0.081,0.857,-0.453,4.425,-0.641,0.275,80.000,39.000,1.000
126933.874,-154740.854,-240310.977,-157505.156,-149045.690,-158144.313,-154999.950,-157740.942,0.080,0.857,-0.454,4.303,-0.641,0.214,80.000,40.000,1.000
123609.866,-147498.962,-240079.276,-161791.088,-142130.292,-150778.734,-147753.259,-150389.381,0.080,0.857,-0.455,4.242,-0.702,0.153,80.000,41.000,1.000
120238.467,-140231.607,-238308.200,-163993.042,-134936.630,-143379.626,-140487.885,-143004.727,0.079,0.857,-0.454,4.333,-0.793,0.092,80.000,42.000,1.000
117113.005,-132685.355,-236298.239,-164513.772,-127370.995,-135789.975,-132957.693,-135417.983,0.080,0.856,-0.454,4.272,-0.916,0.031,80.000,43.000,1.000
113901.523,-125031.498,-234521.768,-164867.205,-119846.051,-128145.959,-125312.676,-127766.812,0.081,0.857,-0.456,4.150,-0.946,-0.122,80.000,44.000,1.000
110274.488,-117660.148,-232395.328,-165767.585,-112769.393,-120738.461,-117927.122,-120354.814,0.081,0.857,-0.455,4.211,-1.007,-0.153,80.000,45.000,1.000
106319.018,-110763.519,-229370.701,-166620.849,-106154.912,-113728.774,-111007.675,-113351.909,0.082,0.858,-0.452,4.150,-1.038,-0.244,80.000,46.000,1.000
102289.032,-104121.561,-225615.387,-166576.095,-99664.194,-106958.108,-104359.245,-106594.965,0.082,0.857,-0.456,3.998,-1.160,-0.397,80.000,47.000,1.000
98282.676,-97341.544,-221611.346,-165517.538,-92970.182,-100095.807,-97590.046,-99742.821,0.081,0.856,-0.452,3.937,-1.129,-0.519,80.000,48.000,1.000
94318.021,-90331.252,-217558.323,-163995.319,-86107.792,-93040.338,-90585.239,-92689.983,0.080,0.857,-0.454,3.784,-1.068,-0.580,80.000,49.000,1.000
90481.514,-83452.259,-213356.089,-162552.095,-79466.392,-86100.129,-83693.040,-85751.368,0.080,0.857,-0.457,3.815,-1.251,-0.824,80.000,50.000,1.000
86789.439,-77104.732,-208877.426,-161269.156,-73371.117,-79648.991,-77326.540,-79309.493,0.079,0.857,-0.458,3.571,-1.221,-1.038,80.000,51.000,1.000
83044.700,-71210.184,-204032.801,-159788.698,-67674.657,-73631.441,-71425.998,-73309.704,0.079,0.857,-0.459,3.601,-1.312,-1.038,80.000,52.000,1.000
79060.452,-65274.129,-198749.864,-157664.117,-61885.664,-67588.708,-65495.000,-67285.512,0.079,0.857,-0.460,3.418,-1.221,-1.160,80.000,53.000,1.000
74971.793,-59013.513,-193129.374,-154811.773,-55768.717,-61246.822,-59232.207,-60955.565,0.080,0.856,-0.459,3.326,-1.343,-1.221,80.000,54.000,1.000
71088.349,-52753.299,-187510.170,-151692.412,-49686.643,-54911.493,-52954.480,-54626.554,0.080,0.856,-0.458,3.418,-1.343,-1.404,80.000,55.000,1.000
67412.688,-47029.147,-182118.178,-148895.031,-44177.497,-49095.534,-47209.636,-48818.752,0.079,0.855,-0.456,3.296,-1.312,-1.465,80.000,56.000,1.000
63556.290,-41878.043,-176692.312,-146434.683,-39246.988,-43830.865,-42048.817,-43568.794,0.079,0.857,-0.458,3.265,-1.373,-1.556,80.000,57.000,1.000
59279.813,-36767.414,-170749.216,-143644.209,-34320.091,-38600.767,-36936.615,-38355.946,0.080,0.856,-0.459,3.143,-1.343,-1.648,80.000,58.000,1.000
54914.942,-31295.213,-164281.821,-139980.232,-28982.505,-33025.261,-31456.939,-32791.931,0.080,0.857,-0.460,2.991,-1.312,-1.587,80.000,59.000,1.000
50984.234,-25738.490,-157896.787,-135806.256,-23553.374,-27387.645,-25881.963,-27157.592,0.081,0.858,-0.459,2.838,-1.221,-1.617,80.000,60.000,1.000
47477.071,-20694.553,-152051.538,-132032.114,-18687.130,-22266.763,-20819.215,-22038.737,0.081,0.859,-0.461,2.686,-1.160,-1.770,80.000,61.000,1.000
43820.543,-16277.672,-146387.933,-128939.631,-14496.119,-17752.504,-16393.152,-17533.665,0.080,0.859,-0.465,2.686,-1.160,-1.709,80.000,62.000,1.000
39656.245,-11957.762,-140172.896,-125750.769,-10378.887,-13314.809,-12070.181,-13112.182,0.077,0.855,-0.463,2.502,-1.068,-1.740,80.000,63.000,1.000
35365.755,-7272.547,-133333.212,-121632.916,-5819.247,-8519.788,-7377.477,-8332.483,0.078,0.854,-0.462,2.411,-1.160,-1.801,80.000,64.000,1.000
31583.176,-2452.922,-126634.956,-116861.947,-1089.828,-3620.991,-2543.869,-3442.834,0.080,0.852,-0.463,2.380,-1.099,-1.831,80.000,65.000,1.000
28342.304,1890.736,-120672.700,-112522.297,3108.164,786.368,1812.856,958.034,0.079,0.851,-0.464,2.380,-1.068,-1.923,80.000,66.000,1.000
25052.394,5596.362,-115034.848,-109065.941,6595.416,4577.400,5526.582,4738.627,0.077,0.851,-0.462,2.380,-0.977,-2.075,80.000,67.000,1.000
21351.490,9166.334,-108847.026,-105677.501,9962.279,8265.029,9105.036,8411.333,0.077,0.851,-0.464,2.411,-0.885,-2.167,80.000,68.000,1.000
17632.345,13083.342,-101990.910,-101365.785,13770.254,12299.048,13036.826,12431.796,0.076,0.851,-0.463,2.411,-0.763,-2.197,80.000,69.000,1.000
14481.657,17162.762,-95305.039,-96331.453,17793.598,16460.360,17134.520,16584.835,0.078,0.850,-0.461,2.289,-0.763,-2.197,80.000,70.000,1.000
11816.824,20816.588,-89453.219,-91726.520,21333.115,20171.565,20802.461,20289.846,0.078,0.850,-0.459,2.319,-0.732,-2.197,80.000,71.000,1.000
8952.723,23854.657,-84013.380,-88102.340,24168.087,23285.105,23848.555,23393.793,0.079,0.850,-0.463,2.289,-0.671,-2.228,80.000,72.000,1.000
5530.961,26730.169,-78061.041,-84662.906,26847.272,26271.015,26731.814,26366.798,0.080,0.852,-0.465,2.289,-0.458,-2.228,80.000,73.000,1.000
2023.549,29913.457,-71452.055,-80357.313,29934.614,29566.207,29927.131,29651.141,0.079,0.854,-0.462,2.197,-0.458,-2.350,80.000,74.000,1.000
-892.527,33262.862,-65029.997,-75320.530,33250.818,32989.181,33289.334,33068.165,0.081,0.853,-0.462,2.136,-0.397,-2.319,80.000,75.000,1.000
-3229.487,36238.986,-59471.032,-70689.701,36136.800,36008.315,36273.064,36082.451,0.081,0.855,-0.462,2.075,-0.214,-2.350,80.000,76.000,1.000
-5633.110,38644.616,-54366.627,-67056.401,38356.958,38472.170,38682.221,38537.368,0.082,0.856,-0.460,1.953,-0.061,-2.350,80.000,77.000,1.000
-8479.546,40877.207,-48803.862,-63679.801,40405.117,40800.749,40921.808,40853.665,0.081,0.856,-0.462,1.801,-0.031,-2.289,80.000,78.000,1.000
-11379.076,43375.278,-42626.335,-59521.385,42819.908,43402.029,43434.269,43445.245,0.081,0.858,-0.461,1.709,0.092,-2.136,80.000,79.000,1.000
-13747.155,46034.700,-36636.715,-54661.852,45464.859,46130.190,46110.320,46169.317,0.082,0.857,-0.460,1.617,0.214,-2.106,80.000,80.000,1.000
-15624.308,48376.398,-31486.676,-50169.129,47741.287,48509.642,48463.546,48546.004,0.083,0.856,-0.461,1.556,0.366,-1.984,80.000,81.000,1.000
-17614.972,50204.894,-26802.379,-46635.911,49410.198,50387.537,50298.030,50416.186,0.085,0.856,-0.462,1.404,0.519,-1.892,80.000,82.000,1.000
-20055.108,51854.686,-21729.348,-43403.300,50895.863,52120.908,51953.558,52136.651,0.081,0.855,-0.461,1.312,0.671,-1.770,80.000,83.000,1.000
-22564.903,53719.019,-16110.123,-39496.873,52689.856,54074.980,53826.138,54078.411,0.082,0.854,-0.461,1.312,0.854,-1.709,80.000,84.000,1.000
-24580.076,55728.464,-10673.924,-34951.972,54696.567,56141.144,55843.547,56137.066,0.082,0.853,-0.463,1.221,1.160,-1.587,80.000,85.000,1.000
-26107.942,57474.666,-6018.962,-30728.218,56396.175,57914.416,57594.519,57905.380,0.082,0.854,-0.459,1.190,1.343,-1.556,80.000,86.000,1.000
-27683.445,58775.018,-1815.158,-27386.708,57562.614,59252.618,58898.106,59236.243,0.081,0.853,-0.461,1.099,1.587,-1.526,80.000,87.000,1.000
-29628.061,59901.550,2705.059,-24361.704,58548.676,60449.677,60029.814,60422.852,0.080,0.854,-0.460,1.160,1.678,-1.434,80.000,88.000,1.000
-31644.122,61193.311,7690.527,-20776.414,59784.965,61819.159,61328.622,61783.197,0.079,0.855,-0.460,1.221,1.923,-1.282,80.000,89.000,1.000
-33262.175,62607.381,12501.093,-16633.224,61207.374,63281.427,62748.338,63241.241,0.078,0.853,-0.462,1.221,2.075,-1.282,80.000,90.000,1.000
-34481.804,63806.185,16607.046,-12765.430,62377.761,64501.171,63950.587,64459.505,0.076,0.854,-0.461,1.190,2.075,-1.312,80.000,91.000,1.000
-35732.550,64626.694,20290.584,-9682.353,63091.726,65352.463,64775.948,65306.760,0.077,0.854,-0.459,1.221,1.984,-1.251,80.000,92.000,1.000
-37255.618,65284.110,24218.639,-6913.262,63634.722,66071.194,65442.272,66017.154,0.077,0.854,-0.458,1.221,2.228,-1.160,80.000,93.000,1.000
-38782.087,66062.275,28526.554,-3695.959,64372.332,66917.938,66230.265,66854.727,0.075,0.853,-0.458,1.282,2.289,-1.099,80.000,94.000,1.000
-39925.946,66939.111,32670.101,-9.481,65265.295,67835.920,67112.308,67766.265,0.072,0.854,-0.460,1.190,2.258,-1.038,80.000,95.000,1.000
-40716.570,67644.466,36195.427,3445.751,65955.463,68555.364,67817.781,68481.208,0.070,0.853,-0.461,1.129,2.319,-0.946,80.000,96.000,1.000
-41544.687,68037.741,39336.884,6223.782,66264.676,68968.570,68211.166,68888.394,0.069,0.854,-0.460,1.038,2.319,-0.916,80.000,97.000,1.000
-42632.849,68282.894,42656.769,8703.688,66416.580,69259.129,68459.717,69170.345,0.070,0.856,-0.459,0.946,2.350,-0.946,80.000,98.000,1.000
-43766.902,68610.187,46275.074,11527.110,66712.930,69638.194,68790.689,69541.362,0.069,0.857,-0.459,0.977,2.380,-0.916,80.000,99.000,1.000
-44619.571,69013.697,49744.172,14730.629,67135.547,70069.635,69193.238,69968.805,0.066,0.857,-0.460,0.854,2.350,-0.854,80.000,100.000,1.000
-45186.786,69284.772,52686.492,17743.586,67401.873,70344.332,69458.901,70242.907,0.067,0.858,-0.459,0.824,2.167,-0.793,80.000,101.000,1.000
-45753.108,69305.273,55288.563,20186.734,67360.585,70372.457,69474.614,70269.766,0.066,0.857,-0.459,0.641,2.167,-0.824,80.000,102.000,1.000
-46479.478,69193.878,58007.967,22353.905,67178.897,70290.903,69362.199,70183.616,0.065,0.858,-0.458,0.458,2.106,-0.854,80.000,103.000,1.000
-47197.739,69130.736,60946.574,24768.401,67096.875,70264.978,69299.108,70151.374,0.063,0.858,-0.455,0.214,2.136,-0.977,80.000,104.000,1.000
-47669.424,69121.124,63747.450,27476.484,67111.018,70274.204,69286.192,70156.032,0.065,0.858,-0.455,0.153,1.953,-0.885,80.000,105.000,1.000
-47926.688,69009.916,66106.126,30029.096,67005.646,70161.346,69168.535,70041.491,0.064,0.858,-0.457,-0.031,1.740,-0.885,80.000,106.000,1.000
-48229.006,68700.707,68166.211,32113.742,66655.838,69851.978,68854.027,69731.400,0.063,0.856,-0.457,-0.061,1.556,-0.824,80.000,107.000,1.000
-48710.257,68275.238,70289.554,33949.148,66181.522,69442.949,68426.572,69320.604,0.064,0.855,-0.458,-0.122,1.526,-0.946,80.000,108.000,1.000
-49205.684,67871.739,72563.191,35949.291,65769.832,69061.964,68021.789,68937.105,0.062,0.854,-0.462,-0.214,1.312,-0.916,80.000,109.000,1.000
-49479.885,67506.202,74715.696,38166.553,65431.201,68705.489,67652.362,68578.940,0.063,0.854,-0.460,-0.061,1.099,-0.946,80.000,110.000,1.000
-49522.198,67070.993,76511.094,40261.781,65010.132,68264.323,67211.544,68137.188,0.063,0.852,-0.459,0.061,1.007,-1.007,80.000,111.000,1.000
-49520.616,66489.694,78054.322,41985.587,64406.651,67679.566,66627.048,67551.369,0.063,0.850,-0.459,0.000,0.885,-0.885,80.000,112.000,1.000
-49590.556,65811.332,79618.423,43491.283,63699.140,67012.620,65949.929,66881.691,0.063,0.850,-0.462,0.122,0.732,-0.885,80.000,113.000,1.000
-49632.728,65133.220,81271.856,45091.974,63023.712,66352.034,65274.629,66217.697,0.063,0.852,-0.459,0.061,0.488,-0.885,80.000,114.000,1.000
-49479.109,64473.991,82814.448,46838.957,62395.600,65699.146,64615.282,65562.620,0.065,0.853,-0.456,0.153,0.366,-0.702,80.000,115.000,1.000
-49110.497,63763.945,84070.402,48487.316,61708.173,64981.175,63901.710,64844.170,0.067,0.852,-0.458,0.183,0.275,-0.671,80.000,116.000,1.000
-48673.267,62947.344,85114.732,49846.848,60886.697,64155.950,63082.007,64019.052,0.066,0.850,-0.459,0.153,0.214,-0.610,80.000,117.000,1.000
-48309.687,62051.988,86147.511,51019.504,59980.405,63262.268,62186.454,63124.963,0.067,0.849,-0.462,0.153,0.183,-0.580,80.000,118.000,1.000
-48034.725,61145.298,87223.488,52233.278,59086.274,62362.514,61280.467,62224.393,0.067,0.850,-0.462,0.244,0.061,-0.519,80.000,119.000,1.000
-47782.293,60249.361,88204.520,53537.544,58225.141,61466.720,60383.302,61328.070,0.067,0.850,-0.464,0.427,0.031,-0.427,80.000,120.000,1.000
-47514.800,59324.618,88965.399,54766.183,57330.621,60532.965,59456.175,60393.780,0.067,0.853,-0.461,0.549,-0.122,-0.305,80.000,121.000,1.000
-47243.202,58329.416,89552.730,55777.809,56345.802,59528.672,58460.338,59387.279,0.065,0.853,-0.457,0.458,-0.214,-0.183,80.000,122.000,1.000
-46956.242,57271.000,90101.226,56629.929,55291.792,58468.210,57403.487,58321.692,0.068,0.856,-0.457,0.488,-0.275,-0.153,80.000,123.000,1.000
-46585.090,56189.810,90651.723,57477.889,54230.139,57387.545,56322.790,57234.287,0.068,0.855,-0.458,0.519,-0.336,-0.122,80.000,124.000,1.000
-46066.003,55108.576,91117.539,58367.976,53183.879,56299.261,55237.289,56141.301,0.067,0.854,-0.455,0.549,-0.366,-0.061,80.000,125.000,1.000
-45414.985,54011.852,91417.581,59199.920,52119.644,55185.010,54131.833,55027.415,0.069,0.852,-0.458,0.549,-0.488,0.031,80.000,126.000,1.000
-44708.728,52872.552,91578.966,59876.519,50999.663,54025.170,52983.485,53872.504,0.069,0.849,-0.460,0.519,-0.458,0.000,80.000,127.000,1.000
-43994.587,51685.844,91685.604,60422.688,49828.077,52822.982,51790.628,52676.242,0.067,0.848,-0.463,0.610,-0.458,0.031,80.000,128.000,1.000
-43246.986,50472.293,91766.451,60933.890,48639.766,51598.851,50573.268,51455.454,0.070,0.847,-0.462,0.610,-0.305,0.214,80.000,129.000,1.000
-42419.587,49253.650,91774.135,61449.665,47457.464,50368.651,49351.149,50225.072,0.070,0.848,-0.459,0.885,-0.305,0.183,80.000,130.000,1.000
-41512.244,48031.411,91661.289,61919.504,46271.389,49130.324,48125.569,48985.347,0.071,0.846,-0.457,0.977,-0.244,0.183,80.000,131.000,1.000
-40566.626,46788.934,91438.715,62281.651,45057.430,47868.931,46880.995,47725.016,0.072,0.847,-0.460,1.007,-0.305,0.397,80.000,132.000,1.000
-39617.865,45512.065,91149.762,62537.313,43806.198,46573.373,45603.024,46435.008,0.075,0.848,-0.460,1.312,-0.214,0.549,80.000,133.000,1.000
-38678.409,44206.291,90814.227,62736.324,42531.868,45249.451,44295.049,45119.548,0.075,0.847,-0.459,1.373,-0.183,0.610,80.000,134.000,1.000
-37758.718,42892.708,90416.423,62912.938,41256.562,43916.613,42976.407,43793.728,0.076,0.848,-0.457,1.373,-0.122,0.702,80.000,135.000,1.000
-36874.830,41586.282,89937.058,63055.176,39988.772,42589.679,41662.950,42468.831,0.074,0.850,-0.455,1.617,-0.061,0.885,80.000,136.000,1.000
-36032.162,40279.749,89376.394,63129.630,38716.360,41263.431,40349.974,41139.627,0.074,0.852,-0.458,1.617,-0.031,1.068,80.000,137.000,1.000
-35219.902,38952.869,88747.020,63120.043,37420.879,39918.953,39018.135,39789.699,0.073,0.852,-0.458,1.648,0.000,1.190,80.000,138.000,1.000
-34424.507,37598.478,88059.580,63040.398,36100.091,38547.612,37658.835,38413.103,0.071,0.854,-0.458,1.678,0.000,1.251,80.000,139.000,1.000
-33633.112,36234.016,87319.294,62919.091,34773.829,37164.210,36288.560,37026.751,0.072,0.854,-0.457,1.678,0.000,1.282,80.000,140.000,1.000
-32819.651,34881.887,86525.939,62772.298,33462.838,35790.157,34930.963,35653.244,0.071,0.854,-0.459,1.709,0.000,1.404,80.000,141.000,1.000
-31946.413,33541.877,85671.635,62588.561,32163.644,34426.474,33587.312,34293.025,0.071,0.851,-0.460,1.678,0.153,1.556,80.000,142.000,1.000
-30997.984,32192.249,84747.662,62340.702,30852.777,33053.400,32235.546,32924.437,0.070,0.853,-0.458,1.678,0.153,1.648,80.000,143.000,1.000
-30010.075,30820.089,83760.298,62017.760,29518.312,31659.203,30861.528,31534.178,0.070,0.854,-0.460,1.740,0.153,1.648,80.000,144.000,1.000
-29045.950,29441.228,82731.641,61642.558,28178.481,30259.487,29480.630,30137.360,0.072,0.854,-0.460,1.617,0.153,1.587,80.000,145.000,1.000
-28134.877,28081.838,81675.662,61248.844,26860.747,28879.085,28119.416,28759.035,0.071,0.852,-0.460,1.648,0.244,1.587,80.000,146.000,1.000
-27241.871,26744.644,80578.216,60839.748,25566.454,27519.264,26780.459,27400.780,0.071,0.852,-0.459,1.587,0.214,1.587,80.000,147.000,1.000
-26306.138,25404.994,79413.649,60380.646,24268.036,26154.840,25437.585,26037.567,0.072,0.853,-0.458,1.709,0.122,1.526,80.000,148.000,1.000
-25301.044,24043.638,78181.797,59842.461,22945.167,24767.323,24070.166,24651.213,0.072,0.852,-0.458,1.709,0.153,1.465,80.000,149.000,1.000
-24244.955,22673.446,76913.910,59243.169,21613.385,23370.871,22691.886,23256.660,0.069,0.849,-0.458,1.709,0.183,1.495,80.000,150.000,1.000
-23164.323,21323.922,75634.545,58629.662,20305.890,21995.409,21334.958,21884.857,0.070,0.847,-0.461,1.770,0.153,1.495,80.000,151.000,1.000
-22071.377,20003.641,74329.064,58018.455,19031.178,20648.848,20009.749,20543.842,0.071,0.848,-0.461,1.709,0.122,1.343,80.000,152.000,1.000
-20981.311,18691.107,72964.387,57373.731,17763.346,19309.366,18693.776,19210.272,0.072,0.849,-0.463,1.709,0.092,1.404,80.000,153.000,1.000
-19924.260,17366.091,71537.819,56655.740,16478.652,17957.659,17364.460,17862.805,0.073,0.849,-0.459,1.831,0.061,1.343,80.000,154.000,1.000
-18918.971,16038.426,70085.417,55876.566,15188.776,16604.445,16030.302,16511.519,0.074,0.849,-0.462,1.801,0.122,1.282,80.000,155.000,1.000
-17944.761,14735.452,68636.099,55087.008,13925.934,15276.355,14719.379,15184.386,0.074,0.850,-0.460,1.923,0.275,1.282,80.000,156.000,1.000
-16959.763,13466.024,67173.880,54310.321,12700.553,13980.772,13442.365,13890.694,0.074,0.852,-0.458,1.892,0.214,1.343,80.000,157.000,1.000
-15949.424,12210.069,65661.707,53512.229,11488.912,12697.653,12180.426,12611.034,0.073,0.851,-0.460,2.014,0.244,1.282,80.000,158.000,1.000
-14943.671,10947.187,64095.458,52649.107,10266.960,11408.673,10913.557,11326.157,0.074,0.851,-0.458,1.984,0.244,1.160,80.000,159.000,1.000
-13979.557,9684.966,62512.760,51729.390,9043.885,10123.368,9649.429,10044.215,0.072,0.851,-0.463,1.984,0.427,1.190,80.000,160.000,1.000
-13058.837,8448.812,60943.680,50803.971,7849.722,8866.422,8413.151,8789.272,0.073,0.852,-0.463,1.953,0.275,1.282,80.000,161.000,1.000
-12154.657,7247.828,59370.739,49897.978,6694.403,7644.000,7212.503,7567.695,0.071,0.854,-0.465,1.892,0.244,1.282,80.000,162.000,1.000
-11253.128,6063.454,57753.976,48977.356,5554.516,6435.478,6026.920,6359.400,0.071,0.853,-0.464,1.801,0.244,1.221,80.000,163.000,1.000
-10371.543,4875.710,56087.451,47996.386,4405.584,5221.418,4835.291,5145.912,0.069,0.854,-0.465,1.892,0.122,1.099,80.000,164.000,1.000
-9530.612,3690.694,54409.171,46961.122,3255.482,4009.612,3644.259,3936.261,0.070,0.853,-0.460,1.709,0.183,1.160,80.000,165.000,1.000
-8721.457,2532.410,52751.511,45922.363,2134.066,2824.832,2479.586,2755.714,0.069,0.852,-0.462,1.617,0.183,1.068,80.000,166.000,1.000
-7912.113,1411.246,51100.371,44908.481,1054.172,1677.334,1353.381,1613.385,0.072,0.853,-0.462,1.526,0.153,0.977,80.000,167.000,1.000
-7081.222,312.045,49418.386,43889.915,-3.114,552.361,251.121,492.473,0.075,0.852,-0.461,1.495,0.183,0.946,80.000,168.000,1.000
-6232.243,-783.540,47698.923,42822.418,-1060.599,-567.103,-845.889,-625.147,0.075,0.849,-0.463,1.434,0.183,0.946,80.000,169.000,1.000
-5372.643,-1871.828,45976.023,41708.587,-2113.675,-1676.631,-1934.725,-1734.416,0.076,0.846,-0.466,1.312,0.122,0.885,80.000,170.000,1.000
-4492.614,-2932.580,44278.652,40594.371,-3137.469,-2757.431,-2996.003,-2814.910,0.078,0.842,-0.468,1.465,0.061,0.885,80.000,171.000,1.000
-3578.881,-3956.243,42593.145,39507.407,-4120.933,-3802.797,-4021.171,-3858.473,0.080,0.841,-0.470,1.526,0.275,0.885,80.000,172.000,1.000
-2652.539,-4955.383,40884.707,38422.403,-5080.594,-4826.487,-5023.367,-4878.373,0.079,0.839,-0.468,1.801,0.366,0.916,80.000,173.000,1.000
-1786.600,-5946.092,39147.073,37298.920,-6036.536,-5842.435,-6017.808,-5889.264,0.080,0.840,-0.468,1.862,0.366,0.824,80.000,174.000,1.000
-1069.116,-6926.078,37411.415,36137.408,-6985.014,-6845.169,-7000.493,-6887.206,0.080,0.840,-0.469,1.953,0.488,0.732,80.000,175.000,1.000
-528.018,-7878.650,35704.606,34977.706,-7904.368,-7817.465,-7953.762,-7856.047,0.080,0.844,-0.472,2.136,0.580,0.732,80.000,176.000,1.000
-88.548,-8795.492,34015.280,33844.884,-8784.340,-8753.422,-8869.745,-8789.582,0.082,0.844,-0.470,2.289,0.732,0.671,80.000,177.000,1.000
386.659,-9686.839,32312.912,32717.641,-9638.559,-9665.490,-9759.959,-9699.103,0.085,0.845,-0.473,2.228,0.793,0.702,80.000,178.000,1.000
1012.452,-10566.571,30591.741,31560.443,-10484.900,-10567.361,-10639.381,-10597.485,0.086,0.847,-0.472,2.258,0.977,0.854,80.000,179.000,1.000
1826.686,-11433.511,28878.686,30372.999,-11321.667,-11456.230,-11507.343,-11482.348,0.087,0.847,-0.474,2.289,1.099,0.885,80.000,180.000,1.000
2792.790,-12273.630,27197.175,29190.231,-12130.955,-12317.036,-12349.553,-12339.997,0.085,0.845,-0.473,2.411,1.160,0.854,80.000,181.000,1.000
3828.692,-13078.794,25537.727,28035.482,-12902.857,-13141.908,-13157.109,-13163.400,0.084,0.845,-0.472,2.380,1.434,0.854,80.000,182.000,1.000
4836.252,-13856.309,23874.138,26891.910,-13647.235,-13938.722,-13936.682,-13959.734,0.085,0.847,-0.471,2.472,1.526,0.824,80.000,183.000,1.000
5737.680,-14617.572,22201.148,25728.942,-14378.532,-14718.550,-14699.170,-14738.523,0.085,0.848,-0.469,2.533,1.678,0.793,80.000,184.000,1.000
6513.899,-15362.619,20541.365,24544.825,-15096.039,-15480.623,-15444.392,-15498.286,0.083,0.851,-0.468,2.472,1.862,0.824,80.000,185.000,1.000
7209.406,-16081.407,18914.351,23367.511,-15786.455,-16215.340,-16162.945,-16230.168,0.080,0.854,-0.471,2.350,1.831,0.824,80.000,186.000,1.000
7886.315,-16768.451,17311.564,22215.836,-16443.322,-16919.158,-16850.783,-16931.703,0.081,0.857,-0.472,2.197,2.014,0.702,80.000,187.000,1.000
8566.693,-17429.907,15710.430,21075.875,-17075.583,-17599.496,-17514.958,-17610.355,0.080,0.859,-0.470,2.014,2.075,0.702,80.000,188.000,1.000
9223.469,-18074.455,14106.422,19922.771,-17694.806,-18264.104,-18163.540,-18273.081,0.080,0.860,-0.469,1.801,2.228,0.580,80.000,189.000,1.000
9825.474,-18701.552,12518.797,18755.601,-18299.709,-18910.580,-18794.668,-18917.035,0.081,0.860,-0.470,1.648,2.258,0.549,80.000,190.000,1.000
10376.894,-19302.441,10965.067,17598.539,-18878.066,-19529.184,-19398.180,-19532.654,0.080,0.860,-0.468,1.404,2.197,0.397,80.000,191.000,1.000
10908.154,-19871.550,9440.070,16469.050,-19422.332,-20114.329,-19967.240,-20114.765,0.080,0.858,-0.471,1.129,2.228,0.336,80.000,192.000,1.000
11442.877,-20412.983,7926.196,15356.927,-19938.316,-20670.182,-20505.623,-20668.048,0.081,0.859,-0.474,0.977,2.258,0.336,80.000,193.000,1.000
11984.938,-20934.317,6418.851,14240.835,-20436.457,-21204.403,-21022.021,-21200.287,0.080,0.858,-0.472,0.732,2.228,0.275,80.000,194.000,1.000
12531.175,-21436.970,4931.947,13117.622,-20918.653,-21719.502,-21520.265,-21713.162,0.081,0.856,-0.472,0.610,2.350,0.214,80.000,195.000,1.000
13081.077,-21915.788,3478.478,12004.993,-21377.911,-22212.367,-21997.641,-22202.553,0.081,0.855,-0.469,0.336,2.411,0.122,80.000,196.000,1.000
13627.565,-22366.932,2054.172,10916.886,-21809.131,-22680.179,-22450.954,-22665.841,0.080,0.853,-0.472,0.183,2.411,0.031,80.000,197.000,1.000
14149.605,-22792.770,645.526,9846.537,-22215.548,-23123.997,-22881.075,-23105.408,0.080,0.849,-0.473,0.092,2.472,0.061,80.000,198.000,1.000
14625.475,-23197.994,-750.482,8778.282,-22603.314,-23546.003,-23290.612,-23524.882,0.081,0.847,-0.472,0.031,2.472,0.031,80.000,199.000,1.000
15048.449,-23583.063,-2122.607,7709.642,-22972.658,-23944.852,-23678.887,-23923.912,0.082,0.845,-0.472,-0.183,2.502,0.061,80.000,200.000,1.000
15423.315,-23943.794,-3460.439,6654.129,-23317.533,-24316.264,-24041.335,-24297.992,0.082,0.842,-0.472,-0.183,2.533,0.092,80.000,201.000,1.000
15757.729,-24277.192,-4766.966,5623.095,-23633.762,-24658.728,-24374.841,-24643.566,0.082,0.841,-0.471,-0.153,2.472,0.122,80.000,202.000,1.000
16063.826,-24585.470,-6052.795,4612.234,-23924.482,-24976.258,-24681.965,-24961.991,0.078,0.842,-0.467,-0.092,2.594,0.122,80.000,203.000,1.000
16354.688,-24873.310,-7321.105,3609.647,-24196.084,-25274.246,-24968.215,-25257.562,0.079,0.841,-0.471,-0.153,2.502,0.214,80.000,204.000,1.000
16632.174,-25142.507,-8564.174,2612.557,-24450.788,-25554.084,-25236.491,-25532.680,0.079,0.838,-0.470,-0.092,2.533,0.366,80.000,205.000,1.000
16886.171,-25390.786,-9774.065,1630.314,-24685.312,-25812.967,-25485.190,-25786.142,0.078,0.838,-0.470,-0.183,2.472,0.458,80.000,206.000,1.000
17104.951,-25615.600,-10952.164,671.378,-24896.321,-26048.132,-25711.363,-26016.108,0.078,0.838,-0.467,-0.122,2.411,0.427,80.000,207.000,1.000
17280.650,-25817.535,-12105.768,-267.099,-25084.832,-26259.815,-25914.371,-26223.209,0.077,0.839,-0.469,0.000,2.472,0.397,80.000,208.000,1.000
17412.151,-25999.189,-13237.449,-1193.929,-25254.232,-26449.801,-26095.428,-26409.611,0.078,0.839,-0.468,0.061,2.350,0.488,80.000,209.000,1.000
17517.144,-26161.721,-14342.265,-2111.660,-25405.543,-26618.556,-26255.099,-26576.111,0.077,0.841,-0.467,0.122,2.258,0.519,80.000,210.000,1.000
17640.633,-26303.793,-15414.828,-3013.829,-25536.539,-26765.061,-26392.581,-26721.521,0.078,0.840,-0.465,0.061,2.167,0.488,80.000,211.000,1.000
17832.231,-26423.750,-16455.857,-3893.830,-25645.281,-26888.929,-26507.460,-26844.883,0.078,0.843,-0.464,0.000,2.045,0.580,80.000,212.000,1.000
18104.812,-26521.727,-17470.077,-4752.566,-25732.870,-26991.410,-26601.232,-26947.214,0.076,0.845,-0.464,0.061,1.862,0.580,80.000,213.000,1.000
18421.743,-26599.252,-18459.138,-5595.585,-25802.028,-27074.096,-26676.218,-27030.353,0.078,0.846,-0.465,-0.061,1.801,0.702,80.000,214.000,1.000
18725.051,-26657.542,-19419.896,-6425.245,-25854.068,-27137.739,-26733.830,-27094.943,0.077,0.846,-0.463,-0.214,1.678,0.671,80.000,215.000,1.000
18968.657,-26696.829,-20348.996,-7238.354,-25888.291,-27182.709,-26774.258,-27140.380,0.074,0.848,-0.464,-0.305,1.556,0.763,80.000,216.000,1.000
19128.069,-26717.060,-21246.919,-8030.975,-25903.774,-27209.426,-26797.108,-27166.157,0.074,0.848,-0.468,-0.519,1.434,0.885,80.000,217.000,1.000
19198.198,-26718.622,-22116.635,-8802.892,-25900.662,-27217.752,-26801.701,-27172.373,0.075,0.847,-0.470,-0.641,1.343,0.977,80.000,218.000,1.000
19196.493,-26702.436,-22959.238,-9556.437,-25879.903,-27207.051,-26787.279,-27159.358,0.076,0.846,-0.469,-0.641,1.190,0.946,80.000,219.000,1.000
19160.460,-26669.452,-23773.047,-10292.567,-25842.329,-27177.121,-26753.795,-27127.593,0.077,0.846,-0.466,-0.793,1.038,0.977,80.000,220.000,1.000
19127.693,-26619.778,-24555.926,-11009.394,-25787.925,-27128.244,-26701.724,-27077.531,0.078,0.845,-0.468,-0.763,0.885,1.038,80.000,221.000,1.000
19113.192,-26552.476,-25307.410,-11704.479,-25716.044,-27060.686,-26631.403,-27009.285,0.077,0.844,-0.469,-0.671,0.763,0.916,80.000,222.000,1.000
19108.391,-26466.635,-26028.707,-12377.664,-25626.557,-26975.026,-26543.391,-26923.012,0.077,0.842,-0.470,-0.793,0.641,1.038,80.000,223.000,1.000
19103.671,-26362.704,-26720.899,-13031.098,-25520.713,-26872.819,-26439.055,-26819.740,0.077,0.844,-0.470,-0.885,0.610,1.007,80.000,224.000,1.000
19109.206,-26242.462,-27384.272,-13666.837,-25400.469,-26756.035,-26320.268,-26701.171,0.078,0.843,-0.470,-0.885,0.610,0.977,80.000,225.000,1.000
19151.346,-26107.378,-28018.411,-14284.704,-25266.641,-26625.238,-26187.624,-26567.915,0.078,0.843,-0.472,-0.824,0.366,1.068,80.000,226.000,1.000
19249.791,-25957.389,-28622.704,-14882.737,-25118.280,-26478.981,-26039.736,-26418.855,0.081,0.842,-0.470,-0.763,0.305,1.160,80.000,227.000,1.000
19403.802,-25791.745,-29197.192,-15459.559,-24954.369,-26315.770,-25875.317,-26253.186,0.081,0.842,-0.472,-0.702,0.153,1.221,80.000,228.000,1.000
19597.704,-25610.538,-29742.405,-16015.598,-24775.372,-26135.839,-25694.846,-26071.952,0.083,0.843,-0.472,-0.732,0.092,1.312,80.000,229.000,1.000
19806.432,-25414.907,-30258.976,-16552.207,-24582.793,-25940.626,-25500.059,-25877.150,0.083,0.843,-0.471,-0.641,0.031,1.434,80.000,230.000,1.000
19996.181,-25206.019,-30747.141,-17070.134,-24377.750,-25731.254,-25292.288,-25670.040,0.083,0.846,-0.473,-0.549,-0.122,1.465,80.000,231.000,1.000
20133.172,-24984.117,-31206.599,-17568.630,-24160.003,-25507.742,-25071.312,-25450.125,0.086,0.847,-0.473,-0.488,-0.122,1.526,80.000,232.000,1.000
20196.161,-24748.589,-31637.064,-18045.921,-23928.305,-25269.486,-24835.726,-25215.575,0.086,0.847,-0.474,-0.641,-0.153,1.648,80.000,233.000,1.000
20178.592,-24499.189,-32038.729,-18501.004,-23682.093,-25016.565,-24584.539,-24965.137,0.087,0.852,-0.472,-0.702,-0.153,1.831,80.000,234.000,1.000
20083.108,-24237.001,-32412.666,-18935.014,-23422.668,-24750.481,-24318.731,-24699.653,0.087,0.853,-0.471,-0.763,-0.122,1.831,80.000,235.000,1.000
19918.132,-23963.679,-32759.738,-19350.084,-23152.223,-24473.237,-24040.705,-24421.271,0.088,0.852,-0.469,-0.732,-0.153,1.831,80.000,236.000,1.000
19696.707,-23679.752,-33079.538,-19746.878,-22871.840,-24185.513,-23752.175,-24131.481,0.086,0.853,-0.467,-0.885,-0.214,1.923,80.000,237.000,1.000
19436.465,-23384.327,-33371.310,-20123.979,-22581.046,-23886.265,-23453.239,-23830.479,0.085,0.850,-0.469,-1.129,-0.336,1.953,80.000,238.000,1.000
19158.114,-23076.778,-33635.394,-20479.995,-22279.470,-23574.591,-23143.552,-23518.343,0.087,0.852,-0.469,-1.129,-0.366,1.801,80.000,239.000,1.000
18877.416,-22758.231,-33873.632,-20815.718,-21968.191,-23251.408,-22823.823,-23196.000,0.088,0.849,-0.469,-1.160,-0.275,1.923,80.000,240.000,1.000
18599.456,-22430.805,-34087.364,-21133.339,-21648.926,-22918.821,-22495.344,-22864.619,0.088,0.849,-0.468,-1.251,-0.153,1.892,80.000,241.000,1.000
18327.644,-22095.733,-34275.895,-21433.878,-21322.457,-22578.517,-22159.076,-22525.033,0.088,0.851,-0.470,-1.282,-0.305,1.831,80.000,242.000,1.000
18074.433,-21752.785,-34438.002,-21716.234,-20988.375,-22231.154,-21815.631,-22177.830,0.087,0.851,-0.470,-1.373,-0.244,1.801,80.000,243.000,1.000
17856.816,-21401.468,-34573.859,-21978.914,-20646.138,-21876.843,-21465.097,-21823.235,0.088,0.851,-0.472,-1.404,-0.305,1.831,80.000,244.000,1.000
17688.930,-21042.092,-34685.199,-22222.208,-20295.966,-21515.618,-21107.101,-21461.058,0.089,0.848,-0.470,-1.587,-0.458,1.862,80.000,245.000,1.000
17578.940,-20675.192,-34773.019,-22447.718,-19938.337,-21146.847,-20740.875,-21090.750,0.091,0.846,-0.470,-1.648,-0.458,1.740,80.000,246.000,1.000
17517.374,-20300.468,-34836.269,-22655.922,-19572.983,-20768.828,-20365.388,-20711.570,0.090,0.842,-0.472,-1.648,-0.366,1.678,80.000,247.000,1.000
17466.280,-19917.125,-34873.773,-22845.325,-19199.178,-20380.095,-19980.219,-20323.167,0.089,0.839,-0.472,-1.556,-0.336,1.617,80.000,248.000,1.000
17369.413,-19525.267,-34886.238,-23014.411,-18817.044,-19981.091,-19586.188,-19926.067,0.087,0.838,-0.472,-1.404,-0.244,1.526,80.000,249.000,1.000
17177.092,-19126.551,-34876.237,-23163.980,-18428.231,-19574.313,-19185.384,-19521.696,0.088,0.836,-0.474,-1.282,-0.305,1.465,80.000,250.000,1.000
16867.648,-18723.237,-34845.821,-23296.655,-18035.065,-19162.852,-18780.212,-19111.855,0.087,0.837,-0.473,-1.190,-0.366,1.312,80.000,251.000,1.000
16458.870,-18316.507,-34794.793,-23414.039,-17638.814,-18748.349,-18371.824,-18697.846,0.086,0.838,-0.470,-1.007,-0.427,1.251,80.000,252.000,1.000
16005.238,-17905.773,-34721.853,-23515.142,-17238.867,-18330.225,-17959.517,-18279.809,0.085,0.840,-0.472,-1.007,-0.427,1.190,80.000,253.000,1.000
15569.587,-17489.775,-34626.548,-23598.114,-16833.900,-17907.160,-17541.824,-17857.013,0.086,0.842,-0.470,-1.007,-0.458,1.038,80.000,254.000,1.000
15181.217,-17068.147,-34510.156,-23663.012,-16423.607,-17478.848,-17118.295,-17428.957,0.085,0.843,-0.471,-0.885,-0.488,0.854,80.000,255.000,1.000
14827.049,-16641.517,-34373.897,-23711.621,-16008.647,-17045.674,-16689.257,-16995.482,0.085,0.843,-0.472,-0.885,-0.610,0.641,80.000,256.000,1.000
14489.583,-16210.511,-34217.338,-23744.875,-15589.440,-16607.543,-16254.676,-16556.261,0.083,0.845,-0.472,-0.824,-0.641,0.549,80.000,257.000,1.000
14180.804,-15775.535,-34039.913,-23761.958,-15166.184,-16164.302,-15814.870,-16111.602,0.086,0.844,-0.467,-0.763,-0.732,0.458,80.000,258.000,1.000
13928.670,-15337.541,-33842.894,-23762.253,-14739.997,-15717.103,-15371.813,-15663.653,0.086,0.847,-0.468,-0.732,-0.854,0.336,80.000,259.000,1.000
13737.998,-14898.261,-33629.349,-23747.334,-14313.115,-15268.518,-14928.939,-15215.904,0.087,0.845,-0.465,-0.732,-0.916,0.244,80.000,260.000,1.000
13577.633,-14459.135,-33401.324,-23719.981,-13887.369,-14820.916,-14488.944,-14770.907,0.085,0.844,-0.467,-0.763,-0.946,0.153,80.000,261.000,1.000
13402.772,-14019.996,-33157.762,-23681.105,-13462.384,-14374.533,-14051.431,-14328.107,0.086,0.845,-0.467,-0.793,-0.977,-0.061,80.000,262.000,1.000
13177.351,-13578.994,-32895.912,-23628.350,-13035.422,-13926.975,-13612.650,-13883.673,0.085,0.843,-0.467,-0.793,-1.068,-0.153,80.000,263.000,1.000
12883.577,-13134.121,-32613.943,-23558.280,-12603.386,-13474.905,-13167.747,-13432.884,0.086,0.844,-0.467,-0.824,-1.007,-0.122,80.000,264.000,1.000
12529.072,-12685.038,-32312.648,-23469.933,-12165.483,-13016.867,-12714.544,-12973.708,0.085,0.843,-0.469,-0.916,-0.916,-0.214,80.000,265.000,1.000
12140.727,-12233.468,-31994.411,-23365.731,-11724.081,-12554.601,-12255.423,-12508.581,0.086,0.843,-0.466,-0.885,-1.038,-0.244,80.000,266.000,1.000
11739.899,-11781.926,-31661.244,-23249.034,-11282.989,-12091.711,-11795.726,-12042.879,0.085,0.845,-0.467,-0.763,-1.068,-0.275,80.000,267.000,1.000
11333.736,-11332.103,-31314.383,-23121.392,-10844.836,-11631.168,-11340.224,-11581.219,0.086,0.848,-0.470,-0.732,-1.099,-0.366,80.000,268.000,1.000
10936.834,-10884.229,-30954.517,-22982.279,-10409.880,-11173.720,-10890.179,-11124.701,0.083,0.848,-0.470,-0.793,-1.160,-0.397,80.000,269.000,1.000
10580.033,-10437.703,-30582.376,-22831.073,-9976.981,-10718.273,-10443.672,-10671.506,0.083,0.851,-0.466,-0.854,-1.099,-0.366,80.000,270.000,1.000
10285.998,-9991.906,-30198.187,-22668.136,-9545.005,-10263.440,-9997.902,-10219.111,0.081,0.851,-0.466,-0.885,-1.221,-0.427,80.000,271.000,1.000
10045.913,-9546.386,-29801.015,-22493.860,-9113.301,-9808.627,-9551.144,-9765.989,0.082,0.853,-0.468,-0.977,-1.221,-0.458,80.000,272.000,1.000
9820.898,-9100.866,-29389.863,-22307.837,-8681.749,-9354.134,-9103.678,-9312.395,0.082,0.853,-0.468,-1.068,-1.190,-0.549,80.000,273.000,1.000
9559.716,-8655.552,-28964.887,-22109.594,-8250.896,-8900.768,-8657.131,-8859.926,0.082,0.851,-0.464,-1.221,-1.434,-0.549,80.000,274.000,1.000
9224.176,-8211.450,-28527.955,-21899.973,-7822.084,-8449.536,-8213.533,-8410.657,0.081,0.853,-0.468,-1.251,-1.495,-0.610,80.000,275.000,1.000
8820.434,-7770.001,-28081.240,-21680.939,-7396.897,-8001.212,-7774.260,-7966.014,0.078,0.854,-0.464,-1.404,-1.678,-0.580,80.000,276.000,1.000
8413.662,-7332.012,-27625.410,-21453.544,-6975.787,-7555.518,-7338.742,-7525.231,0.078,0.854,-0.465,-1.526,-1.709,-0.702,80.000,277.000,1.000
8091.790,-6897.051,-27159.918,-21216.725,-6557.508,-7111.083,-6904.560,-7085.451,0.081,0.851,-0.463,-1.801,-1.801,-0.671,80.000,278.000,1.000
7898.472,-6464.307,-26684.324,-20968.770,-6140.606,-6667.114,-6469.671,-6644.478,0.080,0.848,-0.465,-1.862,-1.862,-0.732,80.000,279.000,1.000
7805.166,-6033.968,-26199.599,-20709.842,-5725.407,-6225.180,-6035.183,-6203.460,0.080,0.848,-0.465,-1.892,-1.923,-0.641,80.000,280.000,1.000
7741.440,-5607.357,-25707.333,-20442.162,-5314.002,-5788.645,-5604.953,-5766.149,0.080,0.847,-0.466,-1.892,-2.045,-0.641,80.000,281.000,1.000
7636.975,-5185.695,-25208.125,-20167.726,-4908.193,-5359.993,-5182.213,-5335.572,0.081,0.846,-0.467,-1.923,-2.136,-0.641,80.000,282.000,1.000
7447.977,-4769.017,-24701.635,-19886.555,-4507.830,-4938.691,-4767.106,-4911.819,0.080,0.845,-0.469,-1.862,-2.228,-0.671,80.000,283.000,1.000
7171.725,-4356.324,-24187.327,-19597.280,-4111.222,-4521.675,-4357.021,-4492.821,0.081,0.844,-0.466,-1.831,-2.289,-0.702,80.000,284.000,1.000
6842.358,-3946.667,-23665.456,-19299.069,-3716.851,-4105.871,-3949.082,-4076.653,0.081,0.843,-0.465,-1.770,-2.289,-0.641,80.000,285.000,1.000
6502.523,-3540.049,-23136.878,-18992.550,-3324.613,-3690.475,-3542.327,-3662.972,0.082,0.843,-0.464,-1.648,-2.289,-0.610,80.000,286.000,1.000
6170.552,-3137.599,-22602.528,-18679.263,-2935.967,-3277.708,-3138.558,-3253.288,0.080,0.845,-0.464,-1.678,-2.350,-0.580,80.000,287.000,1.000
5834.629,-2740.882,-22063.567,-18360.572,-2552.969,-2871.352,-2741.134,-2849.895,0.081,0.844,-0.466,-1.678,-2.441,-0.519,80.000,288.000,1.000
5480.712,-2350.673,-21520.747,-18036.807,-2176.550,-2473.518,-2351.562,-2453.586,0.080,0.843,-0.469,-1.648,-2.502,-0.549,80.000,289.000,1.000
5118.720,-1966.429,-20974.238,-17707.469,-1805.817,-2082.925,-1968.173,-2062.954,0.080,0.844,-0.468,-1.526,-2.563,-0.549,80.000,290.000,1.000
4773.275,-1587.022,-20423.775,-17372.061,-1439.265,-1696.754,-1588.479,-1676.292,0.081,0.842,-0.465,-1.495,-2.533,-0.488,80.000,291.000,1.000
4453.644,-1211.782,-19868.995,-17030.486,-1076.294,-1313.527,-1211.719,-1293.370,0.080,0.841,-0.464,-1.343,-2.563,-0.458,80.000,292.000,1.000
4141.503,-840.852,-19310.119,-16682.963,-717.502,-933.952,-839.019,-915.262,0.081,0.841,-0.465,-1.221,-2.594,-0.488,80.000,293.000,1.000
3808.208,-474.966,-18747.854,-16330.004,-364.088,-559.805,-471.829,-543.256,0.080,0.843,-0.466,-1.190,-2.563,-0.397,80.000,294.000,1.000
3439.435,-115.041,-18183.437,-15972.629,-17.120,-192.477,-110.969,-178.095,0.077,0.845,-0.464,-1.129,-2.502,-0.397,80.000,295.000,1.000
3044.615,238.278,-17618.005,-15612.032,323.093,167.916,243.783,180.605,0.078,0.847,-0.463,-1.099,-2.472,-0.275,80.000,296.000,1.000
2647.457,584.791,-17051.920,-15248.864,657.081,522.293,593.392,534.184,0.079,0.850,-0.463,-1.068,-2.502,-0.183,80.000,297.000,1.000
2266.497,924.451,-16485.295,-14883.091,985.415,871.169,938.070,883.534,0.080,0.850,-0.464,-1.190,-2.594,-0.275,80.000,298.000,1.000
1903.047,1257.065,-15918.287,-14514.522,1307.832,1213.500,1276.349,1227.843,0.077,0.850,-0.469,-1.160,-2.655,-0.244,80.000,299.000,1.000
1546.593,1582.369,-15351.437,-14143.396,1623.297,1547.347,1605.722,1564.818,0.076,0.854,-0.465,-1.282,-2.655,-0.092,80.000,300.000,1.000
1187.031,1900.341,-14785.190,-13770.216,1930.972,1871.626,1924.664,1892.353,0.078,0.854,-0.465,-1.373,-2.625,-0.061,80.000,301.000,1.000
824.800,2211.422,-14219.302,-13395.103,2231.117,2187.292,2234.245,2210.276,0.078,0.854,-0.467,-1.556,-2.777,0.092,80.000,302.000,1.000
475.561,2516.472,-13653.394,-13017.643,2525.057,2497.018,2537.697,2520.507,0.079,0.854,-0.464,-1.495,-2.838,0.153,80.000,303.000,1.000
158.984,2816.334,-13087.276,-12637.347,2814.141,2803.371,2838.310,2825.414,0.078,0.851,-0.466,-1.465,-2.808,0.183,80.000,304.000,1.000
-122.817,3111.223,-12521.474,-12254.324,3098.666,3106.903,3136.963,3125.934,0.078,0.849,-0.465,-1.556,-2.808,0.214,80.000,305.000,1.000
-390.768,3400.442,-11957.110,-11869.427,3377.709,3405.932,3431.820,3421.306,0.076,0.850,-0.462,-1.587,-2.808,0.244,80.000,306.000,1.000
-670.365,3682.710,-11395.376,-11483.875,3649.789,3697.977,3720.073,3710.087,0.078,0.850,-0.463,-1.587,-2.869,0.244,80.000,307.000,1.000
-972.950,3956.914,-10837.355,-11098.723,3913.651,3981.224,3999.313,3990.882,0.077,0.851,-0.464,-1.678,-2.869,0.305,80.000,308.000,1.000
-1297.549,4222.562,-10283.406,-10714.509,4168.582,4254.735,4267.925,4262.498,0.079,0.849,-0.465,-1.617,-2.960,0.427,80.000,309.000,1.000
-1643.502,4479.587,-9733.563,-10331.412,4414.336,4518.028,4524.938,4524.114,0.081,0.850,-0.467,-1.709,-2.899,0.549,80.000,310.000,1.000
-2014.896,4728.218,-9187.759,-9949.254,4651.324,4771.373,4770.741,4776.074,0.080,0.848,-0.467,-1.709,-2.838,0.732,80.000,311.000,1.000
-2415.027,4969.216,-8645.482,-9567.297,4880.991,5016.431,5007.985,5020.464,0.081,0.846,-0.466,-1.617,-2.838,0.732,80.000,312.000,1.000
-2830.579,5203.670,-8106.202,-9184.632,5105.283,5255.529,5240.340,5260.039,0.080,0.845,-0.466,-1.526,-2.777,0.824,80.000,313.000,1.000
-3215.822,5432.204,-7569.725,-8801.033,5325.170,5489.742,5469.745,5495.997,0.080,0.843,-0.466,-1.526,-2.808,0.824,80.000,314.000,1.000
-3512.553,5654.629,-7036.704,-8417.349,5539.978,5718.332,5694.945,5727.022,0.078,0.842,-0.464,-1.373,-2.686,0.977,80.000,315.000,1.000
-3698.327,5870.422,-6508.124,-8034.844,5748.318,5940.185,5913.274,5950.802,0.082,0.843,-0.467,-1.251,-2.686,1.068,80.000,316.000,1.000
-3804.478,6079.134,-5984.609,-7654.396,5949.161,6154.718,6122.943,6165.715,0.082,0.842,-0.467,-1.129,-2.594,1.038,80.000,317.000,1.000
-3892.803,6280.367,-5466.786,-7276.391,6142.037,6361.444,6323.392,6371.148,0.082,0.843,-0.468,-0.946,-2.502,1.160,80.000,318.000,1.000
-4023.007,6473.785,-4955.142,-6900.871,6326.956,6559.932,6515.307,6567.536,0.079,0.844,-0.471,-0.854,-2.533,1.251,80.000,319.000,1.000
-4222.022,6659.219,-4450.167,-6527.765,6504.239,6750.205,6700.042,6756.133,0.081,0.846,-0.467,-0.793,-2.441,1.404,80.000,320.000,1.000
-4468.901,6836.633,-3952.232,-6157.082,6674.140,6932.509,6878.401,6938.039,0.083,0.849,-0.467,-0.702,-2.350,1.373,80.000,321.000,1.000
-4715.611,7006.076,-3461.355,-5789.091,6836.607,7106.939,7050.014,7113.164,0.083,0.851,-0.465,-0.610,-2.289,1.587,80.000,322.000,1.000
-4922.374,7167.736,-2977.538,-5424.366,6991.470,7273.661,7213.872,7280.269,0.082,0.853,-0.462,-0.519,-2.258,1.495,80.000,323.000,1.000
-5072.919,7322.031,-2500.399,-5063.310,7138.860,7433.159,7369.650,7438.377,0.078,0.855,-0.459,-0.732,-2.045,1.526,80.000,324.000,1.000
-5173.762,7469.589,-2029.459,-4705.734,7279.416,7585.978,7518.003,7587.988,0.080,0.854,-0.464,-0.763,-2.075,1.556,80.000,325.000,1.000
-5251.648,7611.011,-1564.460,-4351.058,7413.899,7732.215,7659.792,7730.675,0.077,0.854,-0.460,-0.916,-2.075,1.556,80.000,326.000,1.000
-5345.701,7746.482,-1105.377,-3998.937,7542.558,7871.373,7795.213,7867.591,0.078,0.854,-0.463,-0.885,-1.953,1.587,80.000,327.000,1.000
-5494.715,7875.684,-652.680,-3649.625,7665.059,8002.995,7923.732,7998.718,0.079,0.854,-0.464,-0.916,-1.923,1.617,80.000,328.000,1.000
-5721.261,7998.104,-206.829,-3303.663,7781.048,8127.457,8045.257,8123.621,0.077,0.851,-0.465,-0.977,-1.892,1.556,80.000,329.000,1.000
-6011.418,8113.299,231.710,-2961.550,7890.468,8245.603,8160.377,8242.157,0.077,0.851,-0.466,-1.007,-1.923,1.495,80.000,330.000,1.000
-6312.591,8220.862,662.371,-2623.740,7993.169,8357.386,8269.186,8354.054,0.079,0.851,-0.466,-1.099,-1.923,1.495,80.000,331.000,1.000
-6571.749,8320.389,1084.506,-2290.751,8088.589,8461.529,8370.498,8458.385,0.079,0.851,-0.464,-1.038,-1.984,1.434,80.000,332.000,1.000
-6781.610,8411.826,1497.381,-1962.936,8176.312,8556.929,8462.839,8554.238,0.080,0.850,-0.465,-1.068,-1.923,1.495,80.000,333.000,1.000
-6978.070,8495.686,1901.012,-1640.155,8256.658,8643.780,8546.166,8641.621,0.079,0.850,-0.465,-0.977,-1.892,1.495,80.000,334.000,1.000
-7189.121,8572.657,2295.843,-1322.161,8330.321,8723.186,8621.712,8720.964,0.080,0.849,-0.465,-1.038,-1.831,1.404,80.000,335.000,1.000
-7390.685,8643.303,2682.312,-1008.937,8397.909,8796.446,8691.141,8792.771,0.078,0.846,-0.465,-0.946,-1.801,1.312,80.000,336.000,1.000
-7511.025,8708.169,3060.937,-700.408,8460.073,8864.769,8756.287,8858.377,0.079,0.848,-0.465,-1.038,-1.831,1.251,80.000,337.000,1.000
-7482.041,8767.705,3431.905,-396.306,8517.443,8928.954,8818.408,8919.851,0.079,0.848,-0.465,-0.977,-1.831,1.160,80.000,338.000,1.000
-7301.805,8821.828,3795.098,-96.543,8569.917,8988.702,8877.113,8978.188,0.078,0.849,-0.465,-0.916,-1.709,1.068,80.000,339.000,1.000
-7055.075,8869.719,4149.715,198.321,8616.142,9042.128,8929.655,9031.581,0.079,0.847,-0.466,-0.854,-1.770,1.068,80.000,340.000,1.000
-6863.420,8910.314,4494.568,487.309,8654.195,9086.626,8972.186,9076.292,0.080,0.845,-0.465,-0.854,-1.801,1.007,80.000,341.000,1.000
-6801.692,8943.173,4829.002,769.785,8683.151,9121.040,9002.668,9109.794,0.082,0.846,-0.465,-0.854,-1.587,0.946,80.000,342.000,1.000
-6851.098,8968.858,5153.140,1045.939,8703.988,9146.792,9022.542,9133.079,0.081,0.846,-0.463,-0.732,-1.587,0.946,80.000,343.000,1.000
-6923.743,8988.392,5468.022,1316.546,8718.721,9166.430,9035.587,9149.693,0.081,0.848,-0.463,-0.732,-1.587,0.916,80.000,344.000,1.000
-6936.628,9002.505,5774.566,1582.118,8728.800,9181.567,9044.943,9162.589,0.080,0.847,-0.464,-0.732,-1.465,0.824,80.000,345.000,1.000
-6873.729,9011.508,6073.011,1842.611,8734.569,9192.416,9051.681,9172.484,0.079,0.847,-0.467,-0.580,-1.495,0.732,80.000,346.000,1.000
-6785.165,9015.467,6363.256,2097.775,8735.699,9198.347,9055.272,9178.478,0.081,0.846,-0.465,-0.702,-1.495,0.641,80.000,347.000,1.000
-6736.816,9014.161,6644.782,2347.294,8731.504,9198.302,9053.997,9178.865,0.081,0.846,-0.462,-0.610,-1.465,0.580,80.000,348.000,1.000
-6763.782,9007.124,6917.146,2590.820,8721.145,9191.169,9045.707,9171.735,0.080,0.844,-0.463,-0.671,-1.343,0.610,80.000,349.000,1.000
-6860.193,8993.973,7180.011,2828.067,8704.176,9176.361,9028.996,9156.136,0.079,0.843,-0.463,-0.610,-1.434,0.549,80.000,350.000,1.000
-6993.462,8974.748,7433.301,3059.027,8681.054,9154.315,9004.382,9133.104,0.079,0.844,-0.463,-0.580,-1.373,0.488,80.000,351.000,1.000
-7114.949,8949.780,7677.297,3283.833,8652.754,9126.101,8973.897,9104.734,0.081,0.847,-0.465,-0.580,-1.343,0.458,80.000,352.000,1.000
-7172.341,8919.320,7912.013,3502.332,8619.893,9092.393,8939.008,9072.113,0.079,0.847,-0.462,-0.549,-1.343,0.336,80.000,353.000,1.000
-7138.520,8883.665,8137.697,3714.363,8582.799,9053.590,8900.182,9035.247,0.079,0.849,-0.462,-0.549,-1.251,0.336,80.000,354.000,1.000
-7037.207,8843.513,8354.996,3920.349,8542.253,9010.957,8858.116,8994.640,0.079,0.850,-0.462,-0.488,-1.251,0.153,80.000,355.000,1.000
-6937.419,8799.786,8564.718,4121.239,8499.433,8966.538,8814.381,8951.758,0.080,0.851,-0.466,-0.488,-1.221,0.305,80.000,356.000,1.000
-6911.584,8752.950,8767.253,4317.596,8454.805,8921.364,8770.083,8907.424,0.077,0.852,-0.466,-0.519,-1.312,0.305,80.000,357.000,1.000
-6986.940,8702.465,8961.638,4508.661,8407.129,8873.900,8723.745,8859.915,0.079,0.851,-0.464,-0.519,-1.312,0.183,80.000,358.000,1.000
-7128.930,8647.071,9146.321,4692.795,8354.032,8820.777,8671.806,8805.803,0.077,0.852,-0.465,-0.549,-1.282,0.183,80.000,359.000,1.000
-7260.712,8585.835,9320.159,4868.984,8293.983,8759.564,8611.526,8743.227,0.078,0.852,-0.465,-0.610,-1.190,0.092,80.000,360.000,1.000
-7305.381,8518.946,9483.199,5037.704,8227.538,8690.737,8543.226,8673.601,0.079,0.851,-0.465,-0.732,-1.251,0.122,80.000,361.000,1.000
-7232.487,8447.473,9636.636,5200.222,8156.598,8616.894,8469.622,8599.931,0.078,0.853,-0.465,-0.824,-1.221,0.183,80.000,362.000,1.000
-7074.391,8372.547,9781.623,5357.422,8082.945,8540.592,8393.432,8524.498,0.079,0.850,-0.469,-0.854,-1.282,0.122,80.000,363.000,1.000
-6898.358,8294.771,9918.913,5509.465,8007.370,8462.907,8315.979,8447.991,0.077,0.850,-0.465,-0.885,-1.282,0.153,80.000,364.000,1.000
-6762.897,8214.007,10048.312,5655.897,7929.474,8383.319,8236.752,8369.319,0.080,0.851,-0.467,-0.916,-1.190,0.183,80.000,365.000,1.000
-6693.925,8129.532,10168.847,5795.971,7848.075,8300.370,8154.140,8286.294,0.079,0.852,-0.465,-0.854,-1.190,0.183,80.000,366.000,1.000
-6689.571,8040.412,10279.652,5929.050,7761.911,8212.319,8066.580,8197.046,0.081,0.853,-0.465,-0.824,-1.160,0.183,80.000,367.000,1.000
-6735.182,7946.121,10380.247,6054.851,7670.390,8118.033,7973.310,8101.222,0.081,0.850,-0.469,-0.916,-1.099,0.305,80.000,368.000,1.000
-6806.302,7847.215,10471.271,6173.803,7574.202,8018.090,7875.250,8000.527,0.082,0.851,-0.465,-0.854,-0.977,0.244,80.000,369.000,1.000
-6858.120,7745.263,10554.104,6286.951,7475.089,7914.561,7774.486,7897.799,0.081,0.849,-0.466,-0.824,-0.977,0.366,80.000,370.000,1.000
-6827.748,7641.940,10630.138,6395.425,7374.821,7809.533,7672.774,7795.274,0.082,0.848,-0.466,-0.763,-0.854,0.366,80.000,371.000,1.000
-6671.244,7538.055,10700.306,6499.829,7274.193,7704.061,7570.546,7693.331,0.084,0.848,-0.467,-0.885,-0.824,0.458,80.000,372.000,1.000
-6406.851,7433.111,10764.317,6599.665,7172.462,7597.782,7466.441,7589.964,0.084,0.850,-0.467,-0.916,-0.824,0.488,80.000,373.000,1.000
-6112.739,7325.747,10821.205,6693.561,7067.850,7489.219,7358.262,7481.955,0.083,0.849,-0.467,-0.916,-0.641,0.610,80.000,374.000,1.000
-5875.635,7214.802,10869.884,6780.295,6959.035,7376.988,7244.811,7367.524,0.085,0.849,-0.463,-0.946,-0.641,0.580,80.000,375.000,1.000
-5737.713,7100.045,10909.760,6859.687,6846.147,7260.763,7126.963,7247.769,0.085,0.849,-0.464,-1.007,-0.580,0.732,80.000,376.000,1.000
-5683.680,6981.989,10941.068,6932.460,6730.229,7141.009,7006.636,7125.158,0.081,0.848,-0.463,-1.099,-0.458,0.732,80.000,377.000,1.000
-5668.469,6861.331,10964.310,6999.452,6612.250,7018.429,6884.980,7001.291,0.081,0.850,-0.463,-1.160,-0.427,0.732,80.000,378.000,1.000
-5659.108,6738.680,10980.322,7061.302,6492.872,6893.975,6762.435,6876.658,0.080,0.847,-0.460,-1.190,-0.488,0.732,80.000,379.000,1.000
-5657.691,6614.287,10989.607,7118.217,6372.370,6768.417,6639.002,6751.181,0.077,0.848,-0.463,-1.251,-0.580,0.732,80.000,380.000,1.000
-5677.310,6487.802,10991.914,7169.746,6250.264,6641.330,6513.830,6624.031,0.073,0.846,-0.463,-1.343,-0.610,0.641,80.000,381.000,1.000
-5698.295,6358.715,10986.868,7215.191,6125.698,6511.489,6385.751,6494.071,0.073,0.845,-0.465,-1.312,-0.671,0.610,80.000,382.000,1.000
-5668.921,6227.239,10974.488,7254.494,5998.616,6378.618,6254.633,6361.373,0.073,0.844,-0.467,-1.251,-0.824,0.580,80.000,383.000,1.000
-5545.296,6094.415,10955.750,7288.605,5870.066,6243.957,6121.904,6227.623,0.072,0.846,-0.465,-1.190,-1.007,0.458,80.000,384.000,1.000
-5324.053,5961.124,10931.509,7318.481,5740.948,6108.824,5988.837,6094.005,0.072,0.847,-0.465,-1.129,-1.068,0.458,80.000,385.000,1.000
-5058.584,5827.262,10901.537,7344.002,5610.871,5973.039,5854.857,5959.301,0.072,0.849,-0.464,-1.099,-1.221,0.336,80.000,386.000,1.000
-4844.424,5692.128,10865.084,7364.349,5478.816,5835.388,5718.420,5821.250,0.069,0.849,-0.463,-1.129,-1.312,0.244,80.000,387.000,1.000
-4756.501,5555.402,10821.512,7379.150,5344.674,5695.383,5579.136,5679.435,0.072,0.851,-0.461,-1.190,-1.465,0.214,80.000,388.000,1.000
-4787.528,5417.384,10771.023,7388.804,5209.454,5553.721,5438.460,5535.879,0.072,0.852,-0.462,-1.160,-1.709,0.183,80.000,389.000,1.000
-4857.746,5278.567,10714.172,7393.823,5074.294,5411.502,5298.260,5393.160,0.072,0.853,-0.461,-1.282,-1.770,0.153,80.000,390.000,1.000
-4878.598,5139.371,10651.569,7394.455,4939.781,5269.672,5159.619,5252.679,0.073,0.853,-0.461,-1.312,-1.984,0.061,80.000,391.000,1.000
-4794.435,5000.016,10583.869,7390.631,4805.697,5128.639,5022.335,5113.798,0.076,0.853,-0.461,-1.404,-1.953,0.122,80.000,392.000,1.000
-4585.657,4860.403,10511.147,7381.987,4671.132,4987.907,4884.846,4974.183,0.073,0.852,-0.462,-1.465,-2.045,0.153,80.000,393.000,1.000
-4274.326,4720.298,10433.389,7368.373,4535.251,4846.408,4745.600,4831.809,0.072,0.850,-0.463,-1.526,-2.197,0.214,80.000,394.000,1.000
-3936.833,4579.577,10350.557,7350.062,4397.918,4703.368,4604.064,4686.398,0.075,0.850,-0.464,-1.526,-2.197,0.122,80.000,395.000,1.000
-3683.132,4438.269,10262.553,7327.459,4259.582,4558.801,4460.679,4539.175,0.074,0.850,-0.463,-1.617,-2.258,0.153,80.000,396.000,1.000
-3594.670,4296.481,10169.437,7300.846,4120.832,4413.290,4316.457,4391.866,0.075,0.852,-0.467,-1.526,-2.350,0.061,80.000,397.000,1.000
-3671.318,4154.362,10071.280,7270.331,3982.153,4267.483,4172.379,4245.794,0.075,0.851,-0.466,-1.648,-2.289,0.092,80.000,398.000,1.000
-3833.892,4012.160,9968.736,7236.057,3843.925,4121.805,4029.167,4101.469,0.075,0.850,-0.464,-1.617,-2.380,0.092,80.000,399.000,1.000
-3976.849,3870.192,9862.504,7198.062,3706.329,3976.468,3886.909,3958.296,0.076,0.848,-0.468,-1.556,-2.411,0.092,80.000,400.000,1.000
-4030.203,3728.796,9752.779,7156.197,3569.369,3831.741,3745.282,3815.073,0.079,0.847,-0.465,-1.617,-2.350,0.031,80.000,401.000,1.000
-3989.838,3588.291,9639.582,7110.509,3433.198,3688.214,3604.345,3671.446,0.080,0.847,-0.466,-1.587,-2.258,0.183,80.000,402.000,1.000
-3903.730,3448.729,9522.653,7061.349,3298.026,3546.238,3464.228,3528.213,0.079,0.846,-0.469,-1.587,-2.258,0.153,80.000,403.000,1.000
-3831.919,3309.581,9401.750,7009.042,3163.569,3404.980,3324.498,3386.085,0.080,0.847,-0.468,-1.587,-2.289,0.153,80.000,404.000,1.000
-3804.467,3169.958,9276.495,6953.523,3029.072,3262.815,3184.203,3244.830,0.081,0.846,-0.467,-1.587,-2.136,0.183,80.000,405.000,1.000
-3802.077,3029.368,9146.668,6894.455,2894.004,3118.950,3042.863,3103.695,0.079,0.846,-0.467,-1.465,-2.106,0.305,80.000,406.000,1.000
-3775.116,2888.183,9012.612,6831.593,2758.548,2974.333,2901.203,2962.243,0.080,0.847,-0.468,-1.465,-1.984,0.305,80.000,407.000,1.000
-3685.847,2747.412,8874.677,6764.999,2623.504,2830.784,2760.554,2820.908,0.079,0.848,-0.466,-1.404,-1.923,0.458,80.000,408.000,1.000
-3537.454,2608.138,8733.507,6695.149,2489.791,2689.425,2622.020,2680.842,0.079,0.848,-0.468,-1.404,-1.770,0.458,80.000,409.000,1.000
-3360.256,2471.028,8589.857,6622.605,2357.889,2550.199,2485.865,2542.906,0.079,0.850,-0.465,-1.404,-1.709,0.580,80.000,410.000,1.000
-3169.070,2336.033,8444.247,6547.636,2227.581,2412.419,2351.503,2406.861,0.078,0.850,-0.463,-1.404,-1.556,0.671,80.000,411.000,1.000
-2948.234,2202.367,8296.815,6470.084,2098.042,2275.145,2217.625,2271.387,0.080,0.849,-0.462,-1.343,-1.495,0.702,80.000,412.000,1.000
-2682.974,2069.020,8146.981,6389.570,1968.433,2137.597,2082.667,2134.986,0.077,0.847,-0.463,-1.282,-1.343,0.732,80.000,413.000,1.000
-2389.480,1935.543,7994.314,6305.961,1838.650,1999.971,1946.300,1997.182,0.077,0.847,-0.463,-1.282,-1.312,0.793,80.000,414.000,1.000
-2104.777,1802.290,7838.717,6219.453,1709.425,1863.588,1809.774,1858.741,0.076,0.849,-0.463,-1.190,-1.282,0.763,80.000,415.000,1.000
-1853.425,1670.085,7680.476,6130.558,1581.936,1730.023,1675.154,1721.422,0.076,0.849,-0.462,-1.282,-1.373,0.885,80.000,416.000,1.000
-1634.292,1539.710,7520.359,6039.962,1457.221,1600.005,1544.302,1587.355,0.077,0.849,-0.462,-1.282,-1.251,0.916,80.000,417.000,1.000
-1438.367,1411.361,7358.671,5947.795,1335.318,1472.777,1417.340,1457.345,0.077,0.851,-0.465,-1.221,-1.312,0.854,80.000,418.000,1.000
-1268.984,1284.640,7195.342,5853.421,1215.106,1346.625,1292.524,1330.148,0.076,0.850,-0.467,-1.251,-1.251,0.916,80.000,419.000,1.000
-1143.750,1159.276,7030.296,5756.314,1095.503,1220.494,1167.994,1204.122,0.076,0.853,-0.464,-1.282,-1.099,1.068,80.000,420.000,1.000
-1081.861,1035.630,6863.904,5656.899,976.510,1094.943,1043.532,1078.954,0.076,0.853,-0.464,-1.282,-1.129,1.007,80.000,421.000,1.000
-1087.893,914.211,6696.842,5556.064,858.684,971.085,920.138,955.134,0.077,0.854,-0.464,-1.343,-1.068,1.068,80.000,422.000,1.000
-1139.847,794.971,6529.104,5454.133,742.165,849.066,798.380,832.753,0.078,0.854,-0.463,-1.343,-1.099,1.282,80.000,423.000,1.000
-1190.822,677.437,6360.517,5350.920,626.707,728.092,678.300,711.635,0.077,0.854,-0.465,-1.343,-1.038,1.343,80.000,424.000,1.000
-1191.426,561.269,6190.922,5246.142,512.116,607.343,559.656,591.540,0.078,0.853,-0.465,-1.373,-1.007,1.373,80.000,425.000,1.000
-1120.082,446.531,6020.198,5139.663,398.466,486.522,441.946,472.123,0.078,0.852,-0.464,-1.434,-0.946,1.434,80.000,426.000,1.000
-996.548,333.680,5848.643,5031.767,286.410,366.331,325.201,353.622,0.078,0.852,-0.465,-1.373,-1.007,1.373,80.000,427.000,1.000
-861.892,223.334,5676.644,4923.157,177.232,248.613,210.558,237.349,0.078,0.853,-0.465,-1.312,-0.977,1.343,80.000,428.000,1.000
-735.767,115.897,5504.794,4814.651,72.187,135.382,99.887,125.085,0.079,0.852,-0.465,-1.434,-0.916,1.465,80.000,429.000,1.000
-595.413,11.319,5333.324,4706.623,-28.306,27.586,-5.635,17.949,0.079,0.851,-0.464,-1.434,-0.946,1.404,80.000,430.000,1.000
-402.731,-90.841,5161.907,4598.680,-125.045,-75.449,-106.627,-84.542,0.078,0.852,-0.463,-1.465,-0.946,1.465,80.000,431.000,1.000
-148.708,-191.234,4990.166,4489.793,-219.881,-175.874,-205.439,-184.712,0.078,0.854,-0.460,-1.495,-0.885,1.495,80.000,432.000,1.000
129.408,-290.432,4817.710,4378.896,-314.748,-276.240,-304.812,-285.422,0.081,0.852,-0.461,-1.556,-0.854,1.526,80.000,433.000,1.000
366.601,-388.603,4644.747,4265.661,-410.376,-377.738,-405.695,-387.941,0.079,0.852,-0.462,-1.556,-0.946,1.526,80.000,434.000,1.000
504.284,-485.533,4471.681,4150.489,-505.954,-479.379,-506.762,-491.272,0.079,0.853,-0.464,-1.465,-0.977,1.526,80.000,435.000,1.000
518.669,-580.798,4298.771,4034.211,-599.692,-578.818,-605.412,-592.724,0.080,0.852,-0.462,-1.587,-0.824,1.465,80.000,436.000,1.000
428.928,-673.933,4126.445,3917.819,-689.812,-674.200,-699.331,-689.241,0.079,0.852,-0.462,-1.648,-0.763,1.343,80.000,437.000,1.000
289.490,-764.890,3954.731,3801.659,-775.974,-765.990,-788.721,-779.917,0.076,0.851,-0.461,-1.709,-0.763,1.312,80.000,438.000,1.000
180.091,-854.309,3783.335,3685.018,-859.840,-856.862,-876.541,-867.229,0.076,0.847,-0.461,-1.801,-0.885,1.373,80.000,439.000,1.000
182.679,-942.947,3611.746,3566.836,-943.591,-949.146,-965.901,-954.875,0.077,0.845,-0.461,-1.862,-0.854,1.404,80.000,440.000,1.000
338.509,-1030.797,3439.835,3446.928,-1027.889,-1042.529,-1057.121,-1044.332,0.076,0.844,-0.459,-1.709,-0.977,1.282,80.000,441.000,1.000
621.933,-1116.871,3268.403,3326.356,-1111.363,-1134.261,-1147.498,-1133.744,0.075,0.842,-0.461,-1.709,-0.977,1.160,80.000,442.000,1.000
958.009,-1199.765,3098.382,3206.564,-1191.779,-1220.999,-1233.616,-1219.923,0.073,0.840,-0.458,-1.587,-1.038,1.221,80.000,443.000,1.000
1260.530,-1278.429,2930.647,3088.536,-1267.480,-1300.636,-1313.168,-1300.806,0.072,0.840,-0.458,-1.465,-1.160,1.068,80.000,444.000,1.000
1461.350,-1352.717,2765.527,2972.462,-1338.152,-1373.385,-1385.929,-1376.301,0.073,0.841,-0.460,-1.404,-1.190,1.068,80.000,445.000,1.000
1529.417,-1423.474,2602.672,2857.842,-1404.847,-1441.815,-1453.767,-1447.686,0.072,0.841,-0.463,-1.129,-1.312,1.038,80.000,446.000,1.000
1482.594,-1492.039,2441.526,2743.794,-1469.352,-1509.352,-1519.375,-1516.568,0.073,0.844,-0.462,-1.099,-1.526,1.007,80.000,447.000,1.000
1382.154,-1559.384,2281.383,2629.546,-1533.001,-1577.852,-1584.540,-1583.903,0.073,0.849,-0.460,-1.129,-1.678,0.916,80.000,448.000,1.000
1303.817,-1625.503,2122.280,2515.075,-1595.807,-1646.498,-1649.015,-1649.501,0.073,0.852,-0.459,-0.977,-1.770,0.946,80.000,449.000,1.000
1300.657,-1689.699,1964.775,2400.952,-1656.812,-1713.125,-1711.573,-1712.648,0.071,0.854,-0.458,-1.007,-1.740,0.916,80.000,450.000,1.000
1381.788,-1751.540,1809.051,2287.506,-1715.355,-1776.435,-1771.778,-1773.215,0.072,0.856,-0.456,-1.099,-1.801,0.824,80.000,451.000,1.000
1514.200,-1811.341,1654.658,2174.387,-1771.868,-1836.979,-1830.429,-1832.256,0.071,0.857,-0.455,-1.190,-1.892,0.702,80.000,452.000,1.000
1639.894,-1869.591,1500.761,2061.107,-1827.228,-1896.113,-1888.543,-1891.166,0.071,0.857,-0.459,-1.404,-1.984,0.549,80.000,453.000,1.000
1702.047,-1926.199,1347.430,1947.911,-1881.634,-1954.425,-1945.861,-1950.092,0.071,0.857,-0.462,-1.465,-2.045,0.488,80.000,454.000,1.000
1669.314,-1980.733,1195.409,1835.560,-1934.638,-2011.633,-2001.444,-2008.143,0.071,0.857,-0.464,-1.587,-2.106,0.397,80.000,455.000,1.000
1542.957,-2032.965,1045.485,1724.643,-1985.798,-2067.415,-2055.045,-2064.655,0.071,0.853,-0.466,-1.587,-2.228,0.427,80.000,456.000,1.000
1349.383,-2082.801,898.595,1615.498,-2034.632,-2121.390,-2106.796,-2119.016,0.073,0.855,-0.466,-1.648,-2.258,0.427,80.000,457.000,1.000
1127.659,-2129.924,755.360,1508.345,-2080.256,-2172.461,-2156.225,-2169.866,0.076,0.854,-0.463,-1.648,-2.258,0.366,80.000,458.000,1.000
913.583,-2173.912,616.060,1403.180,-2121.786,-2219.139,-2202.082,-2215.534,0.079,0.851,-0.461,-1.587,-2.258,0.366,80.000,459.000,1.000
732.118,-2214.738,480.139,1299.466,-2159.265,-2260.862,-2243.637,-2255.522,0.082,0.850,-0.460,-1.556,-2.289,0.458,80.000,460.000,1.000
602.943,-2252.931,346.388,1196.346,-2193.823,-2298.495,-2281.324,-2291.112,0.081,0.848,-0.459,-1.556,-2.136,0.458,80.000,461.000,1.000
537.691,-2289.319,213.833,1093.176,-2226.986,-2333.558,-2316.112,-2324.628,0.079,0.847,-0.457,-1.495,-2.106,0.519,80.000,462.000,1.000
525.752,-2324.700,81.768,989.729,-2259.909,-2367.388,-2348.999,-2358.165,0.080,0.845,-0.460,-1.434,-2.014,0.610,80.000,463.000,1.000
535.534,-2359.342,-49.575,886.427,-2292.746,-2400.600,-2380.358,-2392.271,0.080,0.844,-0.460,-1.282,-1.953,0.732,80.000,464.000,1.000
535.370,-2392.747,-179.274,784.243,-2324.619,-2433.052,-2410.062,-2425.863,0.080,0.843,-0.460,-1.129,-1.831,0.793,80.000,465.000,1.000
510.284,-2424.054,-306.373,684.100,-2354.366,-2464.351,-2438.108,-2457.415,0.081,0.846,-0.460,-1.068,-1.831,0.854,80.000,466.000,1.000
467.885,-2452.553,-430.095,586.386,-2381.154,-2493.930,-2464.406,-2485.758,0.084,0.847,-0.462,-0.885,-1.678,0.977,80.000,467.000,1.000
437.752,-2477.868,-550.309,490.929,-2404.496,-2520.730,-2488.320,-2510.098,0.085,0.849,-0.463,-0.763,-1.587,1.038,80.000,468.000,1.000
453.893,-2500.112,-667.208,397.235,-2424.533,-2543.827,-2509.175,-2530.629,0.085,0.850,-0.465,-0.641,-1.465,1.068,80.000,469.000,1.000
525.743,-2520.034,-781.566,304.475,-2442.385,-2563.560,-2527.679,-2549.290,0.086,0.850,-0.462,-0.610,-1.404,1.221,80.000,470.000,1.000
630.137,-2538.456,-894.268,212.053,-2459.299,-2581.083,-2545.214,-2568.219,0.084,0.851,-0.463,-0.519,-1.221,1.312,80.000,471.000,1.000
733.481,-2555.420,-1005.128,120.360,-2475.351,-2596.855,-2561.805,-2587.537,0.080,0.851,-0.459,-0.610,-1.160,1.343,80.000,472.000,1.000
815.204,-2570.349,-1113.401,30.355,-2489.705,-2610.610,-2576.525,-2605.806,0.079,0.854,-0.458,-0.519,-1.007,1.251,80.000,473.000,1.000
868.295,-2582.970,-1218.374,-57.392,-2501.910,-2622.634,-2589.114,-2621.868,0.075,0.855,-0.459,-0.671,-0.824,1.251,80.000,474.000,1.000
888.759,-2593.639,-1320.039,-143.089,-2512.332,-2633.996,-2600.408,-2635.435,0.075,0.855,-0.460,-0.519,-0.854,1.038,80.000,475.000,1.000
879.493,-2602.770,-1418.794,-227.133,-2521.348,-2645.289,-2610.975,-2646.250,0.072,0.858,-0.459,-0.641,-0.854,0.977,80.000,476.000,1.000
864.493,-2610.400,-1514.654,-309.514,-2528.702,-2655.695,-2619.965,-2653.654,0.073,0.861,-0.459,-0.702,-0.885,0.824,80.000,477.000,1.000
888.643,-2616.367,-1607.660,-390.013,-2533.822,-2663.547,-2626.001,-2657.398,0.074,0.862,-0.459,-0.885,-1.038,0.671,80.000,478.000,1.000
991.238,-2620.498,-1697.716,-468.492,-2536.440,-2667.674,-2628.435,-2658.293,0.075,0.865,-0.461,-1.068,-1.129,0.488,80.000,479.000,1.000
1167.429,-2622.583,-1784.808,-545.001,-2536.744,-2668.199,-2627.925,-2657.871,0.076,0.865,-0.461,-1.068,-1.068,0.427,80.000,480.000,1.000
1356.085,-2622.360,-1869.030,-619.668,-2535.089,-2666.285,-2625.842,-2657.362,0.078,0.865,-0.459,-1.282,-1.190,0.366,80.000,481.000,1.000
1473.656,-2619.756,-1950.331,-692.643,-2531.834,-2663.270,-2623.245,-2657.103,0.081,0.864,-0.459,-1.434,-1.160,0.397,80.000,482.000,1.000
1469.705,-2615.112,-2028.952,-764.108,-2527.282,-2659.711,-2620.374,-2656.652,0.083,0.863,-0.460,-1.495,-1.160,0.427,80.000,483.000,1.000
1368.038,-2608.946,-2104.879,-833.918,-2521.363,-2654.955,-2616.182,-2654.733,0.084,0.863,-0.460,-1.617,-1.129,0.366,80.000,484.000,1.000
1262.510,-2601.599,-2177.976,-901.581,-2513.623,-2647.954,-2609.330,-2649.653,0.084,0.860,-0.458,-1.709,-1.099,0.458,80.000,485.000,1.000
1266.013,-2593.244,-2248.369,-966.804,-2503.923,-2638.703,-2599.846,-2640.639,0.083,0.858,-0.461,-1.709,-1.038,0.488,80.000,486.000,1.000
1454.062,-2584.171,-2316.415,-1030.000,-2493.123,-2628.549,-2589.319,-2628.929,0.084,0.855,-0.457,-1.740,-1.038,0.488,80.000,487.000,1.000
1831.653,-2574.734,-2382.909,-1092.211,-2482.757,-2618.883,-2579.705,-2617.136,0.082,0.851,-0.456,-1.709,-0.854,0.580,80.000,488.000,1.000
2324.250,-2564.922,-2448.103,-1154.251,-2473.916,-2609.799,-2571.624,-2607.077,0.081,0.850,-0.459,-1.770,-0.824,0.580,80.000,489.000,1.000
2806.992,-2554.259,-2511.618,-1216.117,-2466.487,-2600.119,-2564.104,-2598.635,0.080,0.850,-0.460,-1.740,-0.732,0.702,80.000,490.000,1.000
3169.534,-2542.082,-2572.794,-1276.964,-2459.136,-2588.304,-2555.297,-2590.195,0.078,0.848,-0.461,-1.678,-0.732,0.671,80.000,491.000,1.000
3363.566,-2527.792,-2630.727,-1335.444,-2449.860,-2573.322,-2543.298,-2579.566,0.076,0.847,-0.458,-1.495,-0.702,0.763,80.000,492.000,1.000
3396.536,-2511.043,-2684.930,-1390.428,-2436.942,-2555.196,-2527.239,-2565.047,0.076,0.848,-0.455,-1.404,-0.793,0.885,80.000,493.000,1.000
3303.157,-2491.846,-2735.122,-1441.521,-2419.749,-2535.004,-2507.394,-2546.037,0.075,0.846,-0.454,-1.282,-0.824,0.885,80.000,494.000,1.000
3135.146,-2470.563,-2781.366,-1489.242,-2398.871,-2514.173,-2484.763,-2523.106,0.075,0.847,-0.454,-1.251,-0.885,0.793,80.000,495.000,1.000
2958.169,-2447.655,-2824.058,-1534.637,-2375.589,-2493.283,-2460.386,-2497.700,0.074,0.844,-0.454,-1.221,-0.946,0.763,80.000,496.000,1.000
2830.131,-2423.491,-2863.569,-1578.558,-2351.110,-2471.665,-2434.728,-2471.403,0.074,0.843,-0.453,-1.160,-0.885,0.763,80.000,497.000,1.000
2772.667,-2398.540,-2900.648,-1621.427,-2326.283,-2448.577,-2408.212,-2445.338,0.074,0.842,-0.451,-1.068,-0.946,0.702,80.000,498.000,1.000
2764.663,-2373.511,-2935.953,-1663.333,-2301.672,-2424.296,-2381.598,-2420.086,0.074,0.843,-0.451,-1.007,-1.129,0.702,80.000,499.000,1.000
2761.949,-2348.954,-2969.893,-1704.147,-2277.395,-2399.509,-2355.561,-2395.631,0.072,0.843,-0.454,-0.946,-1.221,0.519,80.000,500.000,1.000
2722.788,-2324.782,-3002.467,-1743.488,-2252.945,-2374.324,-2329.979,-2371.163,0.071,0.842,-0.454,-0.977,-1.251,0.488,80.000,501.000,1.000
2622.071,-2300.357,-3033.138,-1780.912,-2227.658,-2348.569,-2304.220,-2345.606,0.070,0.841,-0.456,-0.732,-1.373,0.488,80.000,502.000,1.000
2455.615,-2274.948,-3061.582,-1816.308,-2201.261,-2322.419,-2278.048,-2318.411,0.072,0.840,-0.456,-0.580,-1.343,0.458,80.000,503.000,1.000
2240.063,-2248.061,-3087.509,-1849.912,-2173.887,-2296.095,-2251.465,-2289.640,0.068,0.841,-0.456,-0.519,-1.526,0.397,80.000,504.000,1.000
2007.699,-2219.597,-3110.898,-1882.180,-2145.820,-2269.237,-2224.498,-2259.920,0.069,0.844,-0.455,-0.458,-1.801,0.275,80.000,505.000,1.000
1793.909,-2189.585,-3131.812,-1913.280,-2116.970,-2240.658,-2196.702,-2229.778,0.072,0.846,-0.456,-0.336,-1.831,0.275,80.000,506.000,1.000
1618.075,-2157.848,-3149.799,-1942.617,-2086.531,-2208.829,-2166.672,-2198.662,0.073,0.847,-0.456,-0.244,-1.984,0.244,80.000,507.000,1.000
1474.116,-2124.284,-3164.650,-1969.370,-2053.666,-2173.141,-2133.261,-2165.481,0.074,0.852,-0.457,-0.214,-2.075,0.214,80.000,508.000,1.000
1346.888,-2089.323,-3176.576,-1993.293,-2018.531,-2134.843,-2096.946,-2129.884,0.075,0.853,-0.455,-0.244,-2.045,0.305,80.000,509.000,1.000
1238.140,-2053.836,-3186.305,-2014.954,-1982.336,-2096.462,-2059.815,-2092.688,0.076,0.856,-0.454,-0.275,-2.075,0.305,80.000,510.000,1.000
1174.028,-2018.480,-3194.581,-2035.240,-1946.452,-2059.979,-2023.953,-2055.308,0.077,0.857,-0.456,-0.397,-2.106,0.397,80.000,511.000,1.000
1185.350,-1983.166,-3201.362,-2054.648,-1911.444,-2025.345,-1989.719,-2018.757,0.077,0.855,-0.456,-0.488,-2.167,0.397,80.000,512.000,1.000
1276.741,-1947.143,-3206.209,-2072.988,-1876.682,-1990.516,-1955.544,-1982.715,0.077,0.855,-0.455,-0.488,-2.228,0.488,80.000,513.000,1.000
1418.350,-1909.585,-3208.327,-2089.456,-1840.744,-1952.974,-1918.790,-1945.367,0.077,0.854,-0.458,-0.458,-2.197,0.610,80.000,514.000,1.000
1565.947,-1870.411,-3207.381,-2103.368,-1802.642,-1911.922,-1877.971,-1904.981,0.078,0.855,-0.458,-0.397,-2.197,0.732,80.000,515.000,1.000
1673.523,-1830.713,-3204.122,-2115.057,-1763.124,-1869.550,-1834.807,-1862.280,0.078,0.855,-0.459,-0.397,-2.197,0.641,80.000,516.000,1.000
1685.581,-1792.113,-3199.782,-2125.867,-1724.506,-1829.699,-1793.580,-1820.750,0.077,0.855,-0.458,-0.580,-2.045,0.702,80.000,517.000,1.000
1550.633,-1755.375,-3195.200,-2136.965,-1688.602,-1794.511,-1757.635,-1783.671,0.077,0.854,-0.457,-0.397,-2.197,0.824,80.000,518.000,1.000
1271.832,-1719.598,-3189.542,-2148.072,-1654.850,-1762.287,-1725.917,-1750.892,0.078,0.855,-0.459,-0.488,-2.045,0.854,80.000,519.000,1.000
931.912,-1682.908,-3181.111,-2157.732,-1620.802,-1728.850,-1693.820,-1719.051,0.079,0.856,-0.459,-0.519,-1.892,0.885,80.000,520.000,1.000
644.384,-1643.840,-3168.883,-2164.466,-1584.081,-1690.733,-1657.058,-1684.114,0.078,0.854,-0.459,-0.366,-1.801,0.793,80.000,521.000,1.000
483.339,-1602.155,-3152.916,-2167.566,-1543.802,-1647.286,-1614.458,-1643.608,0.077,0.854,-0.462,-0.458,-1.709,0.916,80.000,522.000,1.000
466.110,-1558.811,-3134.447,-2167.434,-1500.813,-1600.637,-1568.127,-1597.751,0.076,0.856,-0.460,-0.519,-1.740,0.916,80.000,523.000,1.000
578.674,-1515.282,-3114.729,-2165.233,-1456.978,-1553.942,-1521.241,-1549.132,0.077,0.858,-0.461,-0.458,-1.678,1.007,80.000,524.000,1.000
792.496,-1472.695,-3094.493,-2162.229,-1414.035,-1509.236,-1475.985,-1501.125,0.077,0.859,-0.461,-0.427,-1.678,1.038,80.000,525.000,1.000
1066.241,-1431.240,-3073.734,-2159.112,-1372.589,-1466.334,-1432.566,-1455.721,0.078,0.858,-0.461,-0.519,-1.678,1.068,80.000,526.000,1.000
1351.419,-1390.279,-3051.621,-2155.794,-1332.071,-1423.729,-1389.720,-1412.751,0.077,0.860,-0.458,-0.488,-1.587,1.068,80.000,527.000,1.000
1604.838,-1349.134,-3027.632,-2151.879,-1291.792,-1380.724,-1346.815,-1371.349,0.077,0.859,-0.458,-0.641,-1.648,1.068,80.000,528.000,1.000
1798.713,-1307.590,-3001.669,-2146.829,-1251.605,-1338.272,-1304.500,-1330.980,0.076,0.857,-0.459,-0.732,-1.678,1.160,80.000,529.000,1.000
1921.590,-1265.678,-2973.998,-2139.981,-1211.372,-1297.280,-1263.213,-1290.924,0.078,0.854,-0.459,-0.824,-1.709,1.160,80.000,530.000,1.000
1975.557,-1223.343,-2945.006,-2130.865,-1170.575,-1256.903,-1221.942,-1250.015,0.083,0.852,-0.460,-0.854,-1.617,1.251,80.000,531.000,1.000
1977.230,-1180.595,-2914.836,-2119.611,-1128.903,-1215.389,-1179.169,-1207.466,0.085,0.851,-0.460,-0.793,-1.373,1.343,80.000,532.000,1.000
1954.472,-1137.812,-2883.883,-2106.978,-1086.816,-1172.174,-1134.839,-1163.518,0.084,0.849,-0.460,-0.702,-1.129,1.434,80.000,533.000,1.000
1928.442,-1095.618,-2852.376,-2093.892,-1045.341,-1128.514,-1090.476,-1119.315,0.084,0.848,-0.464,-0.519,-1.038,1.373,80.000,534.000,1.000
1894.899,-1054.508,-2820.366,-2081.106,-1005.415,-1086.151,-1047.903,-1076.419,0.085,0.848,-0.465,-0.458,-0.916,1.404,80.000,535.000,1.000
1833.333,-1014.453,-2787.641,-2068.691,-967.072,-1045.566,-1007.617,-1035.529,0.085,0.847,-0.463,-0.458,-0.793,1.465,80.000,536.000,1.000
1741.740,-974.754,-2753.319,-2055.672,-929.115,-1005.489,-968.199,-995.560,0.085,0.846,-0.460,-0.488,-0.610,1.465,80.000,537.000,1.000
1653.209,-934.366,-2716.498,-2040.637,-889.885,-964.006,-927.804,-954.698,0.087,0.844,-0.459,-0.305,-0.427,1.556,80.000,538.000,1.000
1609.891,-892.540,-2676.615,-2022.756,-848.604,-920.123,-885.692,-912.040,0.086,0.843,-0.462,-0.122,-0.275,1.495,80.000,539.000,1.000
1628.333,-849.473,-2634.389,-2002.551,-806.175,-874.546,-842.710,-868.255,0.083,0.844,-0.459,0.122,-0.153,1.465,80.000,540.000,1.000
1693.973,-806.337,-2591.822,-1981.593,-764.605,-829.213,-800.412,-824.924,0.081,0.844,-0.460,0.244,0.031,1.465,80.000,541.000,1.000
1778.469,-764.406,-2550.543,-1961.236,-725.401,-785.881,-759.661,-783.237,0.079,0.848,-0.461,0.275,0.000,1.434,80.000,542.000,1.000
1853.163,-724.050,-2510.887,-1941.674,-688.408,-744.792,-720.169,-743.216,0.077,0.851,-0.462,0.244,0.031,1.282,80.000,543.000,1.000
1888.225,-684.592,-2471.483,-1921.902,-652.047,-704.651,-680.721,-703.824,0.076,0.853,-0.459,0.214,0.031,1.190,80.000,544.000,1.000
1855.919,-645.158,-2430.621,-1900.725,-614.713,-664.027,-640.375,-664.000,0.073,0.853,-0.460,0.366,-0.031,1.099,80.000,545.000,1.000
1749.560,-605.594,-2387.679,-1877.831,-576.093,-622.720,-599.432,-623.681,0.072,0.855,-0.459,0.275,-0.183,0.977,80.000,546.000,1.000
1592.229,-566.622,-2343.204,-1853.997,-537.360,-581.918,-559.175,-583.862,0.073,0.853,-0.462,0.092,-0.183,0.854,80.000,547.000,1.000
1419.078,-529.188,-2298.661,-1830.461,-500.220,-543.106,-520.926,-545.805,0.073,0.852,-0.458,0.214,-0.305,0.702,80.000,548.000,1.000
1255.319,-493.502,-2254.870,-1807.772,-465.498,-506.658,-484.702,-509.833,0.074,0.853,-0.461,0.061,-0.336,0.610,80.000,549.000,1.000
1109.359,-458.698,-2211.318,-1785.210,-432.442,-471.442,-449.203,-474.786,0.074,0.851,-0.460,0.061,-0.519,0.641,80.000,550.000,1.000
977.600,-423.335,-2166.550,-1761.163,-399.232,-435.671,-412.874,-438.588,0.073,0.851,-0.460,0.122,-0.580,0.488,80.000,551.000,1.000
854.691,-386.342,-2119.121,-1734.278,-364.340,-398.148,-374.887,-399.827,0.075,0.850,-0.460,0.153,-0.641,0.366,80.000,552.000,1.000
746.279,-347.717,-2069.137,-1704.570,-327.571,-358.863,-335.728,-359.048,0.075,0.849,-0.460,0.214,-0.671,0.336,80.000,553.000,1.000
668.712,-308.362,-2017.739,-1673.116,-289.823,-318.655,-296.524,-318.116,0.076,0.848,-0.459,0.092,-0.732,0.214,80.000,554.000,1.000
627.314,-269.465,-1966.219,-1641.118,-252.291,-278.831,-258.510,-278.935,0.077,0.849,-0.460,0.153,-0.732,0.244,80.000,555.000,1.000
602.140,-231.991,-1915.368,-1609.331,-215.957,-240.829,-222.734,-242.622,0.077,0.849,-0.464,0.183,-0.854,0.305,80.000,556.000,1.000
568.739,-196.388,-1865.078,-1577.908,-181.210,-205.306,-189.192,-208.875,0.078,0.851,-0.462,0.183,-0.946,0.305,80.000,557.000,1.000
531.796,-162.598,-1815.076,-1546.638,-147.833,-171.604,-156.760,-176.229,0.078,0.850,-0.460,0.214,-1.007,0.305,80.000,558.000,1.000
523.590,-130.280,-1764.962,-1515.194,-115.450,-138.585,-124.181,-143.245,0.077,0.852,-0.459,0.183,-0.885,0.366,80.000,559.000,1.000
565.567,-98.989,-1714.600,-1483.382,-83.910,-105.733,-91.237,-109.534,0.076,0.852,-0.459,0.061,-1.038,0.366,80.000,560.000,1.000
646.427,-68.132,-1664.140,-1451.050,-53.060,-73.060,-58.363,-75.463,0.075,0.854,-0.457,0.031,-1.160,0.366,80.000,561.000,1.000
737.091,-36.960,-1613.373,-1417.830,-22.351,-40.304,-25.485,-41.205,0.074,0.855,-0.459,-0.061,-1.343,0.427,80.000,562.000,1.000
808.597,-4.958,-1562.140,-1383.496,8.794,-7.012,7.551,-7.004,0.073,0.854,-0.459,-0.122,-1.373,0.549,80.000,563.000,1.000
838.379,27.690,-1510.357,-1348.393,40.256,26.628,40.203,26.157,0.073,0.854,-0.459,-0.153,-1.617,0.549,80.000,564.000,1.000
816.423,60.183,-1458.262,-1313.287,71.371,59.802,71.679,57.325,0.071,0.855,-0.458,-0.366,-1.709,0.580,80.000,565.000,1.000
744.739,91.647,-1406.303,-1278.723,101.625,91.808,101.927,86.779,0.071,0.855,-0.458,-0.488,-1.953,0.458,80.000,566.000,1.000
621.951,121.459,-1354.767,-1244.782,130.650,122.062,131.237,115.416,0.071,0.855,-0.461,-0.427,-1.892,0.488,80.000,567.000,1.000
434.601,149.291,-1304.111,-1211.348,157.970,149.915,159.085,143.446,0.068,0.854,-0.459,-0.580,-2.106,0.519,80.000,568.000,1.000
177.487,175.339,-1254.201,-1178.020,183.459,175.285,184.831,170.710,0.069,0.855,-0.460,-0.580,-2.197,0.488,80.000,569.000,1.000
-114.464,200.495,-1204.248,-1144.083,207.925,199.248,208.846,197.624,0.068,0.854,-0.461,-0.824,-2.319,0.580,80.000,570.000,1.000
-364.004,226.069,-1153.339,-1108.801,232.871,223.602,232.465,225.144,0.070,0.855,-0.460,-0.854,-2.533,0.671,80.000,571.000,1.000
-491.293,252.930,-1100.944,-1072.089,259.247,249.472,256.728,253.492,0.072,0.854,-0.460,-0.885,-2.747,0.732,80.000,572.000,1.000
-467.340,280.735,-1047.906,-1035.016,286.497,276.462,281.200,281.360,0.070,0.856,-0.458,-0.854,-2.808,0.763,80.000,573.000,1.000
-341.270,308.240,-995.643,-999.007,313.220,303.537,305.096,307.420,0.071,0.857,-0.458,-0.916,-3.082,0.824,80.000,574.000,1.000
-212.067,334.272,-945.230,-964.801,338.369,330.259,328.559,331.686,0.071,0.857,-0.453,-1.068,-3.174,0.916,80.000,575.000,1.000
-163.114,358.268,-896.942,-932.209,361.580,356.629,352.308,354.882,0.073,0.855,-0.456,-1.190,-3.235,0.977,80.000,576.000,1.000
-221.672,380.318,-850.021,-900.302,383.087,382.411,376.973,377.791,0.073,0.854,-0.458,-1.190,-3.387,1.038,80.000,577.000,1.000
-363.071,401.023,-803.492,-867.905,403.588,407.153,402.665,401.291,0.071,0.855,-0.456,-1.282,-3.479,1.099,80.000,578.000,1.000
-529.630,421.052,-756.534,-834.279,423.583,430.224,428.554,425.717,0.070,0.855,-0.457,-1.434,-3.571,1.099,80.000,579.000,1.000
-660.215,440.674,-709.115,-799.617,442.782,450.828,452.664,449.973,0.069,0.852,-0.459,-1.404,-3.510,1.282,80.000,580.000,1.000
-728.937,459.952,-661.795,-764.622,460.660,468.974,473.358,472.451,0.069,0.850,-0.462,-1.373,-3.723,1.373,80.000,581.000,1.000
-755.007,479.091,-614.836,-729.808,477.278,486.161,490.937,492.603,0.068,0.850,-0.462,-1.373,-3.876,1.404,80.000,582.000,1.000
-779.043,498.214,-568.540,-695.598,493.024,504.264,506.821,510.696,0.070,0.847,-0.461,-1.221,-3.906,1.495,80.000,583.000,1.000
-843.127,517.054,-523.080,-662.425,507.964,523.972,522.207,526.811,0.069,0.848,-0.459,-1.312,-4.059,1.678,80.000,584.000,1.000
-977.717,535.126,-478.523,-630.463,521.912,544.401,537.495,540.926,0.070,0.848,-0.459,-1.343,-4.150,1.740,80.000,585.000,1.000
-1183.474,552.135,-434.794,-599.338,534.902,563.796,552.451,553.668,0.072,0.849,-0.459,-1.373,-4.181,1.801,80.000,586.000,1.000
-1423.831,568.139,-391.476,-568.342,547.285,580.645,566.700,566.223,0.072,0.846,-0.455,-1.343,-4.272,1.923,80.000,587.000,1.000
-1640.991,583.417,-348.361,-536.944,559.584,594.608,580.095,579.616,0.074,0.845,-0.455,-1.343,-4.395,1.984,80.000,588.000,1.000
-1787.487,598.320,-305.190,-504.890,572.415,606.711,593.211,594.449,0.074,0.847,-0.459,-1.251,-4.303,2.014,80.000,589.000,1.000
-1852.816,613.065,-261.946,-472.314,586.143,618.674,606.844,610.510,0.074,0.845,-0.459,-1.190,-4.364,2.014,80.000,590.000,1.000
-1865.833,627.551,-218.989,-439.696,600.473,631.748,621.100,626.646,0.075,0.846,-0.455,-1.099,-4.395,2.075,80.000,591.000,1.000
-1876.074,641.408,-176.529,-407.465,614.577,645.876,635.343,641.596,0.078,0.846,-0.457,-0.946,-4.303,2.136,80.000,592.000,1.000
-1928.030,654.233,-134.895,-375.797,627.623,659.791,648.561,654.791,0.079,0.848,-0.459,-0.763,-4.272,2.228,80.000,593.000,1.000
-2037.493,665.861,-94.177,-344.601,639.229,672.039,660.194,666.538,0.080,0.848,-0.463,-0.641,-4.242,2.167,80.000,594.000,1.000
-2183.139,676.345,-54.355,-313.734,649.532,682.093,670.436,677.664,0.081,0.848,-0.462,-0.641,-4.028,2.106,80.000,595.000,1.000
-2320.497,685.729,-15.579,-283.214,658.839,690.386,679.688,688.761,0.082,0.849,-0.462,-0.580,-3.876,2.197,80.000,596.000,1.000
-2405.006,693.905,21.995,-253.307,667.191,697.466,687.858,699.415,0.080,0.853,-0.459,-0.519,-3.723,2.228,80.000,597.000,1.000
-2402.387,700.852,58.090,-224.348,674.523,703.828,694.582,708.686,0.081,0.852,-0.458,-0.519,-3.540,2.167,80.000,598.000,1.000
-2287.437,707.121,93.122,-196.124,681.346,710.460,700.672,716.775,0.082,0.852,-0.459,-0.519,-3.387,2.136,80.000,599.000,1.000
-2056.927,713.703,127.913,-167.965,688.636,718.459,707.872,725.058,0.082,0.854,-0.459,-0.519,-3.235,2.167,80.000,600.000,1.000
-1752.478,721.234,162.842,-139.534,696.815,727.823,716.868,734.181,0.082,0.854,-0.458,-0.519,-3.143,2.075,80.000,601.000,1.000
-1452.630,729.514,197.809,-111.141,705.265,737.176,726.439,743.169,0.081,0.854,-0.459,-0.610,-2.960,1.984,80.000,602.000,1.000
-1230.447,737.796,232.221,-83.300,713.023,745.076,734.690,750.735,0.083,0.854,-0.459,-0.580,-2.777,2.014,80.000,603.000,1.000
-1123.777,745.466,265.874,-55.993,719.826,751.553,741.252,757.022,0.084,0.854,-0.458,-0.610,-2.594,1.862,80.000,604.000,1.000
-1133.991,752.301,298.913,-28.751,726.174,758.000,747.445,763.344,0.085,0.855,-0.458,-0.702,-2.502,1.740,80.000,605.000,1.000
-1225.287,758.111,331.246,-1.471,732.264,765.154,754.196,770.225,0.086,0.857,-0.461,-0.763,-2.319,1.709,80.000,606.000,1.000
-1324.962,762.352,362.438,25.051,737.122,771.532,760.391,776.138,0.086,0.856,-0.461,-0.885,-2.075,1.709,80.000,607.000,1.000
-1345.093,764.522,391.733,49.690,739.417,774.800,763.849,778.789,0.086,0.856,-0.460,-0.977,-1.862,1.495,80.000,608.000,1.000
-1221.097,764.970,419.226,72.335,739.195,774.564,764.318,777.830,0.085,0.857,-0.464,-0.977,-1.678,1.434,80.000,609.000,1.000
-945.946,764.851,445.768,94.121,738.151,772.985,764.110,775.454,0.087,0.856,-0.464,-1.007,-1.434,1.434,80.000,610.000,1.000
-572.546,765.271,472.130,116.443,738.149,772.734,765.684,774.335,0.087,0.856,-0.462,-1.007,-1.312,1.282,80.000,611.000,1.000
-179.145,766.566,498.754,139.969,739.722,774.682,769.349,775.515,0.086,0.856,-0.462,-1.007,-1.068,1.373,80.000,612.000,1.000
164.120,768.285,525.335,164.364,742.034,777.591,773.275,778.192,0.088,0.854,-0.461,-1.038,-0.885,1.160,80.000,613.000,1.000
399.492,769.790,551.554,188.859,743.994,779.715,775.609,781.025,0.088,0.853,-0.462,-1.251,-0.549,1.038,80.000,614.000,1.000
479.731,770.674,577.239,212.687,744.946,780.106,775.539,782.907,0.086,0.851,-0.463,-1.190,-0.336,1.007,80.000,615.000,1.000
388.246,770.810,602.143,235.304,744.747,778.894,773.181,783.335,0.085,0.851,-0.461,-1.099,-0.122,0.916,80.000,616.000,1.000
159.611,770.314,626.201,256.659,743.813,777.084,769.672,782.847,0.084,0.850,-0.463,-1.099,0.000,0.824,80.000,617.000,1.000
-133.742,769.381,649.219,277.055,742.803,775.806,766.475,782.383,0.082,0.851,-0.463,-1.007,0.153,0.732,80.000,618.000,1.000
-412.662,768.054,671.125,296.795,741.921,775.328,764.264,782.055,0.081,0.850,-0.460,-1.038,0.275,0.641,80.000,619.000,1.000
-610.255,766.101,691.759,315.864,740.619,774.873,762.403,780.913,0.082,0.849,-0.462,-0.946,0.397,0.610,80.000,620.000,1.000
-687.984,763.279,710.880,334.098,738.265,773.582,760.003,778.163,0.082,0.847,-0.458,-0.946,0.519,0.427,80.000,621.000,1.000
-659.286,759.697,728.703,351.613,734.924,771.463,757.239,774.246,0.079,0.848,-0.458,-0.916,0.549,0.275,80.000,622.000,1.000
-591.606,755.770,745.581,368.733,731.193,769.110,754.802,770.320,0.077,0.851,-0.455,-0.885,0.610,0.275,80.000,623.000,1.000
-565.652,752.014,762.253,385.892,727.725,767.025,753.148,767.505,0.076,0.851,-0.452,-0.916,0.610,0.214,80.000,624.000,1.000
-622.642,748.788,779.393,403.401,724.963,765.323,752.205,766.380,0.075,0.850,-0.457,-0.916,0.580,0.122,80.000,625.000,1.000
-740.955,745.843,796.745,420.864,722.502,763.269,750.748,765.812,0.074,0.851,-0.460,-1.038,0.427,0.031,80.000,626.000,1.000
-856.305,742.217,813.238,437.081,718.836,759.266,746.483,762.771,0.073,0.852,-0.462,-1.068,0.366,0.092,80.000,627.000,1.000
-911.211,736.849,827.562,450.967,712.528,752.107,737.827,754.831,0.073,0.851,-0.458,-1.099,0.336,0.031,80.000,628.000,1.000
-888.404,729.283,839.444,462.502,703.422,741.961,725.662,742.554,0.072,0.850,-0.459,-1.038,0.275,0.000,80.000,629.000,1.000
-800.884,719.795,849.490,472.520,692.550,729.911,712.375,728.646,0.072,0.849,-0.462,-1.099,0.183,0.000,80.000,630.000,1.000
-669.900,709.215,858.486,482.038,681.388,717.312,700.068,715.673,0.073,0.849,-0.462,-1.007,0.153,-0.061,80.000,631.000,1.000
-515.704,698.608,867.281,491.933,671.298,705.749,690.189,705.073,0.071,0.850,-0.459,-0.977,0.031,-0.061,80.000,632.000,1.000
-346.471,688.816,876.267,502.757,663.089,696.525,683.245,697.232,0.073,0.850,-0.463,-0.854,-0.092,-0.122,80.000,633.000,1.000
-150.237,680.121,885.571,514.606,656.594,689.639,678.323,691.502,0.074,0.851,-0.464,-0.946,-0.183,-0.183,80.000,634.000,1.000
89.348,672.248,894.934,526.922,650.747,683.868,673.323,686.231,0.073,0.851,-0.462,-0.916,-0.183,-0.061,80.000,635.000,1.000
370.015,664.729,903.830,538.840,644.418,677.999,666.574,679.843,0.073,0.851,-0.461,-0.885,-0.275,-0.031,80.000,636.000,1.000
665.867,657.312,912.181,549.963,637.313,671.569,658.336,672.307,0.074,0.853,-0.462,-0.854,-0.244,0.000,80.000,637.000,1.000
937.269,650.068,920.131,560.529,629.991,664.665,650.156,664.963,0.075,0.852,-0.459,-0.916,-0.458,-0.031,80.000,638.000,1.000
1148.705,643.068,927.859,570.764,622.834,657.118,642.805,658.470,0.076,0.851,-0.461,-0.916,-0.580,-0.031,80.000,639.000,1.000
1285.791,635.861,934.848,580.132,615.138,647.917,634.934,651.319,0.074,0.851,-0.458,-0.854,-0.580,0.092,80.000,640.000,1.000
1356.716,627.748,940.093,587.802,605.860,636.256,624.777,641.515,0.075,0.850,-0.459,-0.793,-0.641,0.214,80.000,641.000,1.000
1377.663,618.648,943.444,593.806,595.085,623.195,612.798,629.203,0.073,0.852,-0.455,-0.763,-0.702,0.183,80.000,642.000,1.000
1355.577,609.158,945.518,599.049,584.044,611.247,601.227,616.376,0.073,0.851,-0.458,-0.824,-0.610,0.275,80.000,643.000,1.000
1284.165,599.800,947.325,604.531,573.920,602.175,591.917,604.860,0.074,0.853,-0.457,-1.007,-0.793,0.275,80.000,644.000,1.000
1157.695,590.467,949.415,610.714,565.040,595.629,585.013,595.291,0.074,0.854,-0.457,-1.007,-0.885,0.336,80.000,645.000,1.000
986.857,580.577,951.499,617.489,556.972,589.761,579.324,587.472,0.075,0.854,-0.458,-1.038,-1.007,0.397,80.000,646.000,1.000
798.938,569.620,953.021,624.433,549.005,582.780,573.637,581.016,0.073,0.854,-0.461,-0.977,-1.160,0.427,80.000,647.000,1.000
626.327,557.448,953.136,630.714,540.281,573.677,566.936,574.975,0.074,0.854,-0.459,-1.190,-1.282,0.549,80.000,648.000,1.000
498.632,544.162,951.184,635.056,529.642,561.913,557.970,567.053,0.076,0.854,-0.457,-1.099,-1.251,0.519,80.000,649.000,1.000
436.329,530.131,946.985,636.416,516.257,547.490,545.627,554.740,0.075,0.856,-0.457,-1.282,-1.404,0.549,80.000,650.000,1.000
438.594,516.280,941.316,635.147,500.876,531.666,530.428,538.145,0.074,0.854,-0.458,-1.312,-1.404,0.641,80.000,651.000,1.000
475.094,503.853,935.944,633.096,485.804,516.789,514.870,520.524,0.076,0.854,-0.460,-1.190,-1.526,0.610,80.000,652.000,1.000
494.267,493.421,931.966,632.051,473.080,504.572,501.234,505.241,0.077,0.855,-0.460,-1.282,-1.526,0.580,80.000,653.000,1.000
448.406,484.298,929.164,632.447,462.846,494.596,489.706,493.031,0.077,0.854,-0.457,-1.282,-1.556,0.549,80.000,654.000,1.000
324.948,475.049,926.306,633.449,453.566,484.869,478.707,482.269,0.077,0.854,-0.458,-1.495,-1.434,0.549,80.000,655.000,1.000
160.799,464.562,922.146,634.010,443.583,473.797,466.833,471.149,0.078,0.854,-0.458,-1.465,-1.495,0.641,80.000,656.000,1.000
14.019,452.707,916.519,633.782,432.438,461.584,454.420,459.294,0.078,0.853,-0.459,-1.434,-1.465,0.793,80.000,657.000,1.000
-89.310,440.103,909.925,633.027,420.853,449.923,442.981,447.454,0.078,0.853,-0.460,-1.373,-1.465,0.732,80.000,658.000,1.000
-172.747,427.375,903.117,632.063,409.543,440.014,433.302,436.040,0.077,0.854,-0.461,-1.434,-1.495,0.793,80.000,659.000,1.000
-281.130,414.583,896.387,630.837,398.170,430.692,423.891,424.241,0.078,0.853,-0.461,-1.587,-1.556,0.763,80.000,660.000,1.000
-448.422,401.435,889.497,629.144,385.732,419.194,412.054,410.951,0.077,0.855,-0.462,-1.678,-1.587,0.793,80.000,661.000,1.000
-672.440,388.014,882.493,627.181,371.907,403.988,396.795,396.316,0.076,0.854,-0.459,-1.678,-1.678,0.793,80.000,662.000,1.000
-905.302,374.989,875.519,625.506,357.575,386.294,379.705,381.703,0.077,0.851,-0.459,-1.617,-1.587,0.610,80.000,663.000,1.000
-1089.196,363.088,868.711,624.500,343.930,368.845,363.354,368.194,0.077,0.852,-0.459,-1.709,-1.648,0.610,80.000,664.000,1.000
-1207.003,352.516,861.908,623.927,331.480,353.795,349.213,355.609,0.076,0.850,-0.459,-1.740,-1.617,0.549,80.000,665.000,1.000
-1281.569,342.903,854.797,623.186,320.021,341.663,337.182,343.198,0.077,0.851,-0.460,-1.709,-1.587,0.610,80.000,666.000,1.000
-1331.736,333.537,847.340,621.801,309.081,331.396,326.296,330.592,0.077,0.850,-0.462,-1.648,-1.617,0.519,80.000,667.000,1.000
-1352.593,323.651,839.337,619.552,298.255,321.321,315.413,318.010,0.078,0.852,-0.460,-1.678,-1.709,0.549,80.000,668.000,1.000
-1337.838,312.865,830.785,616.657,287.561,310.504,304.238,306.332,0.076,0.853,-0.460,-1.709,-1.709,0.580,80.000,669.000,1.000
-1299.467,301.359,821.818,613.543,277.367,299.248,293.423,296.458,0.077,0.854,-0.458,-1.678,-1.801,0.549,80.000,670.000,1.000
-1261.593,289.560,812.296,610.243,267.738,288.283,283.390,288.019,0.078,0.854,-0.459,-1.648,-1.740,0.519,80.000,671.000,1.000
-1242.083,277.686,801.937,606.168,257.937,277.533,273.280,278.939,0.079,0.854,-0.458,-1.770,-1.831,0.458,80.000,672.000,1.000
-1235.431,265.654,790.281,600.579,246.829,265.960,261.198,266.825,0.078,0.853,-0.458,-1.709,-1.740,0.488,80.000,673.000,1.000
-1208.976,253.433,777.449,593.468,234.017,252.781,246.291,251.322,0.078,0.854,-0.457,-1.770,-1.801,0.458,80.000,674.000,1.000
-1121.474,241.171,764.023,585.577,220.274,238.407,229.834,234.526,0.081,0.855,-0.460,-1.892,-1.801,0.488,80.000,675.000,1.000
-959.195,228.875,750.308,577.586,206.675,223.959,213.932,218.839,0.080,0.855,-0.457,-1.953,-1.770,0.549,80.000,676.000,1.000
-758.451,216.275,736.341,569.683,193.713,210.335,199.937,205.190,0.079,0.853,-0.460,-1.892,-1.770,0.488,80.000,677.000,1.000
-578.492,203.174,721.942,561.870,181.438,197.948,188.087,193.354,0.078,0.852,-0.458,-1.892,-1.709,0.549,80.000,678.000,1.000
-447.378,189.838,707.400,554.391,170.011,186.926,178.233,183.183,0.080,0.852,-0.457,-1.923,-1.740,0.580,80.000,679.000,1.000
-344.455,176.737,693.258,547.457,159.525,176.876,169.789,174.490,0.080,0.852,-0.457,-1.892,-1.801,0.580,80.000,680.000,1.000
-236.101,164.014,679.723,540.736,149.429,166.402,161.138,166.090,0.078,0.852,-0.453,-1.984,-1.770,0.488,80.000,681.000,1.000
-119.304,151.431,666.687,533.430,138.631,153.703,150.195,155.934,0.079,0.853,-0.455,-1.984,-1.770,0.519,80.000,682.000,1.000
-26.999,138.804,653.577,524.800,126.362,138.242,135.839,142.494,0.078,0.852,-0.457,-1.923,-1.862,0.458,80.000,683.000,1.000
6.201,126.397,640.110,514.938,113.044,121.673,119.317,126.411,0.076,0.853,-0.459,-1.984,-1.892,0.427,80.000,684.000,1.000
-18.425,114.803,626.464,504.891,100.258,106.979,103.849,110.581,0.074,0.854,-0.458,-1.953,-1.984,0.427,80.000,685.000,1.000
-62.169,104.390,612.787,495.817,89.502,96.332,92.129,97.862,0.075,0.855,-0.459,-2.045,-2.014,0.397,80.000,686.000,1.000
-82.412,94.792,599.008,488.003,80.752,89.095,83.820,88.406,0.076,0.856,-0.458,-2.014,-2.045,0.397,80.000,687.000,1.000
-63.101,85.073,584.600,480.686,72.474,82.069,75.652,79.670,0.076,0.855,-0.456,-2.045,-2.167,0.397,80.000,688.000,1.000
-22.683,74.554,569.425,472.995,63.258,72.265,64.765,69.370,0.075,0.855,-0.457,-2.075,-2.228,0.305,80.000,689.000,1.000
0.985,63.349,553.945,464.727,53.151,59.488,51.459,57.814,0.072,0.854,-0.455,-2.014,-2.350,0.275,80.000,690.000,1.000
-16.417,52.130,538.804,456.278,43.405,46.263,38.716,47.308,0.072,0.853,-0.454,-2.014,-2.472,0.305,80.000,691.000,1.000
-66.943,41.522,524.593,448.000,35.073,35.415,29.480,39.632,0.070,0.852,-0.456,-2.045,-2.472,0.275,80.000,692.000,1.000
-121.149,31.636,511.190,439.606,27.859,27.573,23.920,34.051,0.069,0.852,-0.454,-2.106,-2.594,0.305,80.000,693.000,1.000
-143.794,22.104,498.072,430.421,20.309,20.792,19.251,27.763,0.069,0.853,-0.455,-2.136,-2.594,0.244,80.000,694.000,1.000
-106.077,12.420,484.573,419.983,11.016,12.405,11.848,18.113,0.071,0.853,-0.453,-2.167,-2.686,0.244,80.000,695.000,1.000
1.513,2.285,470.028,408.408,-0.311,1.136,-0.137,4.578,0.070,0.853,-0.453,-2.075,-3.021,0.214,80.000,696.000,1.000
164.823,-8.260,454.240,396.317,-12.757,-12.207,-15.626,-11.016,0.070,0.853,-0.455,-2.075,-3.052,0.244,80.000,697.000,1.000
349.883,-18.887,437.312,384.456,-24.780,-25.406,-31.583,-25.805,0.071,0.856,-0.458,-1.953,-3.174,0.122,80.000,698.000,1.000
510.526,-29.106,419.904,373.517,-34.928,-36.199,-44.576,-37.176,0.072,0.857,-0.457,-1.984,-3.296,0.183,80.000,699.000,1.000
603.624,-38.508,402.849,363.831,-42.588,-43.612,-52.639,-43.973,0.073,0.860,-0.456,-2.106,-3.418,0.183,80.000,700.000,1.000
607.313,-46.991,386.457,355.011,-48.497,-48.381,-56.638,-47.585,0.073,0.862,-0.457,-2.136,-3.479,0.122,80.000,701.000,1.000
530.656,-54.809,370.572,346.033,-54.369,-52.344,-59.682,-51.460,0.073,0.863,-0.457,-2.167,-3.540,0.061,80.000,702.000,1.000
409.999,-62.369,354.673,335.908,-61.598,-57.319,-64.784,-58.526,0.074,0.861,-0.457,-2.289,-3.571,0.092,80.000,703.000,1.000
292.204,-69.929,338.644,324.536,-70.197,-64.121,-72.526,-68.795,0.075,0.861,-0.457,-2.411,-3.540,0.214,80.000,704.000,1.000
213.670,-77.509,322.787,312.690,-79.073,-72.304,-81.413,-79.916,0.074,0.858,-0.455,-2.533,-3.510,0.336,80.000,705.000,1.000
192.255,-84.927,307.558,301.415,-86.945,-80.578,-89.679,-89.362,0.075,0.858,-0.454,-2.533,-3.418,0.275,80.000,706.000,1.000
229.154,-92.035,293.543,291.428,-93.109,-87.893,-96.415,-95.883,0.074,0.856,-0.457,-2.594,-3.387,0.275,80.000,707.000,1.000
306.365,-99.114,280.599,282.589,-98.001,-94.552,-102.211,-100.069,0.074,0.854,-0.456,-2.594,-3.326,0.305,80.000,708.000,1.000
389.172,-106.703,267.995,274.084,-102.956,-101.880,-108.530,-103.838,0.077,0.854,-0.458,-2.563,-3.204,0.305,80.000,709.000,1.000
439.414,-115.060,254.904,264.968,-109.288,-110.930,-116.525,-109.326,0.078,0.856,-0.456,-2.502,-3.143,0.305,80.000,710.000,1.000
425.393,-123.902,240.847,254.658,-117.437,-121.657,-126.296,-117.698,0.079,0.855,-0.460,-2.502,-3.113,0.275,80.000,711.000,1.000
331.114,-132.351,226.353,243.510,-126.431,-132.546,-136.314,-127.975,0.078,0.853,-0.458,-2.380,-2.960,0.183,80.000,712.000,1.000
170.752,-139.237,212.520,232.770,-134.243,-141.032,-144.053,-137.389,0.079,0.851,-0.455,-2.350,-2.747,0.183,80.000,713.000,1.000
-10.163,-143.916,200.345,223.611,-139.277,-145.275,-147.837,-143.684,0.080,0.852,-0.456,-2.228,-2.655,0.061,80.000,714.000,1.000
-159.416,-146.870,189.791,216.223,-141.522,-145.789,-148.178,-146.762,0.079,0.854,-0.453,-2.167,-2.502,0.031,80.000,715.000,1.000
-251.324,-149.220,179.780,210.009,-142.152,-144.933,-147.011,-147.912,0.080,0.852,-0.457,-2.045,-2.289,0.031,80.000,716.000,1.000
-296.692,-151.825,169.260,204.218,-142.465,-144.800,-145.899,-148.437,0.079,0.852,-0.455,-1.923,-2.197,0.000,80.000,717.000,1.000
-317.684,-155.118,157.361,197.892,-143.532,-146.115,-145.650,-149.521,0.079,0.851,-0.453,-1.862,-2.045,-0.031,80.000,718.000,1.000
-317.505,-159.507,143.615,189.804,-146.372,-149.051,-146.968,-152.503,0.077,0.853,-0.455,-1.984,-1.892,0.031,80.000,719.000,1.000
-279.787,-165.522,127.875,178.890,-151.830,-154.129,-150.908,-158.597,0.076,0.854,-0.456,-1.831,-1.862,0.031,80.000,720.000,1.000
-191.966,-173.351,110.379,165.115,-159.894,-161.685,-158.100,-167.859,0.075,0.854,-0.455,-1.831,-1.678,-0.031,80.000,721.000,1.000
-64.916,-182.352,92.204,149.968,-169.221,-170.929,-167.612,-178.330,0.075,0.852,-0.455,-1.770,-1.648,-0.092,80.000,722.000,1.000
65.670,-191.182,74.695,135.690,-177.755,-180.127,-177.443,-187.036,0.072,0.853,-0.456,-1.648,-1.526,-0.153,80.000,723.000,1.000
154.489,-198.420,59.118,124.052,-183.923,-187.601,-185.708,-192.027,0.073,0.854,-0.452,-1.617,-1.495,-0.214,80.000,724.000,1.000
168.244,-203.257,46.140,115.540,-187.406,-192.553,-191.479,-193.518,0.071,0.856,-0.450,-1.617,-1.434,-0.122,80.000,725.000,1.000
104.005,-205.845,35.487,109.354,-189.045,-195.330,-194.904,-193.328,0.072,0.856,-0.452,-1.678,-1.373,-0.092,80.000,726.000,1.000
-5.182,-207.092,26.357,104.107,-190.079,-197.064,-196.669,-193.288,0.073,0.856,-0.452,-1.556,-1.282,-0.122,80.000,727.000,1.000
-104.709,-208.156,17.566,98.469,-191.443,-198.870,-197.754,-194.313,0.071,0.855,-0.451,-1.495,-1.312,-0.183,80.000,728.000,1.000
-146.323,-209.812,8.332,91.662,-193.490,-201.050,-199.059,-196.554,0.069,0.857,-0.451,-1.526,-1.190,-0.153,80.000,729.000,1.000
-114.635,-212.095,-1.477,83.648,-195.989,-203.133,-200.996,-199.715,0.070,0.856,-0.452,-1.526,-1.160,-0.031,80.000,730.000,1.000
-34.205,-214.633,-11.810,74.846,-198.484,-204.921,-203.555,-203.202,0.072,0.856,-0.450,-1.434,-1.160,0.031,80.000,731.000,1.000
51.069,-217.215,-22.589,65.661,-200.788,-207.039,-206.558,-206.531,0.072,0.856,-0.452,-1.648,-1.160,0.031,80.000,732.000,1.000
106.643,-219.833,-33.852,56.273,-203.004,-210.216,-209.873,-209.620,0.071,0.859,-0.453,-1.587,-1.190,-0.031,80.000,733.000,1.000
121.046,-222.332,-45.200,46.849,-205.161,-214.366,-213.232,-212.559,0.070,0.860,-0.447,-1.465,-1.160,0.061,80.000,734.000,1.000
104.026,-224.402,-55.960,37.523,-207.107,-218.422,-216.328,-215.567,0.071,0.860,-0.452,-1.495,-1.007,0.122,80.000,735.000,1.000
76.572,-225.822,-65.710,28.384,-208.638,-220.970,-218.971,-218.899,0.071,0.858,-0.450,-1.587,-1.068,0.214,80.000,736.000,1.000
56.020,-226.686,-74.300,19.614,-209.651,-221.411,-221.022,-222.443,0.070,0.859,-0.450,-1.648,-1.038,0.275,80.000,737.000,1.000
42.463,-227.502,-82.344,11.309,-210.354,-220.626,-222.637,-225.702,0.072,0.857,-0.451,-1.648,-1.068,0.366,80.000,738.000,1.000
18.789,-228.904,-90.860,3.381,-211.206,-220.246,-224.021,-227.974,0.072,0.855,-0.450,-1.617,-1.068,0.397,80.000,739.000,1.000
-29.283,-231.084,-100.604,-4.292,-212.458,-221.136,-224.921,-228.580,0.073,0.853,-0.449,-1.556,-0.854,0.519,80.000,740.000,1.000
-92.089,-233.582,-111.691,-11.789,-213.963,-222.729,-224.772,-227.481,0.071,0.853,-0.445,-1.526,-0.854,0.549,80.000,741.000,1.000
-140.892,-235.828,-123.591,-19.351,-215.674,-223.958,-223.614,-225.955,0.071,0.854,-0.447,-1.495,-0.824,0.641,80.000,742.000,1.000
-151.207,-237.692,-135.805,-27.414,-217.858,-224.440,-222.625,-225.950,0.069,0.854,-0.451,-1.556,-0.854,0.702,80.000,743.000,1.000
-122.316,-239.198,-147.561,-36.003,-220.477,-224.457,-222.992,-228.182,0.069,0.854,-0.449,-1.465,-0.854,0.732,80.000,744.000,1.000
-85.409,-240.177,-157.962,-44.586,-222.925,-224.522,-224.996,-231.603,0.068,0.854,-0.452,-1.465,-0.793,0.732,80.000,745.000,1.000
-84.459,-240.420,-166.722,-52.637,-224.609,-225.248,-228.188,-234.641,0.069,0.854,-0.454,-1.373,-0.793,0.732,80.000,746.000,1.000
-134.414,-239.851,-174.048,-59.949,-225.312,-226.930,-231.480,-236.274,0.070,0.855,-0.452,-1.312,-0.763,0.793,80.000,747.000,1.000
-206.871,-238.413,-180.368,-66.467,-224.951,-228.919,-233.351,-236.151,0.067,0.856,-0.454,-1.282,-0.854,0.702,80.000,748.000,1.000
-260.377,-236.125,-185.870,-72.106,-223.502,-230.000,-232.584,-234.466,0.069,0.857,-0.456,-1.221,-0.977,0.885,80.000,749.000,1.000
-274.372,-233.418,-190.826,-77.046,-221.346,-229.503,-229.311,-232.115,0.068,0.857,-0.456,-1.129,-0.916,0.854,80.000,750.000,1.000
-258.352,-230.920,-195.685,-81.734,-219.095,-227.509,-224.834,-230.138,0.068,0.857,-0.454,-1.221,-1.068,0.763,80.000,751.000,1.000
-240.970,-228.773,-200.329,-86.318,-216.956,-224.331,-220.313,-228.666,0.069,0.859,-0.455,-1.099,-1.190,0.793,80.000,752.000,1.000
-246.949,-226.615,-204.322,-90.534,-214.651,-220.419,-216.252,-226.969,0.070,0.860,-0.452,-1.038,-1.251,0.763,80.000,753.000,1.000
-271.471,-224.171,-207.285,-94.101,-211.952,-216.481,-212.666,-224.459,0.068,0.863,-0.454,-0.946,-1.190,0.641,80.000,754.000,1.000
-277.237,-221.576,-209.341,-97.095,-208.963,-213.225,-209.411,-221.310,0.068,0.866,-0.452,-1.038,-1.221,0.641,80.000,755.000,1.000
-228.182,-219.116,-211.046,-99.760,-205.818,-210.848,-206.281,-217.940,0.067,0.871,-0.452,-1.160,-1.251,0.488,80.000,756.000,1.000
-126.290,-217.016,-212.818,-102.271,-202.506,-209.039,-202.963,-214.454,0.068,0.873,-0.449,-1.343,-1.312,0.458,80.000,757.000,1.000
-8.491,-215.498,-215.235,-104.999,-199.247,-207.486,-199.501,-211.102,0.071,0.874,-0.452,-1.587,-1.434,0.397,80.000,758.000,1.000
89.724,-214.676,-218.842,-108.540,-196.625,-206.126,-196.380,-208.651,0.072,0.874,-0.451,-1.923,-1.404,0.397,80.000,759.000,1.000
160.469,-214.423,-223.852,-113.403,-195.221,-205.063,-194.266,-207.931,0.073,0.878,-0.452,-2.167,-1.526,0.397,80.000,760.000,1.000
214.870,-214.434,-230.082,-119.668,-195.172,-204.439,-193.683,-209.046,0.073,0.876,-0.455,-2.533,-1.495,0.336,80.000,761.000,1.000
260.590,-214.305,-236.774,-126.798,-195.959,-204.060,-194.347,-211.016,0.074,0.875,-0.455,-2.838,-1.404,0.336,80.000,762.000,1.000
291.623,-213.681,-243.129,-133.879,-196.614,-203.275,-195.042,-212.325,0.074,0.872,-0.454,-2.899,-1.556,0.366,80.000,763.000,1.000
291.589,-212.471,-248.512,-139.985,-196.322,-201.816,-194.463,-211.744,0.074,0.870,-0.454,-3.143,-1.495,0.366,80.000,764.000,1.000
251.186,-210.917,-252.740,-144.521,-194.908,-200.430,-192.436,-208.908,0.073,0.867,-0.451,-3.204,-1.404,0.305,80.000,765.000,1.000
186.275,-209.208,-256.139,-147.375,-192.632,-199.894,-189.902,-204.340,0.074,0.865,-0.452,-3.296,-1.251,0.336,80.000,766.000,1.000
127.614,-207.065,-258.913,-148.849,-189.662,-199.700,-187.573,-198.955,0.073,0.862,-0.452,-3.357,-1.282,0.397,80.000,767.000,1.000
94.023,-204.046,-261.237,-149.714,-186.083,-198.463,-185.543,-193.851,0.074,0.860,-0.451,-3.448,-1.312,0.336,80.000,768.000,1.000
81.008,-200.282,-263.355,-151.079,-182.365,-195.652,-184.090,-190.358,0.073,0.857,-0.452,-3.448,-1.221,0.214,80.000,769.000,1.000
67.505,-196.661,-265.690,-153.920,-179.356,-192.324,-184.001,-189.544,0.072,0.855,-0.447,-3.448,-1.190,0.214,80.000,770.000,1.000
36.818,-194.015,-268.585,-158.433,-177.498,-189.836,-185.461,-191.130,0.071,0.853,-0.448,-3.387,-1.068,0.214,80.000,771.000,1.000
-0.442,-192.363,-271.735,-163.890,-176.386,-188.572,-187.235,-193.247,0.068,0.851,-0.448,-3.265,-1.068,0.183,80.000,772.000,1.000
-12.372,-191.069,-274.662,-169.259,-175.254,-188.093,-187.792,-193.742,0.068,0.848,-0.446,-3.235,-0.977,0.122,80.000,773.000,1.000
20.232,-189.257,-276.805,-173.652,-173.408,-187.372,-186.131,-191.352,0.070,0.848,-0.445,-3.113,-1.038,0.122,80.000,774.000,1.000
85.543,-186.120,-277.586,-176.434,-170.257,-184.758,-181.553,-185.831,0.069,0.850,-0.447,-2.930,-1.099,0.061,80.000,775.000,1.000
159.954,-181.349,-276.809,-177.387,-165.567,-178.963,-173.890,-177.703,0.070,0.848,-0.447,-2.747,-1.190,0.000,80.000,776.000,1.000
229.402,-175.542,-274.807,-176.944,-160.054,-170.597,-164.465,-168.505,0.069,0.850,-0.444,-2.686,-1.129,-0.061,80.000,777.000,1.000
281.679,-170.025,-272.695,-176.234,-155.379,-162.154,-156.322,-160.988,0.070,0.850,-0.446,-2.594,-1.221,0.000,80.000,778.000,1.000
297.862,-165.919,-271.537,-176.374,-152.973,-155.978,-152.148,-157.589,0.069,0.848,-0.449,-2.380,-1.160,0.000,80.000,779.000,1.000
268.357,-163.426,-271.592,-177.760,-152.888,-152.545,-152.119,-158.439,0.069,0.849,-0.447,-2.258,-1.221,-0.153,80.000,780.000,1.000
208.199,-162.100,-272.495,-180.162,-154.093,-150.994,-154.382,-161.568,0.069,0.848,-0.445,-2.106,-1.190,-0.183,80.000,781.000,1.000
143.031,-161.440,-273.600,-183.132,-155.493,-150.654,-156.968,-164.566,0.069,0.850,-0.443,-1.984,-1.099,-0.122,80.000,782.000,1.000
80.426,-160.894,-274.401,-186.061,-156.187,-151.260,-158.606,-165.425,0.069,0.848,-0.446,-1.862,-1.007,-0.183,80.000,783.000,1.000
6.665,-159.667,-274.355,-188.158,-155.284,-152.123,-158.158,-162.758,0.068,0.848,-0.446,-1.556,-1.038,-0.183,80.000,784.000,1.000
-85.671,-157.129,-273.250,-189.035,-152.356,-152.149,-154.893,-156.688,0.069,0.850,-0.446,-1.465,-0.946,-0.122,80.000,785.000,1.000
-178.139,-153.291,-271.659,-189.043,-147.882,-150.633,-149.369,-149.138,0.067,0.852,-0.446,-1.404,-0.916,-0.092,80.000,786.000,1.000
-238.088,-148.761,-270.339,-188.823,-142.931,-147.778,-143.244,-142.554,0.069,0.854,-0.447,-1.343,-1.038,-0.061,80.000,787.000,1.000
-240.703,-144.512,-269.973,-189.035,-138.765,-144.793,-138.743,-138.809,0.071,0.857,-0.448,-1.282,-1.007,-0.061,80.000,788.000,1.000
-178.644,-141.389,-270.743,-190.075,-136.341,-143.164,-137.549,-138.560,0.070,0.858,-0.447,-1.282,-1.038,0.031,80.000,789.000,1.000
-65.068,-139.512,-272.212,-191.738,-135.629,-143.312,-139.405,-140.719,0.070,0.858,-0.447,-1.282,-0.916,0.122,80.000,790.000,1.000
66.343,-138.288,-273.805,-193.389,-135.633,-144.215,-142.171,-143.028,0.070,0.858,-0.446,-1.343,-0.854,0.153,80.000,791.000,1.000
176.179,-136.952,-274.996,-194.488,-135.142,-144.319,-143.266,-143.431,0.071,0.857,-0.446,-1.190,-0.885,0.183,80.000,792.000,1.000
244.903,-134.916,-275.464,-194.800,-133.214,-142.350,-141.034,-140.788,0.069,0.859,-0.447,-1.221,-0.885,0.336,80.000,793.000,1.000
282.658,-131.839,-274.717,-194.168,-129.248,-137.764,-135.084,-134.684,0.070,0.858,-0.447,-1.190,-0.885,0.244,80.000,794.000,1.000
307.589,-127.761,-272.316,-192.599,-123.372,-131.413,-126.563,-125.759,0.071,0.857,-0.444,-1.190,-0.854,0.397,80.000,795.000,1.000
319.226,-123.151,-268.564,-190.715,-116.917,-125.605,-118.316,-116.677,0.070,0.858,-0.447,-1.221,-0.854,0.427,80.000,796.000,1.000
302.814,-118.629,-264.246,-189.550,-111.755,-122.510,-113.367,-111.071,0.069,0.858,-0.451,-1.129,-0.854,0.519,80.000,797.000,1.000
254.279,-114.558,-260.208,-189.638,-108.726,-122.255,-112.619,-110.324,0.066,0.858,-0.450,-1.038,-0.793,0.519,80.000,798.000,1.000
192.360,-110.861,-256.781,-190.412,-106.944,-122.728,-113.974,-112.107,0.064,0.861,-0.450,-1.038,-0.916,0.458,80.000,799.000,1.000
145.659,-107.181,-253.793,-190.721,-104.637,-121.162,-113.945,-112.440,0.066,0.861,-0.448,-1.038,-0.916,0.519,80.000,800.000,1.000
126.144,-103.177,-250.961,-189.683,-100.410,-116.021,-110.224,-108.567,0.067,0.864,-0.452,-1.099,-1.068,0.488,80.000,801.000,1.000
117.331,-98.763,-247.903,-187.114,-94.006,-107.794,-102.844,-100.327,0.066,0.865,-0.454,-1.099,-1.190,0.519,80.000,802.000,1.000
94.324,-94.180,-244.520,-183.587,-86.382,-98.435,-93.766,-90.037,0.071,0.868,-0.451,-1.129,-1.190,0.610,80.000,803.000,1.000
53.328,-89.753,-240.896,-180.020,-79.142,-90.141,-85.633,-81.097,0.069,0.871,-0.448,-1.160,-1.160,0.702,80.000,804.000,1.000
15.609,-85.690,-237.189,-177.170,-73.688,-84.418,-80.606,-76.016,0.071,0.874,-0.447,-1.282,-1.190,0.732,80.000,805.000,1.000
3.886,-82.143,-233.711,-175.326,-70.597,-81.844,-79.527,-75.016,0.069,0.873,-0.446,-1.343,-1.129,0.763,80.000,806.000,1.000
23.836,-79.182,-230.545,-174.198,-69.410,-82.011,-81.350,-76.041,0.069,0.871,-0.443,-1.678,-1.099,0.641,80.000,807.000,1.000
72.066,-76.562,-227.568,-173.216,-68.931,-83.418,-83.675,-76.357,0.067,0.871,-0.443,-1.862,-1.190,0.732,80.000,808.000,1.000
150.419,-73.653,-224.404,-171.905,-67.870,-83.780,-83.952,-74.398,0.062,0.867,-0.443,-2.106,-1.129,0.580,80.000,809.000,1.000
261.069,-69.951,-220.815,-170.144,-65.515,-81.157,-80.754,-70.393,0.063,0.864,-0.443,-2.197,-1.160,0.580,80.000,810.000,1.000
389.517,-65.632,-217.207,-168.182,-62.069,-75.236,-74.545,-65.679,0.065,0.860,-0.449,-2.289,-1.373,0.305,80.000,811.000,1.000
499.308,-61.349,-214.088,-166.234,-58.255,-67.462,-67.018,-61.364,0.070,0.858,-0.455,-2.167,-1.495,0.275,80.000,812.000,1.000
545.411,-57.649,-211.628,-164.231,-54.670,-60.167,-59.863,-57.570,0.075,0.858,-0.455,-2.106,-1.434,0.244,80.000,813.000,1.000
491.477,-54.791,-209.493,-162.135,-51.732,-55.545,-54.190,-54.069,0.081,0.856,-0.456,-1.923,-1.434,0.183,80.000,814.000,1.000
323.558,-52.744,-207.209,-160.291,-49.745,-54.306,-50.486,-51.157,0.082,0.856,-0.453,-1.831,-1.160,0.214,80.000,815.000,1.000
64.978,-50.989,-204.489,-159.048,-48.497,-54.781,-48.399,-49.274,0.085,0.854,-0.454,-1.617,-0.946,0.122,80.000,816.000,1.000
-218.553,-48.721,-201.089,-158.305,-47.302,-54.309,-46.958,-48.413,0.082,0.849,-0.452,-1.526,-0.610,0.244,80.000,817.000,1.000
-437.472,-45.523,-197.120,-157.697,-45.669,-51.741,-45.597,-48.261,0.081,0.846,-0.449,-1.404,-0.458,0.183,80.000,818.000,1.000
-515.686,-41.506,-192.756,-156.699,-43.378,-47.833,-44.104,-47.933,0.077,0.847,-0.452,-1.190,-0.244,0.183,80.000,819.000,1.000
-428.339,-36.919,-187.907,-154.715,-40.144,-43.672,-41.887,-46.041,0.073,0.847,-0.452,-0.946,-0.031,0.122,80.000,820.000,1.000
-213.333,-31.913,-182.461,-151.402,-35.661,-39.473,-38.012,-41.658,0.070,0.849,-0.451,-0.641,0.000,0.183,80.000,821.000,1.000
52.380,-26.603,-176.359,-146.862,-29.902,-34.662,-31.806,-34.951,0.068,0.852,-0.454,-0.397,-0.122,0.092,80.000,822.000,1.000
289.459,-21.292,-169.949,-141.722,-23.387,-28.842,-23.838,-27.164,0.066,0.853,-0.453,-0.244,-0.153,-0.031,80.000,823.000,1.000
439.332,-16.433,-163.738,-136.822,-17.063,-22.474,-15.899,-19.903,0.065,0.853,-0.446,-0.031,-0.122,-0.153,80.000,824.000,1.000
471.449,-12.348,-157.989,-132.677,-11.722,-16.599,-9.667,-14.036,0.066,0.856,-0.445,-0.061,-0.122,-0.244,80.000,825.000,1.000
393.938,-9.118,-152.781,-129.252,-7.648,-12.188,-5.667,-9.331,0.064,0.858,-0.447,0.000,-0.183,-0.275,80.000,826.000,1.000
262.361,-6.709,-148.054,-126.269,-4.814,-9.665,-3.440,-5.339,0.063,0.860,-0.450,0.000,-0.244,-0.214,80.000,827.000,1.000
154.296,-4.950,-143.901,-123.649,-3.133,-8.608,-2.390,-2.347,0.065,0.860,-0.447,-0.092,-0.366,-0.214,80.000,828.000,1.000
120.585,-3.267,-140.133,-121.329,-2.197,-7.771,-1.798,-0.811,0.065,0.861,-0.446,0.031,-0.458,-0.214,80.000,829.000,1.000
161.639,-0.707,-135.959,-118.914,-1.058,-5.649,-0.510,-0.180,0.066,0.862,-0.445,-0.092,-0.488,-0.153,80.000,830.000,1.000
239.080,3.473,-130.564,-115.856,1.274,-1.364,2.503,0.968,0.065,0.862,-0.445,-0.061,-0.519,-0.153,80.000,831.000,1.000
298.328,9.109,-123.782,-111.977,5.009,4.784,7.302,3.648,0.066,0.862,-0.446,-0.122,-0.610,-0.061,80.000,832.000,1.000
292.410,14.969,-116.633,-107.766,9.297,11.370,12.673,7.565,0.068,0.863,-0.447,-0.092,-0.610,-0.092,80.000,833.000,1.000
205.709,19.452,-110.651,-103.990,12.801,16.417,17.008,11.544,0.069,0.861,-0.449,-0.153,-0.671,-0.031,80.000,834.000,1.000
63.469,21.519,-106.877,-101.212,14.556,18.436,19.477,14.476,0.073,0.861,-0.448,-0.153,-0.549,0.336,80.000,835.000,1.000
-81.534,21.234,-105.431,-99.591,14.517,17.404,20.283,16.004,0.073,0.862,-0.448,-0.214,-0.519,0.427,80.000,836.000,1.000
-175.001,19.840,-105.141,-98.639,13.778,15.093,20.632,17.030,0.073,0.864,-0.447,-0.153,-0.488,0.610,80.000,837.000,1.000
-186.593,19.239,-104.168,-97.359,14.119,14.316,22.323,19.213,0.073,0.864,-0.443,-0.244,-0.397,0.732,80.000,838.000,1.000
-123.919,20.826,-101.117,-95.018,16.656,17.044,26.364,23.233,0.073,0.865,-0.441,-0.275,-0.336,0.916,80.000,839.000,1.000
-27.159,24.564,-95.876,-91.813,20.875,22.761,31.584,27.833,0.072,0.865,-0.443,-0.336,-0.397,1.129,80.000,840.000,1.000
51.037,29.254,-89.527,-88.549,25.204,28.894,35.348,30.994,0.072,0.864,-0.446,-0.397,-0.427,1.160,80.000,841.000,1.000
67.166,33.597,-83.233,-85.785,28.367,33.010,36.049,31.704,0.069,0.863,-0.447,-0.427,-0.397,1.282,80.000,842.000,1.000
4.892,36.938,-77.722,-83.445,30.166,34.521,34.325,30.558,0.067,0.860,-0.449,-0.488,-0.397,1.373,80.000,843.000,1.000
-110.068,39.301,-73.055,-80.966,31.288,34.515,32.149,29.163,0.067,0.861,-0.446,-0.549,-0.336,1.373,80.000,844.000,1.000
-213.476,40.971,-68.778,-77.812,32.492,34.370,31.081,28.885,0.066,0.858,-0.446,-0.580,-0.397,1.465,80.000,845.000,1.000
-237.675,42.238,-64.443,-73.879,34.091,34.755,31.407,30.104,0.065,0.859,-0.443,-0.580,-0.488,1.434,80.000,846.000,1.000
-152.232,43.423,-59.745,-69.452,36.049,35.656,32.724,32.505,0.065,0.857,-0.448,-0.549,-0.641,1.434,80.000,847.000,1.000
25.166,44.787,-54.839,-65.027,38.153,36.772,34.524,35.485,0.065,0.857,-0.449,-0.580,-0.671,1.373,80.000,848.000,1.000
242.455,46.366,-50.188,-61.099,40.057,37.839,36.327,38.328,0.065,0.858,-0.450,-0.519,-0.793,1.343,80.000,849.000,1.000
427.230,48.094,-46.048,-57.867,41.580,39.018,37.988,40.693,0.067,0.859,-0.449,-0.458,-0.854,1.190,80.000,850.000,1.000
505.950,50.139,-42.169,-54.971,43.136,41.060,40.041,43.146,0.069,0.859,-0.448,-0.488,-0.854,1.190,80.000,851.000,1.000
446.817,52.871,-37.774,-51.654,45.556,44.754,43.450,46.803,0.066,0.859,-0.444,-0.458,-0.977,1.129,80.000,852.000,1.000
295.823,56.343,-32.476,-47.555,49.190,49.967,48.424,52.020,0.068,0.857,-0.443,-0.488,-1.129,1.160,80.000,853.000,1.000
149.635,59.998,-26.727,-43.189,53.322,55.373,53.791,57.598,0.070,0.859,-0.445,-0.397,-1.129,1.068,80.000,854.000,1.000
80.920,62.942,-21.479,-39.523,56.609,59.221,57.774,61.533,0.067,0.859,-0.444,-0.458,-1.190,1.038,80.000,855.000,1.000
95.678,64.502,-17.649,-37.163,58.025,60.341,59.097,62.534,0.067,0.858,-0.446,-0.488,-1.190,0.763,80.000,856.000,1.000
153.965,64.696,-15.331,-35.942,57.463,58.804,57.686,60.813,0.067,0.859,-0.448,-0.397,-1.251,0.793,80.000,857.000,1.000
205.381,64.300,-13.806,-35.118,55.836,56.105,54.780,57.871,0.068,0.860,-0.448,-0.458,-1.251,0.793,80.000,858.000,1.000
205.161,64.423,-11.873,-33.672,54.745,54.521,52.626,55.994,0.067,0.862,-0.446,-0.488,-1.343,0.641,80.000,859.000,1.000
132.073,65.786,-8.505,-30.723,55.675,55.794,53.445,57.296,0.068,0.862,-0.445,-0.519,-1.526,0.671,80.000,860.000,1.000
4.230,68.205,-3.711,-26.174,58.973,60.036,57.861,62.164,0.067,0.860,-0.444,-0.519,-1.495,0.671,80.000,861.000,1.000
-139.520,70.660,1.526,-21.028,63.377,65.597,64.161,68.414,0.068,0.862,-0.444,-0.580,-1.617,0.580,80.000,862.000,1.000
-274.086,71.915,5.779,-16.883,66.715,70.010,69.153,72.574,0.068,0.864,-0.443,-0.702,-1.648,0.488,80.000,863.000,1.000
-397.514,71.377,8.194,-14.701,67.474,71.602,70.519,72.689,0.069,0.863,-0.445,-0.702,-1.709,0.397,80.000,864.000,1.000
-519.601,69.517,9.069,-14.180,65.768,70.441,68.307,69.539,0.071,0.864,-0.447,-0.793,-1.709,0.336,80.000,865.000,1.000
-651.011,67.455,9.379,-14.318,62.863,67.701,64.059,65.162,0.072,0.864,-0.449,-0.916,-1.770,0.336,80.000,866.000,1.000
-791.665,66.238,10.307,-14.073,60.350,64.747,59.812,61.444,0.071,0.862,-0.446,-1.068,-1.678,0.244,80.000,867.000,1.000
-918.795,66.467,12.706,-12.564,59.727,62.890,57.783,60.066,0.072,0.864,-0.444,-1.160,-1.678,0.214,80.000,868.000,1.000
-993.317,68.203,16.896,-9.303,61.840,63.101,59.392,62.098,0.073,0.863,-0.445,-1.160,-1.648,0.336,80.000,869.000,1.000
-986.510,70.953,22.458,-4.684,66.212,65.522,64.177,66.949,0.072,0.861,-0.445,-1.190,-1.709,0.275,80.000,870.000,1.000
-901.145,73.840,28.055,0.016,71.159,69.253,69.983,72.401,0.073,0.862,-0.447,-1.251,-1.648,0.336,80.000,871.000,1.000
-772.033,75.948,32.212,3.380,74.664,72.613,74.106,75.836,0.074,0.861,-0.447,-1.282,-1.587,0.366,80.000,872.000,1.000
-649.898,76.655,34.137,4.720,75.416,74.008,74.489,75.588,0.072,0.860,-0.449,-1.251,-1.495,0.366,80.000,873.000,1.000
-573.762,75.872,34.259,4.551,73.458,72.751,70.832,71.931,0.073,0.860,-0.448,-1.160,-1.495,0.275,80.000,874.000,1.000
-543.623,74.015,33.893,4.157,69.971,69.252,64.784,66.792,0.071,0.860,-0.447,-1.129,-1.526,0.305,80.000,875.000,1.000
-513.931,71.893,34.231,4.691,66.624,65.118,59.209,62.624,0.071,0.858,-0.445,-1.190,-1.495,0.366,80.000,876.000,1.000
-423.988,70.599,36.032,6.754,65.052,62.854,57.291,61.573,0.072,0.859,-0.445,-1.160,-1.495,0.305,80.000,877.000,1.000
-252.082,71.024,39.350,10.296,66.115,64.237,60.671,64.569,0.071,0.861,-0.446,-1.068,-1.465,0.366,80.000,878.000,1.000
-41.976,73.181,43.572,14.612,69.194,68.586,67.831,70.423,0.070,0.861,-0.444,-1.068,-1.373,0.336,80.000,879.000,1.000
132.282,76.080,47.840,18.590,72.444,73.139,74.761,76.078,0.070,0.860,-0.446,-1.068,-1.373,0.366,80.000,880.000,1.000
224.111,78.403,51.376,21.309,73.999,75.261,77.496,78.407,0.070,0.858,-0.446,-1.068,-1.404,0.336,80.000,881.000,1.000
231.114,79.330,53.979,22.660,73.190,74.310,74.763,76.386,0.068,0.859,-0.443,-1.038,-1.373,0.549,80.000,882.000,1.000
170.871,78.848,55.884,23.307,70.794,71.748,68.570,71.516,0.068,0.857,-0.447,-0.977,-1.404,0.488,80.000,883.000,1.000
63.198,77.446,57.403,24.037,68.228,69.685,62.442,66.294,0.069,0.857,-0.448,-0.977,-1.343,0.519,80.000,884.000,1.000
-64.029,75.581,58.697,25.168,66.536,69.242,59.171,62.655,0.069,0.858,-0.448,-0.885,-1.343,0.549,80.000,885.000,1.000
-164.240,73.479,59.656,26.560,65.958,70.086,59.543,61.447,0.069,0.859,-0.447,-0.793,-1.404,0.549,80.000,886.000,1.000
