EEG 1,EEG 2,EEG 3,EEG 4,EEG 5,EEG 6,EEG 7,EEG 8,Accelerometer X,Accelerometer Y,Accelerometer Z,Gyroscope X,Gyroscope Y,Gyroscope Z,Battery Level,Counter,Validation Indicator
7.161,5.970,8.381,2.770,7.286,3.881,8.812,2.431,0.009,0.973,-0.153,-1.373,-1.312,0.549,73.333,343585.000,1.000
5.950,4.016,7.485,1.332,5.265,1.846,5.474,-1.066,0.008,0.973,-0.152,-1.190,-1.343,0.519,73.333,343586.000,1.000
4.631,1.976,6.747,0.318,3.528,0.374,3.537,-2.912,0.007,0.973,-0.155,-1.160,-1.404,0.610,73.333,343587.000,1.000
3.511,0.869,6.812,0.528,3.615,1.480,5.760,-0.913,0.006,0.973,-0.153,-1.129,-1.434,0.610,73.333,343588.000,1.000
2.285,0.646,7.335,1.449,5.243,4.930,11.463,3.881,0.009,0.975,-0.152,-1.038,-1.556,0.641,73.333,343589.000,1.000
0.367,0.435,7.221,1.680,6.727,8.482,16.977,8.168,0.010,0.974,-0.155,-0.916,-1.465,0.702,73.333,343590.000,1.000
-2.305,-0.381,6.019,0.350,6.719,10.178,19.023,9.433,0.009,0.975,-0.154,-0.854,-1.495,0.671,73.333,343591.000,1.000
-4.894,-1.483,4.275,-2.077,5.410,10.011,17.276,7.816,0.008,0.974,-0.156,-0.763,-1.526,0.641,73.333,343592.000,1.000
-6.321,-2.187,2.868,-4.394,3.903,8.940,13.553,5.208,0.010,0.974,-0.154,-0.732,-1.495,0.763,73.333,343593.000,1.000
-6.231,-2.352,2.229,-5.789,2.869,7.335,9.631,3.119,0.011,0.973,-0.157,-0.610,-1.495,0.763,73.333,343594.000,1.000
-5.155,-2.361,1.955,-6.261,2.219,5.161,6.380,1.793,0.014,0.973,-0.157,-0.519,-1.556,0.824,73.333,343595.000,1.000
-3.889,-2.555,1.661,-6.169,1.664,2.721,4.275,1.034,0.015,0.974,-0.156,-0.458,-1.373,0.854,73.333,343596.000,1.000
-3.051,-3.008,1.166,-5.877,1.114,0.681,3.525,0.749,0.016,0.974,-0.157,-0.427,-1.404,0.916,73.333,343597.000,1.000
-2.993,-3.559,0.468,-5.672,0.651,-0.260,4.048,0.686,0.017,0.975,-0.157,-0.336,-1.404,1.007,73.333,343598.000,1.000
-3.748,-3.902,-0.169,-5.713,0.367,0.082,5.539,0.396,0.016,0.975,-0.160,-0.214,-1.373,1.007,73.333,343599.000,1.000
-4.969,-3.697,-0.543,-5.991,0.414,1.350,7.788,-0.284,0.017,0.977,-0.157,-0.214,-1.251,1.068,73.333,343600.000,1.000
-6.039,-2.738,-0.354,-6.290,1.096,3.196,11.062,-0.933,0.018,0.978,-0.161,-0.214,-1.190,1.129,73.333,343601.000,1.000
-6.451,-1.213,0.379,-6.395,2.462,5.033,14.819,-1.129,0.016,0.979,-0.157,-0.214,-1.068,1.099,73.333,343602.000,1.000
-6.042,0.376,1.351,-6.197,4.036,5.787,17.105,-0.813,0.019,0.979,-0.157,-0.244,-1.099,1.160,73.333,343603.000,1.000
-4.860,1.742,2.498,-5.532,5.400,4.984,16.563,0.097,0.020,0.980,-0.159,-0.336,-0.916,1.160,73.333,343604.000,1.000
-3.124,2.989,3.788,-4.275,6.582,3.423,13.791,1.651,0.020,0.980,-0.159,-0.275,-0.824,1.282,73.333,343605.000,1.000
-1.367,4.209,5.143,-2.590,7.680,2.303,10.489,3.465,0.020,0.980,-0.158,-0.366,-0.793,1.282,73.333,343606.000,1.000
-0.372,5.193,6.094,-0.979,8.543,2.324,8.055,4.802,0.020,0.981,-0.160,-0.427,-0.580,1.373,73.333,343607.000,1.000
-0.691,5.589,6.050,0.029,8.890,3.532,7.137,5.074,0.021,0.980,-0.158,-0.488,-0.458,1.373,73.333,343608.000,1.000
-2.276,5.109,4.785,0.076,8.368,5.195,7.342,3.933,0.020,0.981,-0.158,-0.458,-0.397,1.343,73.333,343609.000,1.000
-4.550,3.597,2.253,-1.049,6.567,5.810,7.082,1.181,0.020,0.981,-0.158,-0.610,-0.336,1.282,73.333,343610.000,1.000
-6.640,1.231,-1.012,-3.148,3.480,4.083,4.956,-2.600,0.017,0.983,-0.155,-0.671,-0.244,1.343,73.333,343611.000,1.000
-7.614,-1.251,-3.979,-5.377,0.071,0.404,1.312,-5.676,0.015,0.983,-0.154,-0.671,-0.092,1.282,73.333,343612.000,1.000
-6.824,-2.797,-5.444,-6.506,-2.005,-2.992,-1.617,-6.114,0.015,0.982,-0.155,-0.793,-0.122,1.190,73.333,343613.000,1.000
-4.355,-2.851,-4.675,-5.715,-1.675,-3.981,-1.698,-3.475,0.016,0.981,-0.158,-0.885,-0.183,1.221,73.333,343614.000,1.000
-1.255,-1.989,-2.378,-3.365,0.411,-2.709,0.537,0.333,0.014,0.981,-0.156,-0.854,-0.153,1.190,73.333,343615.000,1.000
0.910,-1.550,-0.140,-0.807,2.284,-1.344,2.225,2.408,0.012,0.982,-0.156,-0.854,-0.031,1.068,73.333,343616.000,1.000
1.091,-2.489,0.641,0.685,2.375,-1.729,1.031,1.406,0.013,0.983,-0.157,-0.854,-0.122,1.007,73.333,343617.000,1.000
-0.515,-4.658,-0.236,0.845,0.663,-3.854,-2.623,-1.347,0.013,0.983,-0.157,-1.007,-0.122,0.854,73.333,343618.000,1.000
-2.839,-7.215,-1.894,0.239,-1.850,-6.453,-6.254,-3.461,0.014,0.985,-0.157,-1.068,-0.122,0.854,73.333,343619.000,1.000
-4.914,-9.426,-3.658,-0.620,-4.240,-8.303,-7.811,-3.826,0.013,0.984,-0.158,-0.946,-0.214,0.732,73.333,343620.000,1.000
-6.401,-10.952,-5.220,-1.668,-6.017,-8.811,-6.809,-3.056,0.012,0.983,-0.153,-1.007,-0.275,0.671,73.333,343621.000,1.000
-7.409,-11.623,-6.468,-3.022,-6.826,-7.741,-3.815,-2.251,0.011,0.983,-0.153,-1.129,-0.336,0.641,73.333,343622.000,1.000
-8.085,-11.261,-7.119,-4.528,-6.310,-4.878,0.431,-1.743,0.010,0.979,-0.154,-1.160,-0.427,0.580,73.333,343623.000,1.000
-8.459,-9.885,-6.731,-5.724,-4.455,-0.505,5.040,-1.011,0.011,0.978,-0.157,-1.160,-0.458,0.549,73.333,343624.000,1.000
-8.472,-7.919,-5.393,-6.149,-1.848,3.935,8.547,0.605,0.013,0.976,-0.162,-1.129,-0.519,0.427,73.333,343625.000,1.000
-8.098,-6.112,-3.598,-5.684,0.317,6.005,9.000,2.885,0.012,0.975,-0.161,-1.007,-0.580,0.458,73.333,343626.000,1.000
-7.539,-5.247,-2.284,-4.902,0.528,3.495,4.496,4.020,0.014,0.975,-0.160,-0.916,-0.702,0.458,73.333,343627.000,1.000
-7.049,-5.486,-2.236,-4.687,-1.907,-3.486,-4.733,2.042,0.015,0.977,-0.160,-0.641,-0.702,0.641,73.333,343628.000,1.000
-6.530,-5.908,-3.221,-5.305,-5.716,-11.419,-14.815,-2.735,0.016,0.981,-0.159,-0.519,-0.732,0.702,73.333,343629.000,1.000
-5.575,-5.015,-4.229,-6.077,-8.191,-15.318,-20.468,-7.443,0.015,0.982,-0.159,-0.641,-0.671,0.916,73.333,343630.000,1.000
-3.905,-1.864,-3.911,-5.880,-7.091,-12.349,-18.694,-8.681,0.015,0.981,-0.160,-0.610,-0.641,1.068,73.333,343631.000,1.000
-1.809,3.049,-1.860,-4.179,-2.359,-4.005,-10.940,-5.180,0.014,0.975,-0.158,-0.641,-0.671,1.099,73.333,343632.000,1.000
-0.144,7.882,0.857,-1.649,3.741,4.916,-2.076,1.068,0.016,0.969,-0.159,-0.580,-0.732,1.129,73.333,343633.000,1.000
0.218,10.616,2.665,0.336,8.276,9.725,3.072,6.393,0.012,0.968,-0.159,-0.336,-0.763,1.160,73.333,343634.000,1.000
-0.959,10.400,2.587,0.869,9.729,8.984,2.843,8.352,0.008,0.970,-0.157,0.000,-0.702,1.068,73.333,343635.000,1.000
-3.007,8.002,1.152,0.262,8.787,4.965,-0.345,7.379,0.005,0.973,-0.159,0.061,-0.916,0.946,73.333,343636.000,1.000
-4.671,5.128,-0.320,-0.332,7.427,1.360,-2.270,5.997,0.004,0.979,-0.159,0.275,-1.099,0.763,73.333,343637.000,1.000
-4.827,3.203,-0.801,0.055,7.144,0.300,-0.671,6.488,0.004,0.979,-0.156,0.244,-1.251,0.671,73.333,343638.000,1.000
-3.219,2.447,-0.211,1.328,7.666,1.131,2.776,8.666,0.006,0.981,-0.155,0.000,-1.343,0.610,73.333,343639.000,1.000
-0.578,2.027,0.382,2.367,7.429,1.924,4.421,9.931,0.008,0.981,-0.154,0.031,-1.526,0.427,73.333,343640.000,1.000
2.002,1.057,-0.012,2.107,5.270,1.621,2.447,7.880,0.006,0.981,-0.156,-0.061,-1.617,0.366,73.333,343641.000,1.000
3.641,-0.781,-1.752,0.302,1.316,0.159,-2.295,2.383,0.010,0.981,-0.157,-0.122,-1.740,0.366,73.333,343642.000,1.000
3.865,-3.256,-4.534,-2.502,-3.351,-2.420,-7.702,-4.518,0.012,0.981,-0.158,-0.214,-1.831,0.366,73.333,343643.000,1.000
2.698,-5.757,-7.410,-5.273,-7.239,-5.722,-11.449,-9.898,0.013,0.980,-0.158,-0.305,-1.709,0.427,73.333,343644.000,1.000
0.639,-7.589,-9.437,-6.924,-9.030,-8.564,-11.888,-11.550,0.015,0.979,-0.156,-0.336,-1.892,0.366,73.333,343645.000,1.000
-1.707,-8.517,-10.040,-6.913,-8.462,-9.909,-9.131,-9.374,0.014,0.979,-0.159,-0.336,-1.953,0.336,73.333,343646.000,1.000
-3.996,-8.985,-9.512,-5.627,-6.632,-9.909,-5.542,-5.534,0.015,0.978,-0.157,-0.366,-1.892,0.336,73.333,343647.000,1.000
-6.044,-9.468,-8.570,-3.845,-4.882,-9.197,-3.601,-2.453,0.015,0.980,-0.155,-0.366,-1.862,0.336,73.333,343648.000,1.000
-7.572,-9.793,-7.581,-2.035,-3.602,-7.705,-3.417,-0.812,0.016,0.979,-0.155,-0.366,-1.892,0.458,73.333,343649.000,1.000
-8.285,-9.389,-6.807,-0.415,-2.487,-5.220,-3.700,0.093,0.014,0.979,-0.160,-0.397,-1.923,0.610,73.333,343650.000,1.000
-8.136,-8.007,-6.352,0.744,-1.512,-2.734,-3.943,0.941,0.015,0.981,-0.159,-0.427,-1.831,0.671,73.333,343651.000,1.000
-7.398,-5.903,-6.313,1.142,-1.011,-1.897,-4.528,1.815,0.015,0.981,-0.156,-0.488,-1.770,0.671,73.333,343652.000,1.000
-6.402,-3.412,-6.542,0.842,-0.933,-2.944,-5.104,2.735,0.014,0.981,-0.153,-0.549,-1.740,0.824,73.333,343653.000,1.000
-5.273,-0.697,-6.440,0.434,-0.666,-4.200,-4.398,3.998,0.013,0.982,-0.156,-0.671,-1.770,0.793,73.333,343654.000,1.000
-3.993,2.006,-5.691,0.509,0.183,-3.882,-2.028,5.519,0.014,0.980,-0.158,-0.763,-1.709,0.916,73.333,343655.000,1.000
-2.591,4.192,-4.380,1.182,1.278,-1.914,0.873,6.645,0.013,0.981,-0.160,-0.732,-1.678,0.824,73.333,343656.000,1.000
-1.207,5.352,-3.010,2.153,2.054,0.279,2.887,6.963,0.014,0.982,-0.158,-0.763,-1.740,0.793,73.333,343657.000,1.000
-0.202,5.243,-2.151,2.876,2.145,1.174,3.403,6.352,0.013,0.981,-0.157,-0.702,-1.678,0.732,73.333,343658.000,1.000
-0.204,3.774,-2.188,2.572,1.144,-0.157,2.095,4.256,0.014,0.979,-0.157,-0.793,-1.678,0.763,73.333,343659.000,1.000
-1.632,1.092,-3.415,0.739,-1.134,-3.767,-1.293,0.346,0.016,0.981,-0.161,-0.793,-1.678,0.641,73.333,343660.000,1.000
-4.055,-2.125,-5.350,-2.045,-3.931,-8.451,-5.726,-4.100,0.016,0.977,-0.160,-0.793,-1.709,0.732,73.333,343661.000,1.000
-6.344,-4.838,-7.025,-4.393,-5.793,-12.156,-9.108,-6.825,0.014,0.977,-0.159,-0.824,-1.709,0.671,73.333,343662.000,1.000
-7.413,-6.217,-7.582,-5.136,-5.696,-13.315,-9.809,-6.518,0.014,0.977,-0.157,-0.916,-1.648,0.549,73.333,343663.000,1.000
-6.792,-6.049,-6.555,-3.974,-3.701,-11.787,-7.550,-3.615,0.015,0.977,-0.161,-0.885,-1.617,0.549,73.333,343664.000,1.000
-4.709,-4.674,-4.265,-1.449,-0.624,-8.411,-3.236,0.533,0.015,0.975,-0.158,-0.793,-1.587,0.427,73.333,343665.000,1.000
-1.835,-2.633,-1.339,1.497,2.587,-3.887,1.929,4.654,0.015,0.974,-0.160,-0.732,-1.465,0.336,73.333,343666.000,1.000
1.002,-0.524,1.320,3.849,5.000,1.165,6.426,7.495,0.016,0.975,-0.160,-0.641,-1.434,0.336,73.333,343667.000,1.000
2.997,0.918,2.700,4.765,5.576,5.068,8.019,7.659,0.015,0.975,-0.158,-0.580,-1.434,0.214,73.333,343668.000,1.000
3.543,0.946,2.197,3.799,3.409,5.206,4.448,4.035,0.012,0.975,-0.157,-0.519,-1.343,0.092,73.333,343669.000,1.000
2.501,-0.673,-0.210,1.131,-1.445,0.314,-4.612,-3.156,0.012,0.973,-0.159,-0.427,-1.251,0.000,73.333,343670.000,1.000
0.417,-3.135,-3.475,-2.170,-7.260,-7.416,-15.647,-11.368,0.012,0.974,-0.160,-0.427,-1.251,0.061,73.333,343671.000,1.000
-1.706,-4.857,-6.086,-4.543,-11.229,-13.109,-22.754,-16.711,0.012,0.975,-0.160,-0.336,-1.343,0.000,73.333,343672.000,1.000
-3.007,-4.473,-6.909,-4.849,-11.225,-12.616,-21.765,-16.557,0.013,0.976,-0.155,-0.275,-1.312,-0.061,73.333,343673.000,1.000
-3.257,-1.825,-5.662,-3.063,-7.281,-5.719,-13.306,-11.203,0.011,0.977,-0.158,-0.244,-1.282,-0.092,73.333,343674.000,1.000
-2.906,1.941,-3.320,-0.315,-1.504,3.692,-2.286,-3.448,0.012,0.977,-0.163,-0.092,-1.160,-0.092,73.333,343675.000,1.000
-2.605,5.245,-1.185,1.852,3.419,10.643,5.897,3.249,0.012,0.977,-0.162,-0.092,-1.190,-0.061,73.333,343676.000,1.000
-2.638,7.118,-0.153,2.391,5.861,12.494,8.462,6.630,0.011,0.977,-0.163,-0.183,-1.190,-0.122,73.333,343677.000,1.000
-2.746,7.656,-0.260,1.368,5.937,10.134,5.988,6.751,0.012,0.978,-0.160,-0.183,-1.221,0.000,73.333,343678.000,1.000
-2.418,7.685,-0.755,-0.136,5.023,6.671,1.589,5.682,0.012,0.979,-0.161,-0.153,-1.221,0.061,73.333,343679.000,1.000
-1.439,7.950,-1.117,-0.933,4.513,4.934,-1.291,5.615,0.011,0.981,-0.160,-0.183,-1.312,0.244,73.333,343680.000,1.000
-0.194,8.484,-1.247,-0.609,4.784,5.683,-1.054,7.072,0.010,0.980,-0.157,-0.275,-1.282,0.275,73.333,343681.000,1.000
0.603,8.712,-1.423,0.391,5.296,7.887,1.608,8.895,0.007,0.979,-0.157,-0.366,-1.312,0.305,73.333,343682.000,1.000
0.560,8.136,-1.811,1.443,5.493,10.256,5.172,9.808,0.009,0.980,-0.156,-0.458,-1.312,0.305,73.333,343683.000,1.000
-0.143,6.689,-2.219,2.157,5.166,11.838,8.067,9.366,0.010,0.981,-0.157,-0.488,-1.404,0.366,73.333,343684.000,1.000
-1.012,4.592,-2.589,2.281,4.205,11.536,8.514,7.710,0.009,0.979,-0.161,-0.702,-1.556,0.488,73.333,343685.000,1.000
-1.478,2.328,-2.647,1.888,2.752,8.604,5.919,5.521,0.009,0.980,-0.158,-0.824,-1.617,0.549,73.333,343686.000,1.000
-1.173,0.550,-2.182,1.383,1.368,3.872,1.741,3.784,0.009,0.983,-0.156,-0.885,-1.556,0.519,73.333,343687.000,1.000
-0.167,-0.382,-1.377,1.085,0.576,-0.496,-1.818,2.995,0.007,0.981,-0.159,-0.885,-1.587,0.641,73.333,343688.000,1.000
1.152,-0.670,-0.531,0.947,0.335,-2.788,-3.654,2.706,0.007,0.980,-0.161,-1.007,-1.648,0.702,73.333,343689.000,1.000
2.357,-0.903,-0.049,0.582,-0.016,-3.129,-4.539,1.692,0.009,0.979,-0.160,-1.099,-1.709,0.824,73.333,343690.000,1.000
3.129,-1.642,-0.062,-0.404,-1.325,-3.116,-6.030,-1.196,0.010,0.979,-0.158,-1.068,-1.648,0.763,73.333,343691.000,1.000
3.347,-3.027,-0.558,-2.014,-3.835,-4.183,-8.806,-5.809,0.010,0.979,-0.156,-1.221,-1.617,0.854,73.333,343692.000,1.000
3.270,-4.525,-1.204,-3.586,-6.600,-6.226,-11.677,-10.063,0.011,0.980,-0.160,-1.221,-1.617,0.946,73.333,343693.000,1.000
3.568,-5.047,-1.112,-4.008,-7.815,-7.447,-11.980,-10.947,0.010,0.982,-0.161,-1.251,-1.587,0.977,73.333,343694.000,1.000
4.796,-3.699,0.363,-2.619,-6.130,-5.781,-7.636,-6.981,0.012,0.980,-0.157,-1.312,-1.587,1.007,73.333,343695.000,1.000
6.704,-0.796,3.049,-0.010,-2.125,-1.275,0.397,-0.063,0.013,0.979,-0.158,-1.373,-1.556,1.007,73.333,343696.000,1.000
8.222,1.989,5.605,2.179,1.722,3.090,7.488,5.415,0.013,0.980,-0.155,-1.373,-1.404,1.129,73.333,343697.000,1.000
8.360,2.930,6.547,2.651,3.093,3.889,8.871,6.206,0.014,0.979,-0.158,-1.312,-1.434,1.068,73.333,343698.000,1.000
7.033,1.712,5.652,1.567,1.774,0.513,3.954,2.886,0.016,0.976,-0.158,-1.282,-1.343,1.068,73.333,343699.000,1.000
4.992,-0.486,3.721,0.094,-0.648,-4.470,-3.894,-1.561,0.017,0.975,-0.156,-1.312,-1.282,1.099,73.333,343700.000,1.000
3.154,-2.155,1.932,-0.764,-2.620,-7.901,-10.790,-4.880,0.015,0.978,-0.156,-1.251,-1.312,1.068,73.333,343701.000,1.000
2.000,-2.594,0.881,-0.834,-3.753,-8.685,-14.926,-6.771,0.016,0.975,-0.159,-1.221,-1.099,1.068,73.333,343702.000,1.000
1.555,-2.018,0.564,-0.459,-4.388,-7.895,-16.093,-7.738,0.015,0.976,-0.156,-1.099,-1.068,0.916,73.333,343703.000,1.000
1.732,-0.905,1.012,0.175,-4.583,-6.755,-14.121,-7.605,0.015,0.977,-0.156,-1.038,-1.038,0.854,73.333,343704.000,1.000
2.490,0.439,2.166,1.208,-3.912,-5.320,-9.074,-5.473,0.015,0.976,-0.157,-0.977,-0.946,0.854,73.333,343705.000,1.000
3.688,1.763,3.907,2.724,-2.267,-3.158,-2.330,-1.143,0.016,0.977,-0.157,-0.916,-0.916,0.824,73.333,343706.000,1.000
4.906,2.642,5.641,4.206,-0.517,-0.524,3.173,3.495,0.015,0.977,-0.161,-0.885,-0.793,0.732,73.333,343707.000,1.000
5.680,2.732,6.629,4.826,0.111,1.697,4.824,5.482,0.014,0.975,-0.157,-0.946,-0.702,0.824,73.333,343708.000,1.000
5.911,2.185,6.818,4.351,-0.680,2.912,2.489,3.550,0.013,0.975,-0.156,-0.763,-0.671,0.702,73.333,343709.000,1.000
5.877,1.561,6.578,3.366,-1.922,3.392,-1.460,-0.673,0.015,0.975,-0.157,-0.732,-0.641,0.641,73.333,343710.000,1.000
5.977,1.420,6.525,2.780,-2.189,4.106,-3.591,-3.910,0.013,0.974,-0.156,-0.641,-0.580,0.732,73.333,343711.000,1.000
6.461,1.985,6.900,3.077,-0.754,5.726,-1.865,-3.762,0.013,0.976,-0.157,-0.641,-0.580,0.641,73.333,343712.000,1.000
7.236,2.936,7.355,3.901,1.725,7.590,2.673,-0.472,0.014,0.977,-0.159,-0.458,-0.427,0.671,73.333,343713.000,1.000
7.948,3.579,7.387,4.347,3.634,8.076,6.717,3.494,0.015,0.978,-0.156,-0.458,-0.427,0.580,73.333,343714.000,1.000
8.418,3.501,6.710,3.851,3.834,6.335,7.460,5.685,0.014,0.977,-0.156,-0.427,-0.427,0.671,73.333,343715.000,1.000
8.903,3.009,5.869,2.837,2.694,3.427,5.061,5.603,0.012,0.978,-0.160,-0.366,-0.610,0.641,73.333,343716.000,1.000
9.639,2.723,5.462,2.131,1.490,1.491,1.855,4.259,0.012,0.978,-0.159,-0.214,-0.519,0.610,73.333,343717.000,1.000
10.371,2.959,5.479,2.152,1.162,2.057,0.147,2.827,0.010,0.979,-0.157,-0.214,-0.580,0.702,73.333,343718.000,1.000
10.602,3.641,5.725,2.889,1.916,5.186,1.284,2.261,0.011,0.980,-0.157,-0.183,-0.488,0.702,73.333,343719.000,1.000
10.122,4.513,5.980,4.155,3.422,9.576,5.289,3.151,0.009,0.979,-0.156,-0.275,-0.427,0.732,73.333,343720.000,1.000
9.161,5.245,6.200,5.619,4.925,13.141,10.559,5.208,0.010,0.979,-0.156,-0.275,-0.580,0.671,73.333,343721.000,1.000
8.103,5.503,6.071,6.719,5.445,14.007,14.201,7.095,0.011,0.980,-0.156,-0.397,-0.732,0.793,73.333,343722.000,1.000
7.253,5.157,5.163,6.980,4.458,11.692,14.134,7.608,0.010,0.980,-0.157,-0.397,-0.732,0.885,73.333,343723.000,1.000
6.695,4.371,3.493,6.324,2.345,7.434,10.814,6.835,0.009,0.980,-0.156,-0.366,-0.702,0.977,73.333,343724.000,1.000
6.197,3.344,1.181,4.836,-0.113,3.127,6.205,5.425,0.012,0.979,-0.156,-0.488,-0.732,0.885,73.333,343725.000,1.000
5.373,2.097,-1.506,2.536,-2.540,-0.112,1.973,3.282,0.011,0.980,-0.157,-0.519,-0.732,0.977,73.333,343726.000,1.000
4.069,0.577,-4.310,-0.514,-5.044,-2.434,-1.529,-0.350,0.012,0.981,-0.154,-0.610,-0.732,1.038,73.333,343727.000,1.000
2.563,-1.086,-6.818,-3.890,-7.696,-4.680,-4.958,-5.563,0.011,0.982,-0.156,-0.549,-0.885,1.068,73.333,343728.000,1.000
1.326,-2.503,-8.367,-6.816,-10.163,-7.412,-8.801,-11.112,0.012,0.981,-0.158,-0.519,-0.854,0.977,73.333,343729.000,1.000
0.697,-3.086,-8.620,-8.509,-11.695,-10.096,-12.458,-15.144,0.012,0.980,-0.157,-0.549,-0.946,1.007,73.333,343730.000,1.000
0.849,-2.244,-7.368,-8.438,-11.403,-11.090,-14.097,-16.223,0.012,0.979,-0.160,-0.580,-0.977,1.007,73.333,343731.000,1.000
1.819,0.228,-4.775,-6.579,-8.835,-8.932,-12.150,-13.988,0.014,0.979,-0.158,-0.671,-0.916,1.099,73.333,343732.000,1.000
3.381,3.767,-1.551,-3.562,-4.589,-3.969,-6.993,-9.313,0.015,0.979,-0.158,-0.610,-0.977,0.977,73.333,343733.000,1.000
4.914,7.048,1.239,-0.569,-0.344,1.274,-1.165,-4.090,0.013,0.978,-0.160,-0.671,-0.977,1.007,73.333,343734.000,1.000
5.714,8.711,2.428,1.241,2.163,3.952,2.314,-0.347,0.013,0.980,-0.161,-0.580,-0.916,1.007,73.333,343735.000,1.000
5.708,8.489,1.977,1.699,2.596,3.605,2.817,1.219,0.014,0.980,-0.158,-0.580,-1.038,1.038,73.333,343736.000,1.000
5.580,7.442,1.067,1.719,2.246,2.616,2.581,1.542,0.012,0.979,-0.157,-0.549,-1.068,0.977,73.333,343737.000,1.000
6.065,6.831,1.055,2.316,2.573,3.556,3.992,1.771,0.014,0.978,-0.160,-0.580,-1.038,0.885,73.333,343738.000,1.000
7.249,6.923,2.395,3.691,3.737,6.454,6.802,1.887,0.013,0.978,-0.158,-0.519,-1.129,0.946,73.333,343739.000,1.000
8.632,7.034,4.241,5.312,4.807,9.007,8.370,1.220,0.014,0.978,-0.157,-0.641,-1.038,0.946,73.333,343740.000,1.000
9.708,6.543,5.785,6.741,5.152,9.182,6.985,0.110,0.013,0.977,-0.157,-0.519,-1.068,0.854,73.333,343741.000,1.000
10.324,5.606,6.920,7.987,5.212,7.266,3.922,0.030,0.013,0.978,-0.160,-0.458,-1.038,0.854,73.333,343742.000,1.000
10.611,4.917,7.994,9.215,5.898,5.317,1.892,2.020,0.012,0.978,-0.157,-0.488,-1.068,0.732,73.333,343743.000,1.000
10.627,4.856,9.187,10.273,7.341,4.761,1.937,5.388,0.014,0.979,-0.157,-0.488,-1.160,0.763,73.333,343744.000,1.000
10.073,5.012,9.862,10.554,8.602,5.208,2.733,8.145,0.013,0.978,-0.158,-0.519,-1.160,0.793,73.333,343745.000,1.000
8.565,4.778,9.529,9.640,8.867,6.032,3.436,9.019,0.013,0.979,-0.159,-0.549,-1.129,0.824,73.333,343746.000,1.000
6.160,4.072,8.378,7.809,8.343,7.670,4.938,8.437,0.014,0.977,-0.157,-0.549,-1.160,0.824,73.333,343747.000,1.000
3.443,3.151,6.982,5.670,7.426,9.986,7.348,7.241,0.015,0.979,-0.156,-0.519,-1.221,0.702,73.333,343748.000,1.000
1.172,2.094,5.858,3.597,5.748,10.852,8.339,5.303,0.015,0.978,-0.159,-0.580,-1.160,0.732,73.333,343749.000,1.000
0.017,1.042,5.144,1.864,3.000,8.228,5.642,2.290,0.012,0.979,-0.157,-0.580,-1.129,0.641,73.333,343750.000,1.000
0.457,0.577,5.181,1.018,0.018,2.668,0.014,-0.827,0.012,0.976,-0.159,-0.580,-1.160,0.610,73.333,343751.000,1.000
2.520,1.257,6.087,1.444,-1.888,-3.340,-6.067,-2.521,0.013,0.977,-0.158,-0.580,-1.221,0.580,73.333,343752.000,1.000
5.589,2.966,7.407,2.776,-2.237,-7.441,-10.823,-2.530,0.012,0.975,-0.158,-0.641,-1.221,0.519,73.333,343753.000,1.000
8.715,5.049,8.667,4.196,-1.365,-8.344,-13.183,-1.812,0.013,0.977,-0.159,-0.641,-1.282,0.641,73.333,343754.000,1.000
11.162,6.918,9.637,5.193,0.417,-5.947,-12.378,-0.947,0.010,0.978,-0.157,-0.580,-1.221,0.549,73.333,343755.000,1.000
12.619,8.302,10.557,5.870,2.978,-1.467,-8.593,0.552,0.014,0.977,-0.160,-0.641,-1.282,0.610,73.333,343756.000,1.000
12.993,9.066,11.483,6.436,5.861,3.130,-3.509,3.105,0.012,0.979,-0.160,-0.671,-1.312,0.641,73.333,343757.000,1.000
12.377,9.271,12.253,6.930,8.448,6.830,1.398,6.364,0.013,0.979,-0.159,-0.671,-1.282,0.610,73.333,343758.000,1.000
11.119,9.267,12.896,7.359,10.462,10.166,6.262,9.607,0.013,0.979,-0.156,-0.793,-1.312,0.580,73.333,343759.000,1.000
9.432,9.083,12.903,7.333,11.418,13.190,10.800,11.438,0.013,0.978,-0.159,-0.671,-1.312,0.549,73.333,343760.000,1.000
7.123,7.971,11.322,5.974,10.148,13.935,12.811,9.910,0.013,0.978,-0.161,-0.793,-1.373,0.488,73.333,343761.000,1.000
4.110,5.234,7.614,2.936,6.140,10.432,10.585,4.661,0.014,0.979,-0.160,-0.763,-1.312,0.458,73.333,343762.000,1.000
0.951,1.324,2.599,-0.724,0.879,3.651,5.828,-1.655,0.013,0.977,-0.160,-0.732,-1.434,0.519,73.333,343763.000,1.000
-1.578,-2.437,-1.996,-3.411,-3.263,-2.972,2.138,-5.663,0.013,0.979,-0.159,-0.702,-1.495,0.580,73.333,343764.000,1.000
-3.129,-4.955,-5.123,-4.406,-5.063,-6.541,1.204,-6.303,0.011,0.980,-0.157,-0.763,-1.495,0.580,73.333,343765.000,1.000
-3.631,-5.808,-6.358,-3.832,-4.680,-6.349,2.608,-4.348,0.012,0.979,-0.156,-0.824,-1.526,0.549,73.333,343766.000,1.000
-2.926,-5.039,-5.712,-1.983,-2.631,-3.195,5.893,-0.474,0.013,0.979,-0.155,-0.916,-1.526,0.427,73.333,343767.000,1.000
-0.933,-2.985,-3.597,0.805,0.579,1.772,11.063,4.840,0.012,0.981,-0.156,-0.977,-1.526,0.427,73.333,343768.000,1.000
1.902,-0.348,-0.766,3.877,4.049,7.190,17.174,10.311,0.013,0.978,-0.159,-1.007,-1.556,0.580,73.333,343769.000,1.000
4.510,1.790,1.490,6.205,6.362,11.027,21.421,13.979,0.012,0.978,-0.161,-1.007,-1.495,0.610,73.333,343770.000,1.000
5.750,2.452,2.233,6.915,6.237,11.086,20.690,14.489,0.013,0.978,-0.158,-1.007,-1.465,0.519,73.333,343771.000,1.000
5.105,1.406,1.311,5.721,3.303,6.541,13.691,11.523,0.015,0.978,-0.154,-1.038,-1.526,0.427,73.333,343772.000,1.000
2.920,-0.710,-0.662,2.979,-1.658,-1.108,2.206,5.431,0.015,0.977,-0.156,-1.007,-1.465,0.519,73.333,343773.000,1.000
0.183,-2.728,-2.498,-0.390,-6.886,-8.534,-9.281,-2.499,0.014,0.978,-0.159,-0.977,-1.465,0.549,73.333,343774.000,1.000
-1.915,-3.444,-3.229,-3.160,-10.285,-12.310,-16.120,-9.791,0.013,0.978,-0.156,-0.977,-1.373,0.549,73.333,343775.000,1.000
-2.589,-2.282,-2.427,-4.375,-10.588,-11.059,-16.360,-13.879,0.013,0.979,-0.155,-1.068,-1.404,0.458,73.333,343776.000,1.000
-1.881,0.295,-0.610,-3.894,-8.097,-6.298,-11.729,-13.651,0.015,0.980,-0.158,-1.007,-1.404,0.458,73.333,343777.000,1.000
-0.380,3.233,1.326,-2.211,-4.163,-0.988,-5.605,-9.677,0.012,0.979,-0.158,-1.038,-1.282,0.427,73.333,343778.000,1.000
1.399,5.676,2.987,0.045,-0.173,2.711,-0.377,-3.662,0.013,0.978,-0.159,-0.977,-1.312,0.519,73.333,343779.000,1.000
3.262,7.345,4.254,2.340,3.016,4.527,3.221,2.113,0.013,0.979,-0.156,-0.885,-1.282,0.519,73.333,343780.000,1.000
5.101,8.330,5.263,4.307,5.019,5.446,5.447,5.611,0.014,0.980,-0.155,-0.977,-1.312,0.488,73.333,343781.000,1.000
6.569,8.641,5.933,5.654,5.637,6.225,6.395,5.790,0.013,0.979,-0.156,-1.038,-1.221,0.549,73.333,343782.000,1.000
7.261,8.184,6.041,6.301,4.975,6.682,5.995,3.223,0.014,0.980,-0.159,-1.007,-1.343,0.580,73.333,343783.000,1.000
7.169,7.068,5.749,6.540,3.648,6.281,4.717,-0.147,0.014,0.981,-0.158,-1.068,-1.282,0.580,73.333,343784.000,1.000
6.680,5.642,5.283,6.698,2.384,4.830,3.137,-2.587,0.013,0.978,-0.160,-0.946,-1.282,0.610,73.333,343785.000,1.000
6.171,4.218,4.988,6.849,1.467,2.484,1.304,-3.669,0.013,0.977,-0.160,-0.946,-1.312,0.458,73.333,343786.000,1.000
5.762,2.952,5.070,6.921,0.785,-0.445,-1.187,-3.838,0.012,0.977,-0.158,-0.854,-1.312,0.580,73.333,343787.000,1.000
5.407,2.036,5.580,6.958,0.309,-3.254,-4.204,-3.490,0.013,0.979,-0.155,-0.916,-1.282,0.641,73.333,343788.000,1.000
5.078,1.783,6.597,7.113,0.267,-4.779,-6.586,-2.719,0.012,0.979,-0.157,-0.732,-1.312,0.702,73.333,343789.000,1.000
4.755,2.326,7.838,7.305,0.780,-4.199,-7.215,-1.772,0.011,0.979,-0.160,-0.671,-1.251,0.702,73.333,343790.000,1.000
4.250,3.259,8.843,7.055,1.375,-2.044,-6.277,-1.490,0.011,0.979,-0.155,-0.763,-1.160,0.702,73.333,343791.000,1.000
3.260,3.826,8.966,5.750,1.194,-0.027,-5.462,-2.992,0.011,0.979,-0.157,-0.732,-1.160,0.641,73.333,343792.000,1.000
1.759,3.624,7.956,3.388,0.021,0.556,-6.167,-6.239,0.012,0.978,-0.158,-0.610,-1.221,0.641,73.333,343793.000,1.000
0.180,3.024,6.566,0.978,-1.140,0.264,-7.493,-9.261,0.012,0.980,-0.161,-0.549,-1.251,0.702,73.333,343794.000,1.000
-0.886,2.909,5.903,-0.002,-0.667,1.201,-6.498,-9.289,0.013,0.981,-0.157,-0.549,-1.221,0.641,73.333,343795.000,1.000
-1.163,3.910,6.787,1.334,2.262,4.819,-0.929,-4.867,0.012,0.981,-0.157,-0.702,-1.221,0.702,73.333,343796.000,1.000
-1.026,5.665,8.718,4.273,6.487,9.822,7.306,2.367,0.012,0.981,-0.154,-0.702,-1.221,0.763,73.333,343797.000,1.000
-1.239,7.035,10.130,6.833,9.444,12.884,12.843,8.375,0.012,0.981,-0.152,-0.763,-1.160,0.793,73.333,343798.000,1.000
-2.242,7.088,9.911,7.353,9.216,11.522,11.718,9.913,0.012,0.978,-0.157,-0.793,-1.190,0.763,73.333,343799.000,1.000
-3.728,5.752,8.028,5.677,5.975,6.013,4.552,6.864,0.014,0.979,-0.160,-0.824,-1.190,0.732,73.333,343800.000,1.000
-4.880,3.735,5.638,3.032,1.617,-0.942,-4.226,1.632,0.013,0.979,-0.158,-0.702,-1.190,0.946,73.333,343801.000,1.000
-5.057,1.941,3.981,0.915,-1.647,-6.058,-9.757,-3.015,0.013,0.979,-0.157,-0.732,-1.099,0.854,73.333,343802.000,1.000
-4.222,1.025,3.626,0.330,-2.318,-7.324,-9.361,-4.868,0.014,0.979,-0.157,-0.824,-1.099,0.885,73.333,343803.000,1.000
-2.856,1.161,4.446,1.532,-0.128,-4.951,-3.506,-2.763,0.016,0.979,-0.158,-0.793,-1.068,0.854,73.333,343804.000,1.000
-1.717,1.871,5.380,3.745,3.594,-1.171,4.181,2.052,0.016,0.980,-0.160,-0.824,-0.946,0.824,73.333,343805.000,1.000
-1.494,2.287,5.281,5.537,6.537,1.372,9.265,6.180,0.016,0.977,-0.159,-0.793,-0.977,0.793,73.333,343806.000,1.000
-2.479,1.772,3.537,5.818,7.076,1.593,9.936,6.895,0.016,0.979,-0.160,-0.763,-0.977,0.793,73.333,343807.000,1.000
-4.563,0.183,0.278,4.418,5.205,0.223,7.879,4.237,0.016,0.978,-0.158,-0.854,-0.946,0.793,73.333,343808.000,1.000
-7.399,-2.395,-3.793,1.716,1.812,-1.737,5.403,-0.049,0.015,0.979,-0.159,-0.793,-0.854,0.854,73.333,343809.000,1.000
-10.436,-5.734,-8.036,-1.832,-2.229,-4.046,2.835,-4.511,0.015,0.981,-0.158,-0.824,-0.854,0.793,73.333,343810.000,1.000
-12.944,-9.273,-11.616,-5.600,-6.127,-6.744,-0.515,-8.349,0.015,0.979,-0.157,-0.854,-0.946,0.732,73.333,343811.000,1.000
-14.393,-12.302,-13.914,-8.879,-9.221,-9.722,-5.027,-11.212,0.015,0.979,-0.156,-0.793,-0.793,0.885,73.333,343812.000,1.000
-14.783,-14.382,-14.869,-11.172,-11.238,-12.826,-10.466,-13.063,0.013,0.979,-0.157,-0.854,-0.885,0.793,73.333,343813.000,1.000
-14.542,-15.397,-14.670,-12.210,-12.103,-15.554,-15.519,-13.665,0.012,0.978,-0.156,-0.793,-0.916,0.732,73.333,343814.000,1.000
-14.199,-15.297,-13.736,-11.877,-11.508,-16.549,-17.706,-12.224,0.014,0.977,-0.158,-0.763,-0.854,0.763,73.333,343815.000,1.000
-14.054,-14.039,-12.249,-10.235,-9.070,-14.213,-14.566,-7.997,0.014,0.977,-0.159,-0.732,-0.885,0.671,73.333,343816.000,1.000
-14.146,-11.937,-10.536,-7.873,-5.228,-8.671,-6.526,-1.832,0.012,0.979,-0.158,-0.763,-0.854,0.641,73.333,343817.000,1.000
-14.410,-9.831,-9.215,-5.904,-1.675,-2.775,2.102,3.548,0.012,0.977,-0.160,-0.671,-0.793,0.702,73.333,343818.000,1.000
-14.760,-8.555,-8.678,-5.322,-0.302,0.015,6.410,5.325,0.012,0.979,-0.158,-0.671,-0.885,0.793,73.333,343819.000,1.000
-15.054,-8.203,-9.033,-6.345,-1.615,-1.035,4.974,2.507,0.013,0.978,-0.160,-0.610,-1.007,0.732,73.333,343820.000,1.000
-15.099,-8.097,-9.794,-8.186,-4.276,-3.450,0.679,-3.206,0.012,0.980,-0.160,-0.641,-0.916,0.641,73.333,343821.000,1.000
-14.805,-7.556,-10.374,-9.621,-6.242,-4.326,-2.410,-8.335,0.013,0.981,-0.157,-0.610,-0.824,0.580,73.333,343822.000,1.000
-14.268,-6.597,-10.502,-9.870,-6.380,-2.974,-2.380,-9.985,0.015,0.980,-0.156,-0.610,-0.977,0.671,73.333,343823.000,1.000
-13.666,-5.931,-10.234,-9.053,-5.197,-1.296,-0.478,-7.917,0.013,0.979,-0.159,-0.641,-0.977,0.763,73.333,343824.000,1.000
-13.168,-6.339,-10.172,-8.002,-4.171,-2.064,0.173,-4.448,0.011,0.979,-0.156,-0.641,-0.946,0.732,73.333,343825.000,1.000
-12.812,-7.907,-10.601,-7.414,-4.291,-6.347,-2.373,-2.175,0.011,0.980,-0.156,-0.610,-0.885,0.702,73.333,343826.000,1.000
-12.402,-9.854,-11.216,-7.316,-5.263,-12.426,-7.237,-2.110,0.013,0.981,-0.156,-0.732,-1.038,0.702,73.333,343827.000,1.000
-11.664,-11.093,-11.416,-7.221,-5.948,-17.133,-11.592,-3.535,0.012,0.979,-0.155,-0.702,-1.038,0.732,73.333,343828.000,1.000
-10.578,-10.930,-10.680,-6.568,-5.224,-17.944,-12.568,-4.707,0.011,0.980,-0.155,-0.641,-1.129,0.732,73.333,343829.000,1.000
-9.458,-9.391,-9.133,-5.115,-2.634,-14.327,-9.035,-3.787,0.011,0.981,-0.156,-0.671,-1.129,0.702,73.333,343830.000,1.000
-8.656,-7.156,-7.166,-3.075,1.226,-7.923,-2.170,0.024,0.011,0.982,-0.157,-0.671,-1.251,0.763,73.333,343831.000,1.000
-8.334,-5.211,-5.447,-1.195,4.792,-1.527,5.005,5.313,0.009,0.983,-0.156,-0.702,-1.190,0.793,73.333,343832.000,1.000
-8.439,-4.298,-4.680,-0.374,6.443,2.637,9.492,9.041,0.009,0.981,-0.159,-0.671,-1.343,0.793,73.333,343833.000,1.000
-8.739,-4.456,-4.946,-0.908,5.692,4.131,10.439,9.122,0.010,0.980,-0.155,-0.702,-1.312,0.763,73.333,343834.000,1.000
-8.976,-5.130,-5.874,-2.295,3.376,3.926,9.062,5.995,0.010,0.981,-0.155,-0.732,-1.343,0.763,73.333,343835.000,1.000
-9.068,-5.762,-6.725,-3.733,0.656,2.853,6.908,1.688,0.009,0.981,-0.160,-0.916,-1.282,0.824,73.333,343836.000,1.000
-9.111,-6.160,-7.013,-4.718,-1.741,0.887,4.623,-1.903,0.012,0.981,-0.158,-1.007,-1.373,0.732,73.333,343837.000,1.000
-9.181,-6.340,-6.667,-5.199,-3.514,-2.035,2.381,-3.950,0.012,0.981,-0.157,-1.038,-1.465,0.732,73.333,343838.000,1.000
-9.266,-6.384,-5.805,-5.501,-4.709,-5.293,0.220,-4.958,0.011,0.980,-0.156,-1.007,-1.495,0.610,73.333,343839.000,1.000
-9.250,-6.284,-4.836,-5.931,-5.452,-7.600,-1.929,-5.819,0.012,0.979,-0.154,-1.099,-1.495,0.671,73.333,343840.000,1.000
-8.863,-5.753,-3.790,-6.197,-5.438,-7.461,-3.204,-6.171,0.010,0.980,-0.156,-1.129,-1.648,0.732,73.333,343841.000,1.000
-7.913,-4.488,-2.583,-5.650,-4.098,-4.229,-2.020,-4.483,0.012,0.980,-0.157,-1.221,-1.587,0.763,73.333,343842.000,1.000
-6.556,-2.633,-1.446,-3.952,-1.359,0.993,2.211,0.279,0.014,0.980,-0.155,-1.251,-1.495,0.763,73.333,343843.000,1.000
-5.293,-0.891,-0.794,-1.515,1.796,5.629,7.759,7.020,0.013,0.979,-0.158,-1.190,-1.526,0.702,73.333,343844.000,1.000
-4.786,-0.245,-1.324,0.458,3.562,7.095,11.245,12.424,0.012,0.978,-0.159,-1.282,-1.556,0.732,73.333,343845.000,1.000
-5.510,-1.365,-3.258,0.741,2.560,4.615,10.580,13.326,0.012,0.976,-0.158,-1.190,-1.587,0.671,73.333,343846.000,1.000
-7.413,-4.056,-6.129,-1.016,-1.034,-0.140,6.523,9.188,0.012,0.977,-0.157,-1.038,-1.587,0.641,73.333,343847.000,1.000
-9.894,-7.306,-8.940,-4.092,-5.676,-4.440,1.517,2.352,0.013,0.978,-0.156,-1.160,-1.556,0.549,73.333,343848.000,1.000
-12.203,-10.066,-10.615,-7.299,-9.672,-6.711,-2.407,-3.726,0.013,0.975,-0.154,-1.099,-1.526,0.671,73.333,343849.000,1.000
-13.958,-12.040,-11.046,-9.874,-12.283,-7.499,-5.112,-6.910,0.013,0.973,-0.157,-1.068,-1.434,0.671,73.333,343850.000,1.000
-15.146,-13.544,-10.780,-11.666,-13.792,-8.433,-7.789,-7.435,0.014,0.974,-0.158,-0.946,-1.495,0.702,73.333,343851.000,1.000
-15.729,-14.711,-10.415,-12.666,-14.596,-10.264,-11.052,-6.716,0.016,0.973,-0.158,-0.854,-1.434,0.610,73.333,343852.000,1.000
-15.388,-15.060,-9.923,-12.504,-14.362,-11.824,-13.497,-5.293,0.014,0.975,-0.154,-0.671,-1.434,0.641,73.333,343853.000,1.000
-13.814,-14.049,-8.669,-10.805,-12.497,-11.269,-12.963,-2.732,0.014,0.974,-0.157,-0.763,-1.343,0.610,73.333,343854.000,1.000
-11.271,-11.977,-6.660,-8.121,-9.472,-8.476,-9.556,0.385,0.013,0.974,-0.159,-0.641,-1.495,0.610,73.333,343855.000,1.000
-8.585,-9.910,-4.502,-5.859,-6.898,-5.315,-5.766,1.966,0.011,0.977,-0.159,-0.671,-1.282,0.610,73.333,343856.000,1.000
-6.514,-8.666,-2.906,-5.179,-6.043,-3.519,-3.970,0.387,0.010,0.977,-0.156,-0.580,-1.343,0.519,73.333,343857.000,1.000
-5.294,-8.210,-2.184,-6.166,-6.876,-3.344,-4.715,-3.926,0.009,0.977,-0.156,-0.549,-1.343,0.488,73.333,343858.000,1.000
-4.739,-8.023,-2.152,-8.034,-8.560,-4.208,-7.078,-9.077,0.009,0.977,-0.158,-0.488,-1.373,0.427,73.333,343859.000,1.000
-4.477,-7.640,-2.670,-9.777,-10.209,-5.644,-9.863,-13.043,0.009,0.978,-0.159,-0.458,-1.282,0.397,73.333,343860.000,1.000
-4.054,-6.836,-3.317,-10.524,-11.141,-7.478,-11.977,-14.392,0.010,0.980,-0.157,-0.427,-1.404,0.305,73.333,343861.000,1.000
-3.210,-5.718,-3.754,-9.983,-11.086,-9.505,-12.925,-12.973,0.015,0.985,-0.155,-0.519,-1.434,0.275,73.333,343862.000,1.000
-2.065,-4.629,-3.962,-8.603,-10.285,-11.189,-12.946,-10.005,0.017,0.987,-0.160,-0.549,-1.404,0.336,73.333,343863.000,1.000
-0.758,-3.644,-3.725,-6.936,-8.954,-11.527,-11.912,-6.829,0.019,0.987,-0.158,-0.610,-1.373,0.397,73.333,343864.000,1.000
0.995,-2.157,-2.612,-4.953,-6.679,-9.330,-8.772,-3.596,0.016,0.985,-0.156,-0.793,-1.343,0.488,73.333,343865.000,1.000
3.628,0.511,-0.123,-2.317,-3.094,-4.568,-3.202,0.166,0.016,0.980,-0.157,-0.793,-1.282,0.580,73.333,343866.000,1.000
6.826,3.946,3.251,0.506,0.712,0.446,2.278,3.505,0.014,0.976,-0.156,-0.946,-1.099,0.732,73.333,343867.000,1.000
9.314,6.602,5.988,2.122,2.500,2.533,3.978,3.934,0.016,0.975,-0.156,-0.916,-1.099,0.763,73.333,343868.000,1.000
9.806,7.098,6.900,1.456,0.913,0.561,0.698,-0.126,0.015,0.971,-0.158,-0.916,-1.129,0.824,73.333,343869.000,1.000
8.005,5.269,5.790,-1.235,-3.226,-3.782,-5.440,-7.415,0.012,0.970,-0.159,-0.671,-1.129,0.916,73.333,343870.000,1.000
4.781,2.156,3.769,-4.398,-7.550,-7.680,-10.731,-14.282,0.012,0.973,-0.161,-0.488,-1.068,0.946,73.333,343871.000,1.000
1.594,-0.751,2.256,-6.175,-9.805,-9.098,-12.525,-17.191,0.014,0.975,-0.162,-0.366,-1.129,0.977,73.333,343872.000,1.000
-0.283,-2.365,1.990,-5.514,-9.202,-7.734,-10.740,-15.155,0.013,0.984,-0.160,-0.366,-1.160,1.007,73.333,343873.000,1.000
-0.312,-2.490,2.908,-2.695,-6.655,-4.977,-7.355,-10.092,0.015,0.986,-0.159,-0.519,-1.129,1.038,73.333,343874.000,1.000
1.209,-1.667,4.269,1.017,-3.808,-2.856,-4.653,-4.928,0.018,0.986,-0.158,-0.641,-0.977,1.007,73.333,343875.000,1.000
3.499,-0.561,5.647,4.327,-1.769,-2.488,-3.430,-1.365,0.018,0.984,-0.160,-0.824,-0.946,1.129,73.333,343876.000,1.000
5.735,0.491,6.983,6.488,-0.639,-3.320,-3.028,0.454,0.017,0.980,-0.157,-0.824,-0.977,1.160,73.333,343877.000,1.000
7.433,1.601,8.431,7.527,0.248,-3.703,-2.211,1.278,0.013,0.977,-0.159,-0.885,-0.946,1.160,73.333,343878.000,1.000
8.591,3.109,10.358,8.134,1.745,-2.275,-0.152,2.185,0.012,0.976,-0.158,-0.763,-0.824,1.068,73.333,343879.000,1.000
9.398,5.077,12.624,8.960,4.081,0.932,2.492,3.629,0.008,0.977,-0.160,-0.641,-0.793,0.977,73.333,343880.000,1.000
9.835,6.896,14.581,9.926,6.372,4.304,3.897,4.745,0.007,0.978,-0.158,-0.671,-1.007,0.763,73.333,343881.000,1.000
9.642,7.515,15.190,10.208,7.112,5.479,2.273,3.964,0.003,0.980,-0.153,-0.671,-0.977,0.488,73.333,343882.000,1.000
8.817,6.393,13.870,9.166,5.586,3.213,-2.450,0.912,0.006,0.985,-0.157,-0.671,-1.160,0.336,73.333,343883.000,1.000
7.958,4.212,11.318,7.128,2.772,-1.142,-7.909,-2.603,0.008,0.987,-0.155,-0.885,-1.221,0.061,73.333,343884.000,1.000
7.794,2.346,8.611,4.940,0.442,-4.644,-11.169,-4.196,0.010,0.989,-0.154,-1.068,-1.129,0.061,73.333,343885.000,1.000
8.544,1.794,6.563,3.233,-0.288,-5.163,-10.574,-2.917,0.013,0.989,-0.158,-1.312,-1.312,0.000,73.333,343886.000,1.000
9.920,2.834,5.361,2.334,0.749,-2.315,-6.015,0.500,0.014,0.989,-0.157,-1.434,-1.434,-0.031,73.333,343887.000,1.000
11.515,5.272,4.914,2.531,3.235,3.073,1.456,4.760,0.015,0.986,-0.157,-1.495,-1.404,0.000,73.333,343888.000,1.000
12.911,8.495,5.170,3.886,6.471,9.293,9.534,8.725,0.015,0.983,-0.157,-1.648,-1.312,-0.092,73.333,343889.000,1.000
13.578,11.395,5.522,5.764,9.232,13.788,14.780,11.256,0.015,0.980,-0.156,-1.556,-1.312,0.031,73.333,343890.000,1.000
13.173,12.897,5.345,7.156,10.313,14.365,14.757,11.497,0.016,0.978,-0.157,-1.617,-1.221,0.000,73.333,343891.000,1.000
11.981,12.790,4.531,7.531,9.583,11.160,10.172,9.644,0.013,0.976,-0.158,-1.587,-1.221,0.183,73.333,343892.000,1.000
10.728,11.775,3.573,7.125,8.085,6.807,4.429,6.879,0.012,0.975,-0.156,-1.495,-1.221,0.214,73.333,343893.000,1.000
9.866,10.700,3.166,6.497,7.078,4.399,1.115,4.509,0.012,0.975,-0.157,-1.373,-1.190,0.275,73.333,343894.000,1.000
9.318,10.074,3.524,6.166,7.381,5.493,1.825,3.630,0.011,0.974,-0.158,-1.251,-1.190,0.366,73.333,343895.000,1.000
8.853,10.050,4.732,6.513,9.142,9.473,5.812,4.894,0.010,0.975,-0.160,-1.251,-1.160,0.488,73.333,343896.000,1.000
8.268,10.349,6.445,7.320,11.575,14.124,10.448,7.545,0.010,0.975,-0.159,-1.068,-1.160,0.488,73.333,343897.000,1.000
7.356,10.349,7.837,7.729,13.252,16.896,12.917,9.614,0.007,0.975,-0.153,-1.038,-1.251,0.549,73.333,343898.000,1.000
6.099,9.655,8.367,7.091,13.190,16.465,12.387,9.752,0.008,0.975,-0.153,-0.946,-1.282,0.610,73.333,343899.000,1.000
4.909,8.610,8.025,5.698,11.728,13.762,10.399,8.465,0.010,0.975,-0.155,-0.763,-1.373,0.641,73.333,343900.000,1.000
4.403,8.022,7.489,4.648,10.145,11.175,9.200,7.547,0.008,0.975,-0.154,-0.763,-1.434,0.702,73.333,343901.000,1.000
4.780,8.279,7.225,4.811,9.380,10.413,9.446,8.241,0.010,0.975,-0.152,-0.763,-1.404,0.702,73.333,343902.000,1.000
5.525,8.844,6.955,6.026,9.223,11.173,9.844,9.983,0.010,0.976,-0.152,-0.641,-1.465,0.732,73.333,343903.000,1.000
5.674,8.517,5.972,7.126,8.483,11.524,8.398,10.558,0.010,0.976,-0.153,-0.671,-1.465,0.763,73.333,343904.000,1.000
4.405,6.323,3.421,6.702,5.994,9.672,3.921,7.647,0.011,0.974,-0.154,-0.519,-1.373,0.763,73.333,343905.000,1.000
1.685,2.541,-0.493,4.340,2.029,5.970,-1.990,1.345,0.011,0.976,-0.153,-0.366,-1.343,0.793,73.333,343906.000,1.000
-1.719,-1.327,-4.558,0.967,-1.523,2.892,-5.415,-5.182,0.012,0.974,-0.154,-0.336,-1.282,0.793,73.333,343907.000,1.000
-4.944,-3.880,-7.618,-2.168,-2.940,2.450,-3.785,-8.343,0.014,0.974,-0.154,-0.336,-1.129,0.793,73.333,343908.000,1.000
-7.602,-4.965,-9.395,-4.687,-2.460,3.828,1.193,-7.319,0.015,0.974,-0.155,-0.305,-1.129,0.946,73.333,343909.000,1.000
-9.727,-5.467,-10.769,-7.161,-1.881,4.258,5.060,-4.330,0.014,0.976,-0.154,-0.275,-1.129,0.977,73.333,343910.000,1.000
-11.393,-6.233,-12.509,-10.067,-2.589,2.096,5.142,-2.051,0.014,0.977,-0.152,-0.366,-1.129,1.007,73.333,343911.000,1.000
-12.582,-7.465,-14.753,-13.143,-4.503,-1.753,2.241,-1.657,0.014,0.978,-0.158,-0.336,-1.038,1.038,73.333,343912.000,1.000
-13.219,-8.823,-17.083,-15.529,-6.496,-5.037,-0.950,-2.578,0.015,0.978,-0.158,-0.214,-0.946,1.099,73.333,343913.000,1.000
-13.139,-9.676,-18.526,-16.184,-7.129,-5.797,-1.659,-2.900,0.016,0.979,-0.155,-0.153,-0.854,1.129,73.333,343914.000,1.000
-12.219,-9.486,-18.335,-14.556,-5.493,-3.366,1.453,-0.745,0.015,0.980,-0.156,-0.214,-0.763,1.190,73.333,343915.000,1.000
-10.660,-8.353,-16.415,-11.180,-2.141,1.146,7.291,3.641,0.016,0.982,-0.159,-0.244,-0.793,1.160,73.333,343916.000,1.000
-9.045,-7.105,-13.750,-7.642,0.934,5.256,12.427,7.397,0.016,0.980,-0.155,-0.305,-0.641,1.282,73.333,343917.000,1.000
-7.912,-6.539,-11.652,-5.452,1.816,6.620,13.292,7.590,0.016,0.980,-0.154,-0.366,-0.641,1.282,73.333,343918.000,1.000
-7.284,-6.582,-10.471,-4.861,0.276,4.750,9.051,3.999,0.015,0.981,-0.157,-0.458,-0.488,1.312,73.333,343919.000,1.000
-6.690,-6.252,-9.640,-4.850,-1.999,1.612,2.504,-0.814,0.016,0.980,-0.155,-0.549,-0.549,1.251,73.333,343920.000,1.000
-5.540,-4.397,-7.934,-3.966,-2.576,0.209,-1.636,-3.301,0.018,0.980,-0.158,-0.580,-0.366,1.282,73.333,343921.000,1.000
-3.571,-0.685,-4.644,-1.460,-0.165,1.797,-0.743,-1.355,0.018,0.980,-0.158,-0.610,-0.305,1.343,73.333,343922.000,1.000
-0.961,4.053,-0.229,2.190,4.325,4.759,3.619,4.105,0.015,0.980,-0.158,-0.610,-0.336,1.343,73.333,343923.000,1.000
1.925,8.501,4.218,5.774,8.692,6.752,8.016,9.900,0.017,0.980,-0.158,-0.763,-0.214,1.343,73.333,343924.000,1.000
4.661,11.633,7.302,8.150,11.130,7.163,10.181,12.866,0.016,0.984,-0.159,-0.671,-0.122,1.190,73.333,343925.000,1.000
6.661,12.855,8.053,8.721,10.922,6.737,9.628,11.582,0.016,0.982,-0.158,-0.793,-0.153,1.190,73.333,343926.000,1.000
7.283,11.943,6.073,7.478,8.363,6.041,6.788,6.761,0.014,0.980,-0.156,-0.793,-0.122,1.221,73.333,343927.000,1.000
6.328,9.304,1.932,5.066,4.769,5.422,3.148,0.927,0.013,0.981,-0.156,-0.885,0.000,1.068,73.333,343928.000,1.000
4.339,5.944,-2.725,2.572,1.934,5.304,0.971,-2.961,0.013,0.983,-0.154,-0.885,-0.061,1.068,73.333,343929.000,1.000
2.261,2.812,-6.515,0.726,0.809,5.490,1.187,-3.623,0.013,0.982,-0.158,-0.824,-0.153,0.977,73.333,343930.000,1.000
0.866,0.267,-8.832,-0.506,0.829,4.881,2.425,-2.130,0.012,0.983,-0.157,-0.946,-0.214,0.977,73.333,343931.000,1.000
0.352,-1.921,-10.005,-1.693,0.583,2.281,2.185,-0.707,0.010,0.981,-0.155,-0.977,-0.153,0.946,73.333,343932.000,1.000
0.431,-4.118,-10.732,-3.254,-0.894,-2.558,-0.855,-0.814,0.010,0.982,-0.157,-1.160,-0.305,0.885,73.333,343933.000,1.000
0.769,-6.229,-11.201,-4.873,-3.268,-8.300,-5.498,-2.062,0.010,0.983,-0.154,-1.190,-0.336,0.824,73.333,343934.000,1.000
1.183,-7.735,-11.372,-5.797,-5.376,-12.684,-9.378,-3.116,0.011,0.980,-0.159,-1.160,-0.244,0.671,73.333,343935.000,1.000
1.488,-8.306,-11.116,-5.648,-6.438,-14.134,-11.011,-3.283,0.010,0.978,-0.157,-1.190,-0.458,0.732,73.333,343936.000,1.000
1.448,-8.041,-10.556,-4.836,-6.512,-12.541,-10.516,-2.914,0.011,0.975,-0.157,-1.221,-0.488,0.671,73.333,343937.000,1.000
0.948,-7.132,-9.867,-4.109,-5.967,-8.767,-8.680,-2.601,0.013,0.975,-0.159,-0.977,-0.519,0.732,73.333,343938.000,1.000
-0.030,-5.684,-8.943,-3.964,-5.056,-3.999,-6.115,-2.673,0.014,0.975,-0.159,-0.854,-0.580,0.671,73.333,343939.000,1.000
-1.410,-3.740,-7.754,-4.409,-3.829,0.635,-3.344,-3.063,0.015,0.979,-0.160,-0.732,-0.580,0.702,73.333,343940.000,1.000
-2.753,-1.170,-5.941,-4.804,-2.005,4.531,-0.366,-2.889,0.016,0.983,-0.159,-0.549,-0.641,0.793,73.333,343941.000,1.000
-3.325,2.171,-3.170,-4.283,0.738,7.693,3.109,-1.104,0.016,0.983,-0.162,-0.549,-0.580,0.916,73.333,343942.000,1.000
-2.753,5.823,0.190,-2.625,3.923,9.975,6.333,1.854,0.015,0.981,-0.159,-0.671,-0.610,0.946,73.333,343943.000,1.000
-1.523,8.469,3.018,-0.635,6.026,10.461,7.005,3.711,0.015,0.979,-0.157,-0.854,-0.641,1.068,73.333,343944.000,1.000
-0.657,8.725,3.851,0.486,5.631,8.221,3.163,2.350,0.014,0.971,-0.158,-0.763,-0.671,1.221,73.333,343945.000,1.000
-0.838,6.383,2.440,0.361,2.963,3.875,-3.867,-1.790,0.012,0.967,-0.161,-0.671,-0.641,1.160,73.333,343946.000,1.000
-1.937,2.737,-0.084,-0.254,-0.015,-0.134,-9.784,-5.948,0.008,0.968,-0.160,-0.336,-0.641,1.099,73.333,343947.000,1.000
-3.255,-0.351,-2.173,-0.264,-1.107,-1.260,-10.647,-7.280,0.006,0.971,-0.160,-0.092,-0.763,1.038,73.333,343948.000,1.000
-4.037,-1.646,-2.703,0.841,0.562,1.165,-5.527,-4.692,0.006,0.975,-0.157,0.153,-0.916,0.824,73.333,343949.000,1.000
-3.750,-0.921,-1.608,2.734,4.286,5.803,3.487,0.883,0.005,0.979,-0.159,0.092,-1.129,0.671,73.333,343950.000,1.000
-2.115,1.442,0.749,4.811,8.637,10.681,13.207,7.636,0.005,0.983,-0.154,0.031,-1.251,0.641,73.333,343951.000,1.000
0.721,4.717,3.600,6.498,12.205,14.310,20.597,13.777,0.008,0.983,-0.156,-0.031,-1.373,0.458,73.333,343952.000,1.000
4.033,7.882,5.751,7.174,13.811,16.076,23.744,17.547,0.008,0.983,-0.159,-0.244,-1.495,0.366,73.333,343953.000,1.000
6.688,9.676,6.010,6.176,12.481,15.696,22.226,17.196,0.010,0.982,-0.157,-0.397,-1.678,0.366,73.333,343954.000,1.000
7.559,8.828,3.316,3.029,7.560,12.216,15.810,11.616,0.011,0.980,-0.161,-0.397,-1.770,0.336,73.333,343955.000,1.000
6.196,4.855,-2.155,-1.939,-0.527,4.749,4.698,1.714,0.013,0.980,-0.159,-0.427,-1.831,0.305,73.333,343956.000,1.000
3.316,-1.058,-8.635,-7.286,-9.518,-5.321,-8.488,-9.047,0.014,0.978,-0.160,-0.458,-1.770,0.244,73.333,343957.000,1.000
0.515,-6.369,-13.511,-11.067,-16.083,-14.225,-18.795,-16.137,0.014,0.980,-0.158,-0.488,-1.801,0.275,73.333,343958.000,1.000
-0.779,-8.815,-14.759,-12.063,-17.935,-18.453,-22.189,-16.738,0.015,0.979,-0.158,-0.458,-1.801,0.336,73.333,343959.000,1.000
-0.258,-7.893,-12.520,-10.621,-15.332,-17.079,-18.494,-11.775,0.015,0.980,-0.158,-0.427,-1.740,0.305,73.333,343960.000,1.000
1.313,-4.890,-8.464,-8.129,-10.602,-11.830,-10.777,-5.054,0.014,0.982,-0.160,-0.458,-1.831,0.549,73.333,343961.000,1.000
2.957,-1.619,-4.431,-5.748,-6.159,-5.383,-2.601,-0.106,0.016,0.982,-0.160,-0.519,-1.801,0.519,73.333,343962.000,1.000
4.263,0.849,-1.261,-3.669,-3.021,0.294,3.955,2.110,0.016,0.983,-0.156,-0.580,-1.862,0.488,73.333,343963.000,1.000
5.342,2.288,1.208,-1.653,-1.242,4.017,7.713,2.218,0.016,0.983,-0.155,-0.671,-1.831,0.580,73.333,343964.000,1.000
6.245,2.715,2.907,0.030,-0.967,4.860,7.360,0.307,0.015,0.983,-0.157,-0.824,-1.801,0.702,73.333,343965.000,1.000
6.719,2.255,3.687,0.806,-2.241,2.729,2.935,-3.776,0.015,0.984,-0.157,-0.916,-1.831,0.793,73.333,343966.000,1.000
6.460,1.393,3.630,0.606,-4.240,-0.861,-3.057,-8.934,0.014,0.981,-0.156,-0.977,-1.801,0.763,73.333,343967.000,1.000
5.494,0.986,3.333,0.243,-5.347,-3.294,-6.975,-12.700,0.013,0.981,-0.159,-0.946,-1.740,0.732,73.333,343968.000,1.000
4.223,1.714,3.831,0.899,-4.252,-2.599,-6.642,-12.891,0.013,0.979,-0.158,-1.038,-1.709,0.641,73.333,343969.000,1.000
3.022,3.374,5.464,3.046,-1.085,0.900,-3.139,-9.454,0.014,0.978,-0.157,-0.946,-1.770,0.702,73.333,343970.000,1.000
2.040,4.939,7.800,6.136,2.615,4.647,0.365,-4.400,0.013,0.978,-0.157,-1.007,-1.678,0.671,73.333,343971.000,1.000
1.276,5.359,9.864,9.037,4.975,5.781,1.113,-0.381,0.015,0.979,-0.157,-0.977,-1.678,0.641,73.333,343972.000,1.000
0.625,4.199,10.738,10.666,4.867,3.142,-1.534,0.713,0.016,0.978,-0.156,-1.068,-1.648,0.702,73.333,343973.000,1.000
-0.097,1.795,10.235,10.558,2.491,-2.178,-5.965,-1.207,0.018,0.977,-0.155,-1.099,-1.526,0.519,73.333,343974.000,1.000
-0.979,-0.937,8.627,9.050,-0.750,-7.623,-9.598,-4.380,0.016,0.976,-0.160,-1.099,-1.495,0.549,73.333,343975.000,1.000
-1.904,-3.007,6.626,6.947,-3.191,-10.598,-10.253,-6.567,0.015,0.976,-0.157,-0.946,-1.465,0.427,73.333,343976.000,1.000
-2.693,-3.975,4.754,4.915,-3.900,-9.887,-7.373,-6.540,0.015,0.975,-0.157,-0.885,-1.434,0.366,73.333,343977.000,1.000
-3.177,-4.095,3.195,3.364,-2.876,-6.256,-2.068,-4.114,0.015,0.973,-0.158,-0.885,-1.495,0.244,73.333,343978.000,1.000
-3.299,-3.985,2.136,2.543,-0.752,-1.849,3.937,0.268,0.015,0.974,-0.157,-0.824,-1.404,0.092,73.333,343979.000,1.000
-3.231,-4.143,1.462,2.393,1.608,1.311,9.153,5.559,0.015,0.973,-0.157,-0.824,-1.373,0.153,73.333,343980.000,1.000
-3.166,-4.544,1.142,2.640,3.571,2.533,12.760,10.490,0.014,0.975,-0.158,-0.702,-1.343,-0.031,73.333,343981.000,1.000
-3.048,-4.731,1.082,2.941,4.870,2.319,14.243,13.860,0.013,0.977,-0.157,-0.641,-1.373,-0.061,73.333,343982.000,1.000
-2.595,-4.278,1.107,3.022,5.477,1.553,13.523,14.758,0.013,0.977,-0.160,-0.641,-1.373,-0.153,73.333,343983.000,1.000
-1.540,-3.072,1.330,2.839,5.533,0.935,11.400,12.990,0.011,0.975,-0.162,-0.549,-1.312,-0.183,73.333,343984.000,1.000
0.134,-1.281,1.832,2.585,5.326,0.831,9.137,9.306,0.011,0.976,-0.161,-0.549,-1.404,-0.061,73.333,343985.000,1.000
2.141,0.788,2.819,2.611,5.198,1.284,7.799,5.210,0.009,0.978,-0.156,-0.549,-1.434,-0.092,73.333,343986.000,1.000
4.007,2.659,4.187,3.074,5.198,1.706,7.141,2.051,0.010,0.978,-0.155,-0.488,-1.495,-0.061,73.333,343987.000,1.000
5.388,3.836,5.454,3.815,5.025,1.046,5.860,0.398,0.010,0.979,-0.155,-0.519,-1.404,-0.061,73.333,343988.000,1.000
6.416,4.337,6.456,4.741,4.694,-0.852,3.707,0.484,0.009,0.979,-0.154,-0.519,-1.465,0.031,73.333,343989.000,1.000
7.607,4.847,7.327,5.995,4.836,-2.621,1.958,2.433,0.010,0.978,-0.159,-0.549,-1.587,0.122,73.333,343990.000,1.000
9.395,6.084,8.556,7.688,5.972,-2.739,1.796,5.701,0.009,0.979,-0.154,-0.519,-1.617,0.214,73.333,343991.000,1.000
11.825,8.239,10.461,9.651,8.028,-0.788,3.207,8.959,0.008,0.980,-0.154,-0.549,-1.495,0.305,73.333,343992.000,1.000
14.615,11.003,13.013,11.630,10.694,2.725,5.711,11.184,0.008,0.980,-0.157,-0.580,-1.617,0.366,73.333,343993.000,1.000
17.235,13.732,15.933,13.416,13.606,6.780,8.790,12.382,0.009,0.981,-0.158,-0.671,-1.617,0.488,73.333,343994.000,1.000
19.100,15.682,18.471,14.806,16.300,10.142,11.573,13.255,0.008,0.979,-0.155,-0.732,-1.709,0.580,73.333,343995.000,1.000
19.881,16.380,20.141,15.750,18.334,11.912,13.346,14.515,0.010,0.981,-0.154,-0.763,-1.709,0.519,73.333,343996.000,1.000
19.446,15.622,20.524,16.051,19.082,11.580,13.349,15.680,0.010,0.980,-0.153,-0.916,-1.770,0.671,73.333,343997.000,1.000
17.764,13.420,19.157,15.290,17.827,8.960,10.778,15.212,0.012,0.980,-0.154,-0.885,-1.740,0.732,73.333,343998.000,1.000
15.209,10.329,16.364,13.601,14.765,4.861,6.213,12.729,0.012,0.979,-0.154,-0.946,-1.709,0.763,73.333,343999.000,1.000
12.646,7.458,13.142,11.967,11.431,1.368,2.075,10.029,0.011,0.980,-0.155,-1.007,-1.648,0.885,73.333,344000.000,1.000
10.929,5.800,10.708,11.470,9.586,0.654,1.160,9.355,0.011,0.980,-0.155,-0.977,-1.709,0.946,73.333,344001.000,1.000
10.286,5.449,9.479,12.210,9.662,2.989,3.963,10.953,0.011,0.978,-0.156,-1.007,-1.587,0.916,73.333,344002.000,1.000
10.162,5.512,8.854,13.089,10.369,6.056,7.764,12.641,0.012,0.979,-0.157,-1.099,-1.648,0.977,73.333,344003.000,1.000
9.731,5.065,8.170,12.805,10.134,7.196,9.431,12.003,0.013,0.980,-0.155,-1.038,-1.587,0.977,73.333,344004.000,1.000
8.578,4.100,7.195,10.986,8.741,6.072,8.501,8.777,0.014,0.981,-0.159,-1.129,-1.648,1.007,73.333,344005.000,1.000
6.785,3.133,6.290,8.188,6.903,3.987,6.473,4.498,0.015,0.981,-0.159,-1.160,-1.465,0.977,73.333,344006.000,1.000
4.494,2.173,5.445,4.925,4.743,1.442,3.641,0.290,0.014,0.982,-0.156,-1.160,-1.434,0.946,73.333,344007.000,1.000
1.867,0.776,4.223,1.460,1.827,-2.120,-0.961,-3.489,0.013,0.981,-0.159,-1.312,-1.312,0.916,73.333,344008.000,1.000
-0.608,-1.039,2.733,-1.639,-1.552,-6.518,-6.755,-6.037,0.015,0.980,-0.157,-1.312,-1.343,0.946,73.333,344009.000,1.000
-2.213,-2.490,1.512,-3.530,-4.017,-9.988,-10.925,-6.165,0.014,0.980,-0.155,-1.343,-1.221,0.977,73.333,344010.000,1.000
-2.535,-2.740,1.236,-3.733,-4.286,-10.658,-10.813,-3.517,0.015,0.978,-0.152,-1.404,-1.129,0.916,73.333,344011.000,1.000
-1.913,-1.746,1.859,-2.657,-2.433,-8.411,-6.705,0.720,0.016,0.979,-0.154,-1.221,-1.038,0.977,73.333,344012.000,1.000
-1.235,-0.265,2.626,-1.316,0.272,-4.707,-1.331,4.627,0.015,0.978,-0.155,-1.190,-0.977,0.916,73.333,344013.000,1.000
-1.216,0.886,3.025,-0.549,2.539,-1.028,2.896,6.956,0.014,0.977,-0.157,-1.251,-0.946,0.977,73.333,344014.000,1.000
-1.893,1.317,2.855,-0.672,3.723,1.728,4.909,7.536,0.013,0.979,-0.156,-1.251,-0.854,0.916,73.333,344015.000,1.000
-2.744,1.001,2.343,-1.560,3.629,2.927,4.574,6.684,0.013,0.977,-0.157,-1.221,-0.824,0.885,73.333,344016.000,1.000
-3.227,0.087,1.692,-2.934,2.339,2.409,2.418,4.559,0.013,0.976,-0.156,-1.129,-0.824,0.824,73.333,344017.000,1.000
-3.142,-1.196,1.032,-4.486,0.245,0.781,-0.456,1.343,0.010,0.977,-0.154,-1.129,-0.702,0.793,73.333,344018.000,1.000
-2.714,-2.760,0.576,-5.956,-2.251,-1.346,-3.244,-2.540,0.013,0.976,-0.151,-1.099,-0.549,0.854,73.333,344019.000,1.000
-2.425,-4.677,0.105,-7.174,-4.873,-3.864,-5.903,-6.401,0.014,0.977,-0.153,-1.038,-0.641,0.854,73.333,344020.000,1.000
-2.555,-6.687,-0.489,-7.738,-6.919,-6.253,-7.676,-8.771,0.015,0.976,-0.158,-1.007,-0.641,0.854,73.333,344021.000,1.000
-2.970,-8.008,-1.092,-7.084,-7.273,-7.109,-6.946,-7.985,0.013,0.976,-0.155,-0.824,-0.549,0.916,73.333,344022.000,1.000
-3.398,-7.968,-1.621,-5.133,-5.551,-5.420,-3.296,-4.172,0.012,0.976,-0.157,-0.793,-0.549,0.854,73.333,344023.000,1.000
-3.866,-6.837,-2.188,-2.810,-3.028,-2.068,1.058,-0.274,0.013,0.977,-0.158,-0.763,-0.458,0.824,73.333,344024.000,1.000
-4.825,-5.810,-3.388,-1.725,-1.903,0.566,2.541,-0.141,0.013,0.979,-0.155,-0.732,-0.427,0.824,73.333,344025.000,1.000
-6.624,-5.914,-5.298,-2.828,-3.356,0.701,-0.404,-5.016,0.012,0.977,-0.158,-0.732,-0.458,0.946,73.333,344026.000,1.000
-8.942,-7.037,-7.171,-5.526,-6.428,-1.406,-5.847,-12.252,0.012,0.976,-0.156,-0.580,-0.427,0.916,73.333,344027.000,1.000
-10.818,-8.051,-7.870,-8.093,-8.769,-3.969,-9.997,-17.218,0.011,0.978,-0.156,-0.458,-0.458,0.793,73.333,344028.000,1.000
-11.223,-7.789,-6.555,-8.946,-8.557,-5.321,-10.422,-16.705,0.012,0.980,-0.155,-0.519,-0.458,0.793,73.333,344029.000,1.000
-9.774,-6.064,-3.714,-7.850,-6.068,-5.304,-8.391,-11.435,0.013,0.981,-0.156,-0.275,-0.488,0.916,73.333,344030.000,1.000
-6.920,-3.732,-0.516,-5.829,-3.285,-5.072,-7.081,-5.117,0.012,0.979,-0.156,-0.366,-0.549,0.854,73.333,344031.000,1.000
-3.563,-1.853,2.017,-4.063,-1.943,-5.506,-8.000,-1.010,0.012,0.980,-0.155,-0.305,-0.610,0.824,73.333,344032.000,1.000
-0.576,-0.967,3.479,-2.988,-2.244,-6.288,-9.906,0.313,0.012,0.980,-0.155,-0.275,-0.702,0.977,73.333,344033.000,1.000
1.405,-1.047,4.098,-2.361,-3.278,-6.472,-10.548,0.256,0.011,0.980,-0.157,-0.305,-0.610,0.977,73.333,344034.000,1.000
2.055,-1.722,4.052,-1.879,-4.072,-5.303,-8.642,0.227,0.010,0.982,-0.158,-0.305,-0.549,0.977,73.333,344035.000,1.000
1.495,-2.540,3.607,-1.513,-4.284,-2.681,-4.486,0.491,0.011,0.983,-0.157,-0.397,-0.580,0.885,73.333,344036.000,1.000
0.188,-3.314,2.786,-1.554,-4.416,0.423,-0.230,0.180,0.014,0.983,-0.155,-0.305,-0.641,0.946,73.333,344037.000,1.000
-1.295,-4.184,1.389,-2.243,-5.327,2.189,1.321,-1.539,0.014,0.983,-0.157,-0.305,-0.732,0.916,73.333,344038.000,1.000
-2.372,-5.223,-0.374,-3.317,-7.285,1.299,-0.844,-4.178,0.014,0.982,-0.153,-0.366,-0.763,1.007,73.333,344039.000,1.000
-2.552,-6.136,-2.084,-4.176,-9.573,-1.812,-5.263,-6.211,0.014,0.983,-0.153,-0.519,-0.702,1.007,73.333,344040.000,1.000
-1.654,-6.488,-3.134,-4.391,-11.093,-5.259,-9.198,-6.537,0.011,0.982,-0.155,-0.580,-0.732,1.068,73.333,344041.000,1.000
-0.014,-6.137,-3.367,-4.126,-11.257,-7.066,-10.493,-5.593,0.014,0.980,-0.155,-0.641,-0.854,1.007,73.333,344042.000,1.000
1.583,-5.395,-3.301,-3.983,-10.337,-6.429,-8.857,-4.921,0.015,0.979,-0.157,-0.641,-0.885,0.946,73.333,344043.000,1.000
2.274,-4.869,-3.497,-4.433,-9.197,-4.229,-5.973,-5.758,0.014,0.980,-0.155,-0.641,-0.946,1.007,73.333,344044.000,1.000
1.615,-5.036,-4.322,-5.336,-8.484,-2.237,-4.016,-7.792,0.013,0.980,-0.157,-0.732,-0.824,0.977,73.333,344045.000,1.000
-0.069,-5.777,-5.380,-5.836,-7.909,-1.479,-3.425,-8.932,0.013,0.980,-0.158,-0.763,-0.854,0.977,73.333,344046.000,1.000
-1.921,-6.418,-6.006,-5.092,-6.605,-1.390,-2.977,-7.116,0.012,0.980,-0.155,-0.854,-0.854,0.977,73.333,344047.000,1.000
-3.278,-6.361,-5.954,-3.218,-4.275,-0.621,-1.536,-2.656,0.012,0.978,-0.157,-0.824,-0.916,1.007,73.333,344048.000,1.000
-4.196,-5.743,-5.546,-1.466,-1.863,1.167,0.619,1.534,0.013,0.978,-0.157,-0.854,-0.946,1.068,73.333,344049.000,1.000
-5.268,-5.404,-5.785,-1.437,-0.998,2.455,1.649,2.126,0.012,0.978,-0.160,-0.824,-1.068,1.038,73.333,344050.000,1.000
-6.874,-6.083,-7.255,-3.781,-2.640,1.257,-0.132,-1.865,0.012,0.979,-0.156,-0.763,-0.977,1.038,73.333,344051.000,1.000
-8.730,-7.686,-9.665,-7.636,-6.124,-2.768,-4.527,-8.131,0.012,0.979,-0.157,-0.671,-1.068,0.916,73.333,344052.000,1.000
-10.096,-9.238,-11.997,-11.169,-9.404,-7.547,-8.964,-12.552,0.012,0.978,-0.155,-0.732,-1.068,0.885,73.333,344053.000,1.000
-10.369,-9.578,-13.025,-12.795,-10.465,-9.869,-10.062,-12.273,0.013,0.977,-0.156,-0.793,-1.129,0.854,73.333,344054.000,1.000
-9.486,-8.276,-12.500,-12.221,-8.911,-8.055,-6.986,-7.986,0.013,0.979,-0.157,-0.702,-1.129,0.763,73.333,344055.000,1.000
-7.839,-5.906,-10.965,-10.330,-6.173,-3.543,-2.456,-3.059,0.013,0.977,-0.159,-0.702,-1.221,0.671,73.333,344056.000,1.000
-5.988,-3.531,-9.358,-8.398,-4.157,0.481,-0.044,-0.691,0.014,0.976,-0.160,-0.671,-1.221,0.671,73.333,344057.000,1.000
-4.449,-2.003,-8.437,-7.309,-3.782,1.803,-0.892,-1.696,0.012,0.977,-0.156,-0.641,-1.160,0.641,73.333,344058.000,1.000
-3.550,-1.648,-8.281,-7.215,-4.686,0.392,-3.531,-4.491,0.013,0.977,-0.156,-0.641,-1.282,0.641,73.333,344059.000,1.000
-3.397,-2.299,-8.758,-7.768,-5.896,-2.143,-5.998,-6.923,0.012,0.978,-0.158,-0.580,-1.221,0.549,73.333,344060.000,1.000
-3.863,-3.496,-9.430,-8.436,-6.626,-3.993,-7.131,-7.873,0.014,0.977,-0.157,-0.580,-1.221,0.641,73.333,344061.000,1.000
-4.699,-4.870,-9.990,-8.854,-6.824,-4.827,-7.387,-7.689,0.014,0.977,-0.158,-0.549,-1.251,0.580,73.333,344062.000,1.000
-5.547,-6.203,-10.322,-8.870,-6.971,-5.737,-8.208,-7.446,0.014,0.979,-0.158,-0.488,-1.282,0.580,73.333,344063.000,1.000
-5.875,-7.053,-9.978,-8.263,-7.233,-7.236,-9.961,-7.776,0.016,0.978,-0.158,-0.549,-1.282,0.549,73.333,344064.000,1.000
-5.164,-6.759,-8.603,-6.749,-7.153,-8.388,-11.390,-8.349,0.016,0.980,-0.160,-0.580,-1.251,0.488,73.333,344065.000,1.000
-3.285,-4.975,-6.084,-4.240,-6.173,-7.908,-10.754,-8.166,0.015,0.981,-0.157,-0.458,-1.190,0.549,73.333,344066.000,1.000
-0.657,-2.013,-2.905,-1.091,-4.151,-5.185,-7.305,-6.355,0.014,0.981,-0.159,-0.488,-1.251,0.549,73.333,344067.000,1.000
2.010,1.400,0.127,2.054,-1.373,-0.457,-1.699,-2.648,0.014,0.980,-0.156,-0.580,-1.251,0.580,73.333,344068.000,1.000
4.073,4.511,2.530,4.543,1.558,5.068,4.381,2.397,0.013,0.979,-0.153,-0.641,-1.160,0.549,73.333,344069.000,1.000
5.046,6.643,3.763,5.726,3.691,9.283,8.599,7.084,0.014,0.980,-0.158,-0.641,-1.251,0.549,73.333,344070.000,1.000
4.620,7.273,3.475,5.131,4.039,10.336,9.254,9.161,0.015,0.979,-0.159,-0.641,-1.251,0.641,73.333,344071.000,1.000
2.839,6.277,1.668,2.830,2.306,7.978,6.336,7.339,0.014,0.981,-0.155,-0.671,-1.190,0.610,73.333,344072.000,1.000
0.362,4.166,-0.977,-0.287,-0.729,3.517,1.484,2.561,0.015,0.981,-0.155,-0.732,-1.190,0.641,73.333,344073.000,1.000
-1.653,1.997,-3.051,-2.764,-3.581,-1.025,-2.825,-2.447,0.014,0.980,-0.155,-0.732,-1.282,0.702,73.333,344074.000,1.000
-2.235,0.904,-3.521,-3.496,-4.915,-3.600,-4.574,-5.254,0.013,0.981,-0.157,-0.732,-1.190,0.671,73.333,344075.000,1.000
-1.277,1.461,-2.100,-2.441,-4.340,-3.101,-3.312,-5.316,0.012,0.980,-0.154,-0.793,-1.251,0.549,73.333,344076.000,1.000
0.463,3.395,0.508,-0.508,-2.482,-0.052,-0.413,-3.824,0.015,0.979,-0.157,-0.824,-1.343,0.549,73.333,344077.000,1.000
2.002,5.910,3.128,1.287,-0.247,4.164,2.545,-2.279,0.014,0.981,-0.155,-0.824,-1.221,0.641,73.333,344078.000,1.000
2.689,8.147,4.966,2.417,1.771,8.374,5.079,-1.438,0.013,0.979,-0.158,-1.007,-1.282,0.580,73.333,344079.000,1.000
2.367,9.453,5.551,2.839,3.306,11.523,6.860,-1.148,0.013,0.979,-0.157,-0.977,-1.282,0.641,73.333,344080.000,1.000
1.319,9.530,5.075,2.853,4.237,12.378,7.105,-0.667,0.013,0.979,-0.157,-1.007,-1.190,0.641,73.333,344081.000,1.000
-0.013,8.410,3.907,2.652,4.411,10.215,5.059,0.292,0.012,0.980,-0.157,-0.946,-1.190,0.580,73.333,344082.000,1.000
-1.226,6.448,2.320,2.182,3.795,5.761,1.070,1.168,0.011,0.980,-0.155,-0.916,-1.251,0.488,73.333,344083.000,1.000
-1.921,4.403,0.924,1.553,2.874,1.211,-2.792,1.558,0.011,0.980,-0.156,-0.916,-1.404,0.671,73.333,344084.000,1.000
-1.795,3.198,0.282,1.190,2.601,-0.908,-3.841,1.969,0.011,0.980,-0.156,-0.977,-1.495,0.519,73.333,344085.000,1.000
-0.902,3.293,0.723,1.512,3.614,0.529,-0.715,3.289,0.012,0.980,-0.158,-0.885,-1.465,0.519,73.333,344086.000,1.000
0.198,4.233,1.747,2.407,5.443,4.162,5.085,5.474,0.012,0.979,-0.156,-0.946,-1.495,0.519,73.333,344087.000,1.000
0.762,4.982,2.255,3.203,6.722,7.077,9.866,7.278,0.012,0.981,-0.156,-0.916,-1.434,0.427,73.333,344088.000,1.000
0.437,4.791,1.673,3.268,6.346,7.247,10.542,7.426,0.012,0.978,-0.156,-1.007,-1.404,0.488,73.333,344089.000,1.000
-0.504,3.707,0.132,2.550,4.455,5.067,6.910,5.778,0.015,0.979,-0.157,-0.916,-1.343,0.519,73.333,344090.000,1.000
-1.525,2.143,-1.653,1.461,1.957,2.121,1.204,3.130,0.013,0.979,-0.156,-0.854,-1.434,0.610,73.333,344091.000,1.000
-2.392,0.159,-3.385,0.179,-0.765,-1.088,-4.768,-0.076,0.010,0.978,-0.154,-0.916,-1.373,0.580,73.333,344092.000,1.000
-3.185,-2.381,-5.280,-1.403,-3.968,-5.118,-10.484,-3.916,0.012,0.979,-0.155,-0.916,-1.373,0.549,73.333,344093.000,1.000
-3.971,-5.211,-7.260,-3.156,-7.594,-9.935,-15.228,-8.091,0.011,0.979,-0.155,-0.854,-1.282,0.610,73.333,344094.000,1.000
-4.661,-7.623,-9.059,-4.626,-10.843,-14.323,-17.899,-11.713,0.012,0.978,-0.157,-0.793,-1.312,0.610,73.333,344095.000,1.000
-4.915,-8.716,-9.923,-5.079,-12.443,-16.459,-17.578,-13.466,0.012,0.980,-0.156,-0.763,-1.373,0.580,73.333,344096.000,1.000
-4.234,-7.692,-9.023,-3.763,-11.136,-14.654,-13.764,-11.863,0.013,0.979,-0.156,-0.885,-1.404,0.671,73.333,344097.000,1.000
-2.386,-4.382,-6.112,-0.452,-6.510,-8.434,-6.723,-6.223,0.012,0.978,-0.156,-0.793,-1.343,0.671,73.333,344098.000,1.000
0.167,0.214,-1.826,4.005,0.096,0.210,1.464,1.878,0.011,0.980,-0.155,-0.793,-1.251,0.702,73.333,344099.000,1.000
2.330,4.174,2.138,7.764,5.881,7.470,7.228,8.728,0.012,0.981,-0.157,-0.732,-1.282,0.763,73.333,344100.000,1.000
3.143,5.975,4.480,9.275,8.604,10.679,8.706,11.288,0.013,0.980,-0.155,-0.732,-1.404,0.732,73.333,344101.000,1.000
2.590,5.627,5.202,8.591,8.299,10.226,7.173,9.734,0.011,0.979,-0.156,-0.763,-1.404,0.824,73.333,344102.000,1.000
1.537,4.370,5.368,7.258,6.796,8.252,4.945,7.006,0.014,0.978,-0.155,-0.763,-1.312,0.732,73.333,344103.000,1.000
0.772,3.302,6.065,6.742,5.763,6.324,3.214,5.897,0.015,0.977,-0.154,-0.854,-1.312,0.702,73.333,344104.000,1.000
0.288,2.555,7.124,7.104,5.469,4.761,1.984,6.697,0.014,0.977,-0.155,-0.702,-1.190,0.702,73.333,344105.000,1.000
-0.365,1.746,7.858,7.443,5.195,3.362,1.003,7.693,0.014,0.979,-0.155,-0.671,-1.190,0.671,73.333,344106.000,1.000
-1.498,0.566,7.598,6.881,4.078,1.781,-0.474,6.962,0.014,0.978,-0.152,-0.793,-1.160,0.702,73.333,344107.000,1.000
-3.087,-1.123,5.927,5.123,1.736,-0.401,-3.252,3.853,0.012,0.980,-0.154,-0.702,-1.251,0.732,73.333,344108.000,1.000
-4.601,-3.045,3.288,2.786,-1.154,-2.864,-6.472,-0.312,0.012,0.979,-0.157,-0.702,-1.190,0.641,73.333,344109.000,1.000
-5.095,-4.374,0.688,1.064,-3.084,-4.146,-7.961,-3.256,0.014,0.980,-0.155,-0.671,-1.129,0.580,73.333,344110.000,1.000
-3.984,-4.334,-0.762,0.846,-2.927,-2.842,-6.297,-3.521,0.014,0.978,-0.156,-0.549,-1.068,0.702,73.333,344111.000,1.000
-1.794,-2.970,-0.821,1.999,-0.808,0.946,-1.920,-1.249,0.014,0.979,-0.156,-0.641,-1.007,0.580,73.333,344112.000,1.000
0.021,-1.250,-0.347,3.367,1.877,5.156,3.102,1.930,0.013,0.979,-0.158,-0.671,-0.977,0.641,73.333,344113.000,1.000
0.054,-0.502,-0.648,3.378,2.967,6.523,5.359,3.338,0.011,0.979,-0.158,-0.671,-0.885,0.580,73.333,344114.000,1.000
-2.102,-1.523,-2.831,1.115,0.944,2.940,1.976,1.095,0.013,0.980,-0.160,-0.671,-0.946,0.610,73.333,344115.000,1.000
-5.462,-3.800,-6.384,-2.594,-3.403,-4.018,-5.552,-3.504,0.014,0.981,-0.157,-0.549,-0.977,0.610,73.333,344116.000,1.000
-8.153,-5.697,-9.388,-5.560,-7.212,-9.736,-11.559,-6.700,0.014,0.980,-0.159,-0.610,-0.946,0.610,73.333,344117.000,1.000
-8.657,-5.754,-10.108,-6.047,-8.027,-10.541,-11.537,-5.850,0.013,0.980,-0.159,-0.610,-0.916,0.641,73.333,344118.000,1.000
-6.860,-3.913,-8.277,-4.195,-5.925,-6.801,-6.317,-1.857,0.014,0.980,-0.159,-0.519,-0.916,0.671,73.333,344119.000,1.000
-3.819,-1.211,-5.193,-1.532,-2.874,-1.807,-0.514,2.222,0.014,0.982,-0.154,-0.610,-0.946,0.671,73.333,344120.000,1.000
-0.558,1.551,-1.908,0.777,-0.407,1.737,2.619,4.493,0.014,0.983,-0.154,-0.732,-0.885,0.763,73.333,344121.000,1.000
2.507,4.338,1.304,2.609,1.440,3.661,3.490,5.269,0.014,0.981,-0.155,-0.702,-0.854,0.732,73.333,344122.000,1.000
5.276,7.357,4.390,4.338,3.442,5.503,4.580,5.962,0.015,0.981,-0.157,-0.671,-0.824,0.763,73.333,344123.000,1.000
7.519,10.410,7.145,6.153,6.071,8.367,7.628,7.794,0.013,0.981,-0.155,-0.824,-0.732,0.763,73.333,344124.000,1.000
8.748,12.725,8.759,7.697,8.841,11.618,11.751,10.643,0.014,0.981,-0.156,-0.793,-0.793,0.702,73.333,344125.000,1.000
8.580,13.426,8.684,8.347,10.578,13.473,14.308,12.881,0.013,0.979,-0.154,-0.793,-0.732,0.671,73.333,344126.000,1.000
7.075,12.100,6.922,7.555,10.106,12.336,12.636,12.135,0.012,0.977,-0.157,-0.854,-0.702,0.702,73.333,344127.000,1.000
4.693,9.059,3.974,5.162,6.941,7.884,5.903,6.938,0.012,0.978,-0.156,-0.854,-0.793,0.763,73.333,344128.000,1.000
2.211,5.383,1.003,1.868,2.007,1.535,-3.467,-1.229,0.013,0.978,-0.160,-0.824,-0.824,0.671,73.333,344129.000,1.000
0.503,2.425,-0.918,-0.902,-2.620,-4.600,-11.401,-8.266,0.013,0.979,-0.156,-0.763,-0.793,0.610,73.333,344130.000,1.000
0.112,1.094,-1.130,-1.829,-5.054,-8.987,-14.975,-10.449,0.014,0.978,-0.157,-0.763,-0.793,0.671,73.333,344131.000,1.000
0.905,1.526,0.157,-0.613,-4.618,-10.575,-13.636,-7.158,0.014,0.978,-0.158,-0.702,-0.793,0.702,73.333,344132.000,1.000
2.142,3.066,1.999,1.847,-2.051,-8.946,-9.020,-1.073,0.014,0.978,-0.160,-0.671,-0.824,0.671,73.333,344133.000,1.000
2.965,4.568,3.521,4.155,1.054,-5.043,-3.887,3.985,0.010,0.976,-0.156,-0.641,-0.763,0.671,73.333,344134.000,1.000
2.888,5.097,4.119,5.387,3.452,-0.630,-0.135,5.908,0.012,0.978,-0.157,-0.549,-0.732,0.671,73.333,344135.000,1.000
1.890,4.357,3.819,5.466,4.833,2.782,2.341,5.383,0.010,0.978,-0.156,-0.519,-0.763,0.641,73.333,344136.000,1.000
0.213,2.534,2.749,4.572,5.186,4.208,3.996,3.924,0.010,0.979,-0.156,-0.519,-0.854,0.671,73.333,344137.000,1.000
-1.684,0.189,1.000,2.889,4.462,3.517,4.627,2.179,0.009,0.977,-0.159,-0.488,-0.824,0.702,73.333,344138.000,1.000
-3.184,-1.812,-0.909,0.938,3.064,1.798,4.502,0.551,0.010,0.977,-0.156,-0.427,-0.854,0.671,73.333,344139.000,1.000
-3.944,-2.898,-2.584,-0.714,1.654,0.390,4.218,-0.526,0.010,0.976,-0.159,-0.305,-0.946,0.702,73.333,344140.000,1.000
-4.237,-3.402,-3.956,-2.115,0.247,-0.704,3.553,-1.384,0.007,0.975,-0.159,-0.275,-1.068,0.641,73.333,344141.000,1.000
-4.711,-4.281,-5.426,-3.832,-1.749,-2.703,1.608,-2.931,0.008,0.973,-0.160,-0.153,-1.068,0.641,73.333,344142.000,1.000
-5.636,-6.025,-7.158,-5.941,-4.291,-5.987,-1.406,-4.950,0.008,0.971,-0.158,-0.061,-1.160,0.610,73.333,344143.000,1.000
-6.513,-8.028,-8.399,-7.507,-6.177,-8.970,-3.525,-5.671,0.010,0.971,-0.156,0.214,-1.221,0.580,73.333,344144.000,1.000
-6.517,-9.265,-8.480,-7.626,-6.437,-9.886,-3.491,-4.366,0.011,0.972,-0.155,0.458,-1.282,0.549,73.333,344145.000,1.000
-5.159,-9.321,-7.307,-6.433,-5.714,-9.166,-2.781,-3.101,0.012,0.973,-0.157,0.519,-1.312,0.488,73.333,344146.000,1.000
-2.461,-8.401,-5.318,-4.668,-5.304,-8.714,-3.951,-4.257,0.011,0.973,-0.156,0.641,-1.404,0.427,73.333,344147.000,1.000
1.401,-6.457,-2.624,-2.402,-5.059,-8.934,-6.765,-6.938,0.012,0.974,-0.153,0.763,-1.404,0.458,73.333,344148.000,1.000
6.277,-2.931,1.461,1.133,-3.245,-7.926,-7.666,-7.411,0.012,0.973,-0.156,0.854,-1.465,0.580,73.333,344149.000,1.000
11.715,2.352,7.136,6.252,1.413,-3.874,-3.763,-3.130,0.013,0.973,-0.156,0.946,-1.434,0.458,73.333,344150.000,1.000
16.780,8.538,13.705,12.064,8.283,3.110,4.674,4.874,0.011,0.972,-0.157,1.129,-1.434,0.427,73.333,344151.000,1.000
20.384,14.146,19.726,17.026,15.404,11.517,15.120,13.139,0.012,0.973,-0.161,1.221,-1.465,0.336,73.333,344152.000,1.000
21.709,17.727,23.637,19.840,20.677,19.193,24.404,18.271,0.011,0.973,-0.158,1.312,-1.404,0.366,73.333,344153.000,1.000
20.407,18.260,24.541,19.941,22.635,23.591,29.678,18.739,0.012,0.975,-0.157,1.404,-1.404,0.275,73.333,344154.000,1.000
16.621,15.370,22.043,17.499,20.766,22.474,28.803,15.284,0.012,0.974,-0.156,1.495,-1.373,0.244,73.333,344155.000,1.000
10.882,9.455,16.474,13.174,15.455,15.145,21.065,9.973,0.011,0.974,-0.156,1.587,-1.373,0.153,73.333,344156.000,1.000
4.084,1.782,8.795,7.783,7.874,3.415,8.001,4.590,0.013,0.974,-0.154,1.648,-1.343,0.366,73.333,344157.000,1.000
-2.492,-5.661,0.664,2.244,-0.163,-8.804,-6.389,-0.177,0.012,0.973,-0.154,1.587,-1.312,0.244,73.333,344158.000,1.000
-7.372,-10.741,-5.668,-2.325,-6.501,-17.089,-16.723,-4.026,0.013,0.973,-0.155,1.740,-1.282,0.244,73.333,344159.000,1.000
-9.409,-12.006,-8.590,-4.817,-9.261,-18.305,-18.825,-6.132,0.014,0.972,-0.157,1.923,-1.190,0.183,73.333,344160.000,1.000
-8.400,-9.443,-7.716,-4.757,-7.872,-12.277,-12.291,-5.660,0.013,0.971,-0.159,1.923,-1.160,0.214,73.333,344161.000,1.000
-5.294,-4.592,-4.219,-2.796,-3.606,-2.136,-1.030,-3.015,0.014,0.970,-0.162,2.197,-1.160,0.153,73.333,344162.000,1.000
-1.695,0.231,-0.188,-0.396,1.094,7.169,9.053,0.011,0.015,0.970,-0.161,2.258,-1.160,0.122,73.333,344163.000,1.000
0.911,3.008,2.556,0.907,3.767,11.196,13.074,0.940,0.015,0.973,-0.161,2.686,-1.068,0.031,73.333,344164.000,1.000
1.867,3.049,3.051,0.387,3.345,8.654,9.706,-1.703,0.015,0.976,-0.160,2.747,-0.977,-0.031,73.333,344165.000,1.000
1.703,1.457,2.095,-1.053,1.181,2.598,2.665,-6.242,0.015,0.976,-0.163,2.838,-0.885,-0.061,73.333,344166.000,1.000
1.520,0.144,1.359,-1.586,-0.054,-2.031,-2.121,-8.849,0.011,0.976,-0.162,2.899,-0.946,-0.183,73.333,344167.000,1.000
1.959,0.178,1.806,-0.185,1.117,-2.577,-1.600,-7.222,0.011,0.975,-0.158,2.869,-0.824,-0.214,73.333,344168.000,1.000
2.753,1.060,3.192,2.543,3.775,-0.369,2.499,-2.502,0.011,0.973,-0.158,2.808,-0.824,-0.214,73.333,344169.000,1.000
3.161,1.520,4.281,5.016,5.835,1.433,6.198,2.285,0.010,0.973,-0.160,2.838,-0.763,-0.275,73.333,344170.000,1.000
2.909,1.038,4.477,6.283,6.405,1.437,7.799,5.508,0.012,0.974,-0.166,3.052,-0.763,-0.336,73.333,344171.000,1.000
2.562,0.396,4.303,6.701,6.583,1.154,9.173,8.036,0.011,0.976,-0.166,3.235,-0.824,-0.244,73.333,344172.000,1.000
2.823,0.678,4.565,6.982,7.785,3.060,12.858,10.827,0.012,0.981,-0.166,3.418,-0.854,-0.214,73.333,344173.000,1.000
3.764,2.142,5.613,7.147,9.990,8.255,18.966,12.871,0.011,0.983,-0.167,3.601,-1.007,-0.061,73.333,344174.000,1.000
4.797,3.966,6.806,6.564,11.734,14.877,24.361,12.234,0.011,0.980,-0.163,3.479,-1.038,0.214,73.333,344175.000,1.000
5.144,4.785,7.321,4.712,11.231,18.303,24.786,8.186,0.009,0.975,-0.160,3.571,-1.038,0.427,73.333,344176.000,1.000
4.452,3.811,6.770,1.777,7.887,14.832,18.548,2.035,0.006,0.968,-0.162,3.540,-1.099,0.519,73.333,344177.000,1.000
3.272,1.760,5.697,-1.114,3.226,5.728,8.565,-3.368,0.006,0.962,-0.161,3.723,-1.190,0.458,73.333,344178.000,1.000
2.668,0.318,5.370,-2.579,-0.135,-3.489,0.199,-5.577,0.005,0.961,-0.169,4.028,-1.282,0.549,73.333,344179.000,1.000
3.160,0.643,6.314,-2.167,-0.559,-7.582,-2.841,-4.474,0.004,0.958,-0.170,4.333,-1.526,0.458,73.333,344180.000,1.000
4.329,2.643,8.207,-0.462,1.784,-4.992,-0.052,-1.623,0.004,0.962,-0.170,4.761,-1.709,0.549,73.333,344181.000,1.000
5.355,5.365,10.202,1.633,5.562,2.174,6.517,1.678,0.004,0.968,-0.169,5.219,-1.801,0.549,73.333,344182.000,1.000
5.600,7.632,11.396,3.414,9.143,9.960,13.633,5.053,0.006,0.973,-0.169,5.432,-2.075,0.610,73.333,344183.000,1.000
4.797,8.492,11.340,4.458,11.092,14.472,18.216,8.218,0.010,0.974,-0.170,5.554,-2.075,0.671,73.333,344184.000,1.000
3.094,7.676,9.893,4.559,10.678,13.948,18.519,10.241,0.012,0.973,-0.170,5.646,-2.136,0.763,73.333,344185.000,1.000
1.076,5.827,7.699,3.866,8.310,9.891,15.226,10.188,0.014,0.970,-0.170,5.646,-2.136,0.854,73.333,344186.000,1.000
-0.577,3.918,5.583,2.714,5.151,5.325,10.494,7.932,0.013,0.965,-0.167,5.737,-2.289,0.916,73.333,344187.000,1.000
-1.651,2.373,3.671,1.172,2.077,2.050,5.930,3.962,0.011,0.960,-0.167,6.012,-2.258,1.068,73.333,344188.000,1.000
-2.626,0.819,1.468,-1.122,-0.832,-0.069,1.897,-1.158,0.006,0.957,-0.170,6.439,-2.167,1.099,73.333,344189.000,1.000
-4.097,-1.201,-1.533,-4.367,-3.618,-1.742,-1.653,-6.482,0.003,0.955,-0.170,6.866,-2.197,0.671,73.333,344190.000,1.000
-5.757,-3.212,-4.419,-7.602,-5.409,-2.660,-3.654,-9.883,0.003,0.960,-0.171,7.416,-2.441,0.397,73.333,344191.000,1.000
-6.526,-4.067,-5.497,-9.068,-4.863,-1.776,-2.619,-9.088,0.004,0.968,-0.171,7.874,-2.594,0.061,73.333,344192.000,1.000
-5.987,-3.542,-4.292,-8.060,-2.129,0.422,0.846,-4.320,0.003,0.973,-0.167,7.965,-2.716,-0.092,73.333,344193.000,1.000
-5.194,-2.987,-2.171,-5.883,0.517,1.295,3.799,1.308,0.006,0.977,-0.167,8.148,-2.777,-0.183,73.333,344194.000,1.000
-5.316,-3.456,-0.913,-4.165,1.342,-0.336,4.763,5.535,0.008,0.974,-0.168,8.240,-3.113,-0.366,73.333,344195.000,1.000
-5.919,-3.824,-0.248,-2.672,1.625,-1.242,6.849,9.793,0.008,0.978,-0.168,8.392,-3.174,-0.397,73.333,344196.000,1.000
-5.847,-2.391,0.980,-0.520,3.471,2.490,13.351,15.757,0.009,0.979,-0.168,8.362,-3.174,-0.366,73.333,344197.000,1.000
-5.225,0.280,2.294,1.377,6.031,9.574,21.397,20.911,0.009,0.980,-0.167,8.331,-3.235,-0.427,73.333,344198.000,1.000
-5.009,2.031,2.348,1.260,6.484,14.546,24.386,21.058,0.009,0.982,-0.168,8.453,-3.296,-0.427,73.333,344199.000,1.000
-5.080,2.168,1.091,-0.685,4.205,14.329,20.080,15.958,0.010,0.982,-0.168,8.362,-3.265,-0.488,73.333,344200.000,1.000
-4.447,1.921,0.181,-2.427,1.394,10.833,12.755,9.425,0.011,0.979,-0.169,8.270,-3.326,-0.488,73.333,344201.000,1.000
-3.039,2.189,0.596,-2.789,-0.117,7.092,7.260,4.551,0.014,0.975,-0.165,8.331,-3.326,-0.641,73.333,344202.000,1.000
-1.804,2.608,1.743,-2.302,-0.473,3.801,4.582,1.566,0.015,0.971,-0.168,8.392,-3.265,-0.671,73.333,344203.000,1.000
-1.381,2.578,2.806,-1.752,-0.528,0.142,3.164,-0.238,0.014,0.969,-0.169,8.362,-3.235,-0.549,73.333,344204.000,1.000
-1.782,1.862,3.059,-1.440,-0.764,-4.110,1.337,-1.127,0.012,0.968,-0.171,8.453,-3.235,-0.458,73.333,344205.000,1.000
-2.869,0.437,2.098,-1.471,-1.403,-8.162,-1.601,-1.329,0.012,0.963,-0.174,8.698,-3.235,-0.458,73.333,344206.000,1.000
-4.200,-1.264,0.101,-1.677,-2.224,-10.737,-5.058,-0.885,0.011,0.965,-0.174,9.033,-3.235,-0.458,73.333,344207.000,1.000
-4.415,-1.759,-1.504,-0.923,-1.799,-10.041,-6.532,1.557,0.011,0.966,-0.173,9.277,-3.174,-0.366,73.333,344208.000,1.000
-1.922,0.800,-0.476,2.402,1.963,-4.300,-2.392,8.259,0.009,0.964,-0.173,9.460,-3.235,-0.397,73.333,344209.000,1.000
3.039,6.326,3.486,8.058,9.138,5.797,8.135,18.885,0.009,0.964,-0.173,9.583,-3.265,-0.427,73.333,344210.000,1.000
7.774,11.747,7.867,12.847,15.953,15.349,19.723,27.967,0.009,0.964,-0.175,9.735,-3.235,-0.336,73.333,344211.000,1.000
9.459,13.478,9.411,13.123,17.436,18.316,23.957,28.406,0.011,0.964,-0.177,9.766,-3.174,-0.305,73.333,344212.000,1.000
7.902,10.999,7.416,8.618,12.450,13.394,17.444,18.689,0.012,0.965,-0.177,9.918,-3.265,-0.275,73.333,344213.000,1.000
5.309,7.000,4.221,2.621,4.661,5.205,5.110,4.477,0.012,0.965,-0.181,10.132,-3.235,-0.336,73.333,344214.000,1.000
3.644,4.208,1.964,-1.630,-1.543,-0.782,-5.558,-7.244,0.014,0.968,-0.179,10.254,-3.265,-0.305,73.333,344215.000,1.000
3.202,3.346,1.144,-3.143,-4.250,-2.501,-10.305,-12.773,0.011,0.970,-0.179,10.376,-3.265,-0.458,73.333,344216.000,1.000
3.541,4.093,1.443,-2.219,-3.253,-0.085,-7.927,-11.189,0.011,0.973,-0.181,10.345,-3.326,-0.580,73.333,344217.000,1.000
4.364,6.166,2.630,0.619,1.160,6.390,1.648,-3.307,0.012,0.974,-0.179,10.315,-3.296,-0.641,73.333,344218.000,1.000
5.141,8.672,4.214,4.194,7.283,15.249,15.627,7.393,0.014,0.974,-0.180,10.315,-3.174,-0.610,73.333,344219.000,1.000
4.817,9.537,4.531,6.284,11.270,21.010,26.021,14.633,0.015,0.971,-0.181,9.979,-2.991,-0.641,73.333,344220.000,1.000
2.341,6.510,1.748,4.575,8.898,17.087,23.555,12.252,0.015,0.966,-0.186,10.040,-2.930,-0.641,73.333,344221.000,1.000
-2.339,-0.761,-4.578,-1.450,-0.761,2.037,6.033,-0.701,0.014,0.962,-0.188,10.040,-2.808,-0.671,73.333,344222.000,1.000
-7.665,-9.499,-12.390,-9.295,-13.390,-17.486,-17.792,-17.626,0.013,0.962,-0.190,10.223,-2.716,-0.549,73.333,344223.000,1.000
-11.369,-15.341,-18.086,-14.985,-22.228,-31.025,-34.309,-28.987,0.017,0.964,-0.190,10.468,-2.533,-0.458,73.333,344224.000,1.000
-12.079,-15.402,-19.357,-15.993,-22.993,-31.906,-35.425,-29.448,0.015,0.967,-0.191,10.712,-2.411,-0.427,73.333,344225.000,1.000
-10.219,-10.268,-16.453,-12.829,-16.747,-21.836,-23.707,-21.084,0.014,0.970,-0.193,10.712,-2.258,-0.244,73.333,344226.000,1.000
-7.867,-3.700,-12.161,-8.695,-8.975,-9.339,-9.698,-11.426,0.013,0.973,-0.191,10.834,-2.136,-0.092,73.333,344227.000,1.000
-7.042,0.370,-9.472,-6.759,-5.001,-2.636,-3.184,-7.123,0.011,0.977,-0.187,10.773,-2.228,0.000,73.333,344228.000,1.000
-7.777,0.992,-8.742,-7.348,-5.727,-3.174,-5.690,-8.757,0.010,0.979,-0.188,10.681,-2.197,0.000,73.333,344229.000,1.000
-8.378,0.154,-8.296,-8.308,-7.933,-5.849,-10.939,-11.937,0.009,0.979,-0.189,10.437,-2.167,0.061,73.333,344230.000,1.000
-7.318,0.141,-6.425,-7.459,-8.001,-5.090,-11.481,-12.038,0.010,0.982,-0.190,10.376,-2.197,0.061,73.333,344231.000,1.000
-4.750,1.044,-3.463,-4.864,-5.659,-1.144,-6.748,-8.758,0.009,0.980,-0.192,10.010,-2.258,0.183,73.333,344232.000,1.000
-2.169,0.950,-1.484,-2.690,-4.080,0.340,-3.884,-6.304,0.009,0.976,-0.193,9.766,-2.350,0.183,73.333,344233.000,1.000
-0.718,-1.473,-1.743,-2.666,-5.915,-4.762,-9.088,-8.102,0.009,0.971,-0.192,9.491,-2.350,0.305,73.333,344234.000,1.000
-0.365,-5.573,-3.888,-4.594,-10.623,-14.870,-21.182,-13.379,0.008,0.966,-0.196,9.369,-2.289,0.153,73.333,344235.000,1.000
-0.290,-9.519,-6.376,-6.944,-15.541,-24.881,-33.543,-18.866,0.010,0.964,-0.196,9.338,-2.167,-0.031,73.333,344236.000,1.000
0.458,-11.605,-7.671,-8.081,-18.060,-30.217,-39.709,-21.516,0.010,0.960,-0.200,9.399,-2.136,-0.031,73.333,344237.000,1.000
2.209,-11.314,-7.291,-7.411,-17.322,-29.756,-37.725,-20.213,0.009,0.960,-0.201,9.552,-2.106,-0.122,73.333,344238.000,1.000
4.384,-9.537,-5.838,-5.635,-14.464,-25.843,-30.549,-16.056,0.008,0.958,-0.204,9.766,-2.167,-0.153,73.333,344239.000,1.000
6.145,-7.557,-4.390,-3.800,-11.058,-21.195,-22.428,-10.902,0.008,0.960,-0.206,10.010,-2.228,-0.183,73.333,344240.000,1.000
7.146,-6.050,-3.230,-2.402,-7.938,-16.752,-15.583,-6.281,0.003,0.961,-0.203,10.193,-2.319,-0.244,73.333,344241.000,1.000
7.265,-5.348,-2.463,-1.904,-5.859,-12.879,-11.269,-4.191,0.003,0.963,-0.204,10.223,-2.411,-0.397,73.333,344242.000,1.000
5.968,-6.036,-2.943,-3.250,-6.032,-10.766,-11.163,-6.867,0.001,0.967,-0.206,10.315,-2.533,-0.427,73.333,344243.000,1.000
3.149,-8.041,-5.037,-6.536,-8.501,-10.799,-15.064,-13.879,0.000,0.967,-0.201,10.437,-2.533,-0.610,73.333,344244.000,1.000
0.250,-9.653,-7.591,-9.895,-10.960,-11.031,-19.452,-21.001,0.000,0.970,-0.201,10.437,-2.655,-0.854,73.333,344245.000,1.000
-1.115,-9.264,-8.968,-11.299,-11.142,-9.735,-20.845,-23.836,-0.001,0.970,-0.202,10.559,-2.869,-1.160,73.333,344246.000,1.000
-1.091,-7.357,-9.159,-10.668,-9.234,-7.842,-19.130,-21.285,0.003,0.972,-0.202,10.468,-2.960,-1.343,73.333,344247.000,1.000
-0.667,-5.295,-9.014,-8.869,-6.479,-6.788,-15.526,-14.641,0.005,0.971,-0.202,10.315,-2.930,-1.282,73.333,344248.000,1.000
-0.107,-3.690,-8.660,-6.382,-3.691,-6.634,-10.935,-6.527,0.007,0.974,-0.202,10.254,-2.960,-1.282,73.333,344249.000,1.000
0.787,-2.754,-8.263,-3.883,-1.956,-7.488,-7.897,-1.070,0.008,0.975,-0.203,10.071,-2.991,-1.312,73.333,344250.000,1.000
2.297,-2.322,-7.665,-1.838,-1.946,-9.381,-8.832,-0.773,0.011,0.980,-0.206,10.071,-3.021,-1.129,73.333,344251.000,1.000
4.702,-1.523,-6.206,0.220,-2.564,-10.662,-12.294,-3.728,0.010,0.987,-0.206,9.827,-2.960,-0.946,73.333,344252.000,1.000
7.406,-0.047,-3.986,2.402,-2.550,-9.747,-14.765,-6.707,0.010,0.989,-0.206,9.521,-3.052,-0.854,73.333,344253.000,1.000
8.994,1.115,-2.072,3.695,-2.235,-7.575,-14.926,-8.639,0.010,0.990,-0.206,8.942,-3.082,-0.519,73.333,344254.000,1.000
8.690,1.041,-1.376,3.346,-2.348,-6.202,-13.765,-9.375,0.010,0.984,-0.203,8.331,-3.082,-0.336,73.333,344255.000,1.000
6.984,-0.085,-1.556,1.805,-2.696,-6.327,-11.961,-8.154,0.010,0.977,-0.203,7.782,-3.052,-0.214,73.333,344256.000,1.000
5.186,-1.275,-1.714,0.116,-2.587,-7.030,-9.455,-4.990,0.009,0.972,-0.205,7.355,-2.808,-0.153,73.333,344257.000,1.000
4.585,-1.721,-1.253,-0.959,-1.900,-7.504,-6.986,-1.724,0.005,0.965,-0.208,7.111,-2.838,-0.092,73.333,344258.000,1.000
4.822,-2.273,-0.795,-2.052,-2.090,-9.030,-7.248,-1.292,0.001,0.962,-0.213,7.080,-2.777,-0.092,73.333,344259.000,1.000
3.810,-4.935,-2.280,-4.916,-5.218,-13.631,-13.009,-5.781,-0.002,0.961,-0.214,7.080,-2.899,-0.214,73.333,344260.000,1.000
0.835,-9.572,-5.711,-9.457,-10.615,-19.911,-22.418,-13.410,-0.006,0.958,-0.220,6.927,-3.174,-0.305,73.333,344261.000,1.000
-1.546,-12.652,-7.923,-12.405,-14.040,-22.664,-28.933,-18.359,-0.006,0.959,-0.219,7.050,-3.418,-0.427,73.333,344262.000,1.000
-0.170,-10.769,-5.795,-10.541,-11.772,-18.195,-27.537,-15.780,-0.003,0.959,-0.218,7.263,-3.571,-0.580,73.333,344263.000,1.000
5.097,-4.345,0.413,-4.374,-4.589,-8.377,-19.382,-6.739,0.000,0.963,-0.221,7.324,-3.723,-0.732,73.333,344264.000,1.000
11.352,3.087,7.177,2.461,3.394,1.531,-9.884,3.089,0.000,0.967,-0.222,7.568,-3.876,-0.702,73.333,344265.000,1.000
15.367,8.177,11.144,6.711,8.696,7.494,-3.484,9.051,0.001,0.974,-0.222,7.416,-3.876,-0.702,73.333,344266.000,1.000
15.316,9.427,10.800,7.215,10.287,8.644,-1.313,10.262,0.003,0.974,-0.219,7.202,-3.937,-0.671,73.333,344267.000,1.000
11.043,7.056,6.446,4.469,8.907,6.722,-2.036,8.272,0.004,0.975,-0.220,7.019,-3.967,-0.793,73.333,344268.000,1.000
4.099,2.629,0.128,0.053,6.081,4.473,-3.487,5.132,0.006,0.973,-0.218,6.805,-4.028,-0.916,73.333,344269.000,1.000
-3.040,-1.867,-5.799,-4.298,3.013,3.267,-4.743,1.789,0.006,0.972,-0.221,6.409,-3.937,-0.885,73.333,344270.000,1.000
-8.282,-5.069,-9.688,-7.479,-0.010,2.278,-6.619,-2.221,0.006,0.971,-0.224,6.317,-3.815,-0.885,73.333,344271.000,1.000
-10.338,-6.144,-10.801,-8.741,-2.628,0.568,-9.947,-6.875,0.004,0.969,-0.223,6.256,-3.784,-0.885,73.333,344272.000,1.000
-8.833,-4.633,-9.082,-7.456,-3.826,-1.376,-14.012,-10.462,0.001,0.968,-0.226,6.134,-3.723,-0.793,73.333,344273.000,1.000
-4.634,-0.954,-5.161,-3.696,-2.881,-2.443,-16.940,-10.915,-0.002,0.966,-0.227,5.981,-3.723,-0.824,73.333,344274.000,1.000
0.455,3.575,-0.549,1.514,-0.002,-1.775,-16.942,-7.480,0.001,0.969,-0.227,5.859,-3.754,-0.793,73.333,344275.000,1.000
4.476,7.315,3.264,6.579,3.847,1.041,-13.060,-1.125,0.001,0.971,-0.227,5.890,-3.906,-0.885,73.333,344276.000,1.000
6.091,9.033,5.212,9.954,7.531,5.897,-5.610,6.168,0.000,0.971,-0.225,5.798,-3.845,-0.946,73.333,344277.000,1.000
5.165,8.477,5.051,10.938,10.310,11.864,3.893,12.677,-0.002,0.975,-0.224,5.646,-3.693,-0.854,73.333,344278.000,1.000
2.478,5.967,3.260,9.570,11.398,16.501,12.281,16.776,0.000,0.975,-0.226,5.280,-3.632,-0.854,73.333,344279.000,1.000
-0.785,1.995,0.250,6.195,9.781,16.774,15.179,16.360,0.000,0.973,-0.226,5.005,-3.662,-0.824,73.333,344280.000,1.000
-3.160,-2.412,-3.030,1.872,5.440,11.658,10.463,10.566,0.000,0.971,-0.231,4.669,-3.632,-0.702,73.333,344281.000,1.000
-3.678,-5.944,-5.462,-1.863,-0.060,3.151,0.418,1.384,0.001,0.965,-0.229,4.364,-3.510,-0.641,73.333,344282.000,1.000
-2.543,-7.678,-6.473,-3.904,-4.342,-4.610,-9.441,-7.101,0.001,0.962,-0.230,4.211,-3.571,-0.580,73.333,344283.000,1.000
-0.921,-7.537,-6.097,-4.140,-5.626,-7.514,-13.676,-11.082,0.002,0.960,-0.231,4.272,-3.479,-0.488,73.333,344284.000,1.000
-0.341,-6.596,-5.436,-3.689,-4.199,-4.717,-11.007,-9.697,0.002,0.961,-0.230,4.120,-3.387,-0.366,73.333,344285.000,1.000
-1.426,-6.136,-5.444,-3.866,-2.032,0.675,-4.865,-5.400,0.001,0.962,-0.234,4.089,-3.143,-0.366,73.333,344286.000,1.000
-3.184,-6.336,-6.028,-4.893,-0.776,4.787,0.004,-1.618,0.000,0.963,-0.235,4.028,-2.991,-0.183,73.333,344287.000,1.000
-4.119,-6.515,-6.516,-5.950,-0.644,5.957,1.191,-0.103,0.000,0.961,-0.234,3.815,-2.930,-0.153,73.333,344288.000,1.000
-3.636,-6.173,-6.319,-6.041,-0.812,4.936,-0.252,-0.075,0.000,0.965,-0.235,3.693,-2.869,-0.122,73.333,344289.000,1.000
-2.512,-5.672,-5.845,-4.998,-0.559,3.279,-1.723,0.206,0.000,0.965,-0.235,3.510,-2.838,0.000,73.333,344290.000,1.000
-2.315,-6.084,-6.122,-3.746,-0.137,1.824,-1.587,1.246,0.000,0.967,-0.236,3.296,-2.655,0.092,73.333,344291.000,1.000
-3.926,-7.981,-7.845,-3.347,-0.279,0.593,-0.315,2.029,-0.002,0.964,-0.233,3.113,-2.655,0.183,73.333,344292.000,1.000
-6.543,-10.370,-10.380,-3.776,-1.037,-0.369,0.581,1.656,-0.002,0.965,-0.237,2.960,-2.441,0.336,73.333,344293.000,1.000
-8.162,-11.067,-11.712,-3.779,-1.386,-0.371,0.557,0.615,-0.003,0.964,-0.235,2.686,-2.380,0.397,73.333,344294.000,1.000
-7.179,-8.336,-10.255,-2.034,0.004,1.642,0.646,0.442,-0.002,0.964,-0.235,2.625,-2.289,0.488,73.333,344295.000,1.000
-4.107,-2.722,-6.278,1.334,3.305,5.940,2.397,2.333,-0.003,0.965,-0.235,2.502,-2.289,0.580,73.333,344296.000,1.000
-1.430,3.023,-2.080,4.475,7.070,11.269,6.180,5.970,-0.003,0.965,-0.238,2.289,-2.228,0.519,73.333,344297.000,1.000
-1.058,6.406,0.173,5.581,9.478,15.563,10.674,9.520,-0.002,0.968,-0.242,2.075,-2.136,0.671,73.333,344298.000,1.000
-2.408,7.193,0.499,4.557,9.720,17.373,13.666,10.703,-0.002,0.968,-0.240,1.923,-2.136,0.732,73.333,344299.000,1.000
-3.314,6.911,0.269,2.857,8.425,16.812,13.597,8.791,-0.001,0.969,-0.237,1.740,-2.106,0.885,73.333,344300.000,1.000
-2.629,6.579,0.480,1.757,6.615,14.788,10.616,5.277,-0.003,0.968,-0.242,1.312,-2.045,0.885,73.333,344301.000,1.000
-1.916,5.074,0.023,0.557,4.046,11.459,5.516,1.538,-0.003,0.965,-0.242,0.916,-1.984,1.038,73.333,344302.000,1.000
-3.442,0.954,-2.683,-2.062,0.195,7.015,-0.105,-1.800,-0.002,0.964,-0.243,0.641,-1.862,1.007,73.333,344303.000,1.000
-6.749,-4.454,-6.374,-5.132,-3.337,3.410,-2.825,-3.070,-0.002,0.962,-0.240,0.336,-1.770,1.099,73.333,344304.000,1.000
-8.854,-7.704,-7.927,-6.000,-3.779,3.096,-0.026,-0.450,-0.001,0.962,-0.244,0.275,-1.617,1.129,73.333,344305.000,1.000
-7.348,-6.545,-5.388,-3.355,-0.334,6.319,7.004,5.306,-0.004,0.958,-0.241,0.122,-1.556,1.190,73.333,344306.000,1.000
-2.614,-1.858,-0.049,1.242,4.676,10.647,13.625,10.348,-0.001,0.959,-0.240,0.061,-1.617,1.221,73.333,344307.000,1.000
2.505,3.082,4.452,4.589,7.542,12.757,15.308,10.476,0.000,0.957,-0.242,-0.183,-1.434,1.373,73.333,344308.000,1.000
5.053,5.027,5.187,4.432,5.938,10.466,10.664,4.729,0.001,0.960,-0.240,-0.244,-1.465,1.373,73.333,344309.000,1.000
4.300,3.060,1.865,1.074,0.579,4.070,1.934,-3.766,0.000,0.959,-0.237,-0.397,-1.404,1.404,73.333,344310.000,1.000
2.287,-0.735,-2.715,-2.846,-5.211,-3.255,-6.295,-10.061,0.001,0.960,-0.238,-0.549,-1.404,1.465,73.333,344311.000,1.000
1.771,-3.259,-5.201,-4.582,-8.137,-7.551,-10.250,-11.100,-0.001,0.956,-0.239,-0.641,-1.312,1.556,73.333,344312.000,1.000
3.269,-3.510,-4.827,-3.827,-7.773,-7.501,-9.360,-7.920,-0.004,0.957,-0.240,-0.793,-1.221,1.587,73.333,344313.000,1.000
4.873,-2.858,-3.156,-2.252,-5.841,-4.596,-4.391,-3.165,-0.002,0.958,-0.236,-0.793,-1.129,1.617,73.333,344314.000,1.000
4.942,-2.464,-1.657,-0.737,-3.021,-0.247,5.279,3.094,-0.001,0.959,-0.237,-0.854,-1.038,1.648,73.333,344315.000,1.000
3.733,-2.059,-0.209,1.332,1.198,4.879,19.280,12.121,0.000,0.961,-0.239,-1.099,-1.007,1.831,73.333,344316.000,1.000
2.386,-1.341,1.303,3.901,5.560,8.897,31.388,21.077,0.000,0.959,-0.233,-1.404,-1.129,2.075,73.333,344317.000,1.000
1.491,-0.993,1.973,5.378,6.737,8.990,32.330,23.193,0.001,0.959,-0.234,-1.648,-1.129,2.289,73.333,344318.000,1.000
0.749,-1.959,0.900,4.260,2.664,4.332,18.898,14.555,0.000,0.955,-0.238,-1.709,-1.221,2.411,73.333,344319.000,1.000
-0.750,-4.579,-2.400,0.374,-5.463,-2.865,-2.819,-1.885,-0.003,0.953,-0.238,-1.709,-1.190,2.594,73.333,344320.000,1.000
-3.816,-8.345,-7.408,-5.139,-14.302,-9.212,-22.402,-18.712,-0.005,0.950,-0.238,-1.740,-1.038,2.716,73.333,344321.000,1.000
-7.900,-11.610,-12.230,-9.978,-19.995,-11.789,-31.361,-28.477,-0.005,0.948,-0.239,-1.587,-0.977,2.594,73.333,344322.000,1.000
-10.732,-11.858,-13.946,-11.284,-19.470,-8.829,-26.271,-26.899,-0.005,0.948,-0.241,-1.312,-1.129,2.380,73.333,344323.000,1.000
-10.282,-7.669,-10.674,-7.823,-12.511,-0.880,-10.138,-15.352,-0.004,0.952,-0.237,-0.977,-1.190,2.167,73.333,344324.000,1.000
-7.012,-0.529,-4.062,-1.739,-2.802,8.674,8.391,-1.003,-0.003,0.955,-0.238,-0.824,-1.312,2.045,73.333,344325.000,1.000
-3.497,6.023,2.056,3.050,4.493,15.470,20.581,8.175,-0.001,0.954,-0.236,-0.610,-1.343,1.862,73.333,344326.000,1.000
-2.158,8.948,4.531,4.019,6.509,16.960,23.389,9.425,0.000,0.958,-0.235,-0.519,-1.404,1.740,73.333,344327.000,1.000
-3.580,7.480,2.773,1.514,4.070,13.605,19.932,6.117,0.004,0.960,-0.237,-0.366,-1.373,1.617,73.333,344328.000,1.000
-6.356,3.240,-1.156,-2.033,0.215,8.139,15.484,3.623,0.003,0.963,-0.234,-0.427,-1.190,1.434,73.333,344329.000,1.000
-8.260,-0.979,-4.548,-4.106,-2.213,3.830,13.356,4.621,0.003,0.964,-0.232,-0.458,-1.038,1.343,73.333,344330.000,1.000
-7.834,-2.963,-5.495,-3.649,-2.147,2.679,14.076,7.819,0.001,0.963,-0.231,-0.458,-1.038,1.343,73.333,344331.000,1.000
-5.140,-2.132,-3.732,-1.190,-0.082,4.864,16.930,10.586,0.000,0.961,-0.230,-0.519,-1.068,1.251,73.333,344332.000,1.000
-1.476,0.439,-0.587,1.836,2.760,9.165,21.039,11.650,0.001,0.960,-0.231,-0.671,-1.038,1.190,73.333,344333.000,1.000
1.258,2.483,1.683,3.485,4.404,12.928,24.315,10.369,0.003,0.960,-0.228,-0.671,-0.977,1.160,73.333,344334.000,1.000
1.581,1.831,0.909,2.112,2.765,12.833,23.438,5.816,0.003,0.961,-0.226,-0.671,-0.916,0.916,73.333,344335.000,1.000
-0.350,-1.703,-2.742,-1.912,-2.079,7.792,17.864,-0.971,0.004,0.964,-0.228,-0.610,-0.824,0.824,73.333,344336.000,1.000
-2.694,-5.720,-6.594,-5.857,-6.808,1.150,12.406,-5.635,0.005,0.966,-0.228,-0.671,-0.793,0.793,73.333,344337.000,1.000
-3.367,-6.947,-7.503,-6.513,-7.050,-1.315,13.728,-3.216,0.008,0.965,-0.227,-0.824,-0.610,0.793,73.333,344338.000,1.000
-1.737,-4.039,-4.177,-2.739,-1.243,3.189,23.425,7.270,0.007,0.968,-0.228,-1.068,-0.549,0.885,73.333,344339.000,1.000
0.898,1.095,1.393,3.388,7.450,11.295,34.918,20.496,0.007,0.965,-0.229,-1.190,-0.397,0.916,73.333,344340.000,1.000
2.401,4.871,5.684,8.135,13.498,16.580,39.046,28.106,0.006,0.961,-0.225,-1.312,-0.275,1.160,73.333,344341.000,1.000
1.384,4.822,6.163,8.953,13.536,15.299,32.406,25.588,0.003,0.961,-0.227,-1.495,-0.244,1.282,73.333,344342.000,1.000
-1.794,1.242,2.956,6.146,8.637,8.849,19.778,15.727,0.000,0.957,-0.228,-1.587,-0.305,1.373,73.333,344343.000,1.000
-5.429,-3.473,-1.506,1.946,2.352,1.477,8.683,4.780,-0.001,0.957,-0.227,-1.587,-0.366,1.434,73.333,344344.000,1.000
-7.991,-6.906,-5.042,-1.699,-2.634,-3.551,2.783,-3.169,0.001,0.958,-0.225,-1.526,-0.458,1.465,73.333,344345.000,1.000
-8.994,-7.892,-6.583,-3.850,-5.495,-5.625,1.319,-7.122,0.002,0.961,-0.224,-1.495,-0.580,1.587,73.333,344346.000,1.000
-8.805,-6.562,-6.122,-4.339,-6.631,-6.236,1.330,-7.866,0.002,0.964,-0.223,-1.587,-0.610,1.770,73.333,344347.000,1.000
-8.295,-4.011,-4.483,-3.745,-7.140,-7.539,-0.549,-7.358,0.003,0.970,-0.219,-1.709,-0.641,1.862,73.333,344348.000,1.000
-8.183,-1.390,-2.425,-2.837,-7.747,-10.070,-5.203,-7.309,0.003,0.977,-0.219,-2.045,-0.793,2.075,73.333,344349.000,1.000
-8.122,1.240,-0.022,-1.603,-7.598,-11.260,-9.321,-7.513,0.003,0.980,-0.220,-2.350,-0.763,2.106,73.333,344350.000,1.000
-6.819,4.717,3.549,0.751,-4.939,-7.532,-7.881,-6.002,0.004,0.981,-0.219,-2.838,-0.824,2.319,73.333,344351.000,1.000
-3.551,9.169,8.428,4.415,0.589,1.440,0.668,-1.344,0.004,0.980,-0.221,-3.326,-0.793,2.380,73.333,344352.000,1.000
0.856,13.222,13.194,8.111,6.810,11.311,12.242,5.182,0.007,0.980,-0.224,-3.784,-0.763,2.411,73.333,344353.000,1.000
4.826,15.205,16.241,10.144,10.733,16.652,20.656,10.423,0.005,0.980,-0.225,-4.089,-0.916,2.716,73.333,344354.000,1.000
7.389,14.834,17.018,10.109,11.413,15.934,23.231,12.855,0.003,0.975,-0.226,-4.395,-1.129,2.838,73.333,344355.000,1.000
8.614,13.401,16.600,9.281,10.640,12.668,22.837,14.236,0.001,0.968,-0.228,-4.791,-1.160,2.960,73.333,344356.000,1.000
8.998,12.335,16.306,9.101,10.630,11.487,23.733,16.790,0.004,0.957,-0.230,-5.157,-1.129,3.174,73.333,344357.000,1.000
8.637,11.568,16.144,9.430,11.257,12.969,25.924,19.452,0.005,0.948,-0.233,-5.188,-1.129,3.143,73.333,344358.000,1.000
7.099,9.550,14.906,8.586,10.045,13.029,24.856,18.228,0.008,0.939,-0.236,-5.127,-1.068,3.052,73.333,344359.000,1.000
4.225,5.240,11.456,5.310,5.327,8.074,17.122,10.951,0.010,0.934,-0.241,-4.761,-0.977,2.777,73.333,344360.000,1.000
0.697,-0.444,6.460,0.337,-1.482,-0.782,5.234,0.482,0.013,0.933,-0.243,-4.333,-0.793,2.625,73.333,344361.000,1.000
-2.357,-5.422,1.783,-4.355,-7.228,-9.293,-4.764,-7.912,0.017,0.934,-0.243,-3.876,-0.549,2.533,73.333,344362.000,1.000
-3.846,-7.900,-0.766,-6.920,-9.525,-13.883,-8.607,-10.787,0.019,0.933,-0.242,-3.510,-0.397,2.441,73.333,344363.000,1.000
-3.351,-7.411,-0.270,-6.609,-8.119,-13.680,-6.327,-8.193,0.020,0.939,-0.235,-3.082,-0.244,2.472,73.333,344364.000,1.000
-1.710,-5.151,2.315,-4.310,-4.858,-10.490,-1.591,-3.089,0.019,0.944,-0.236,-2.869,-0.031,2.502,73.333,344365.000,1.000
-0.268,-2.893,5.306,-1.610,-2.146,-7.168,1.416,1.064,0.018,0.947,-0.237,-2.625,0.214,2.472,73.333,344366.000,1.000
0.278,-1.493,7.580,0.635,-0.991,-5.244,1.177,2.993,0.015,0.950,-0.231,-2.441,0.427,2.289,73.333,344367.000,1.000
-0.026,-0.553,8.944,2.605,-0.508,-3.535,0.017,4.110,0.014,0.951,-0.236,-2.380,0.610,2.136,73.333,344368.000,1.000
-0.988,0.624,9.764,4.582,0.632,0.467,1.876,6.021,0.011,0.954,-0.236,-2.319,0.702,2.045,73.333,344369.000,1.000
-2.770,1.817,9.766,5.884,2.247,7.081,7.725,7.829,0.011,0.950,-0.238,-2.289,0.946,1.892,73.333,344370.000,1.000
-5.792,1.775,8.272,5.128,2.430,12.707,13.678,6.668,0.011,0.947,-0.239,-1.984,0.977,1.648,73.333,344371.000,1.000
-10.096,-0.538,4.899,1.524,-0.616,12.398,13.966,0.589,0.012,0.944,-0.240,-1.801,0.977,1.434,73.333,344372.000,1.000
-14.757,-4.544,0.423,-3.926,-6.365,4.614,6.629,-8.732,0.010,0.947,-0.238,-1.373,1.129,1.251,73.333,344373.000,1.000
-18.171,-8.076,-3.036,-8.630,-11.680,-6.675,-3.738,-15.994,0.010,0.951,-0.236,-0.610,1.221,1.160,73.333,344374.000,1.000
-19.209,-9.109,-3.887,-10.363,-13.222,-14.963,-9.954,-16.190,0.009,0.950,-0.239,-0.580,1.160,1.038,73.333,344375.000,1.000
-17.889,-7.376,-2.119,-8.916,-10.300,-16.348,-8.556,-9.034,0.007,0.954,-0.231,-0.122,1.068,0.916,73.333,344376.000,1.000
-15.105,-4.483,0.681,-6.088,-5.473,-12.148,-2.576,0.370,0.009,0.950,-0.234,-0.183,1.068,0.824,73.333,344377.000,1.000
-12.283,-2.866,2.260,-4.443,-2.650,-7.221,1.566,5.393,0.006,0.955,-0.231,0.244,1.007,0.763,73.333,344378.000,1.000
-10.918,-4.216,1.217,-5.654,-4.205,-5.791,-0.108,2.986,0.005,0.955,-0.229,0.488,0.916,0.702,73.333,344379.000,1.000
-11.436,-8.071,-2.134,-9.229,-9.150,-8.351,-6.216,-4.298,0.002,0.962,-0.229,0.732,0.824,0.610,73.333,344380.000,1.000
-12.713,-12.027,-5.559,-12.822,-14.051,-12.035,-11.767,-10.859,0.002,0.968,-0.226,1.038,0.671,0.397,73.333,344381.000,1.000
-13.289,-13.726,-6.911,-14.345,-15.929,-13.456,-12.625,-12.768,0.004,0.969,-0.230,0.793,0.671,0.458,73.333,344382.000,1.000
-12.358,-12.181,-5.484,-13.166,-13.864,-10.703,-7.882,-9.666,0.001,0.975,-0.222,0.854,0.427,0.336,73.333,344383.000,1.000
-9.689,-7.620,-1.423,-9.594,-8.540,-3.798,0.914,-3.237,0.003,0.969,-0.225,0.549,0.183,0.336,73.333,344384.000,1.000
-5.876,-1.442,4.067,-4.696,-1.807,4.984,10.621,4.087,0.003,0.969,-0.227,0.458,0.031,0.336,73.333,344385.000,1.000
-2.504,3.968,9.038,-0.202,3.802,11.905,17.801,9.859,0.005,0.967,-0.219,0.549,-0.153,0.244,73.333,344386.000,1.000
-1.276,6.465,11.569,2.305,6.441,14.431,20.628,12.677,0.004,0.962,-0.229,0.244,-0.397,0.275,73.333,344387.000,1.000
-2.705,5.517,10.903,2.401,6.022,12.908,19.716,12.644,0.004,0.966,-0.227,0.458,-0.549,0.336,73.333,344388.000,1.000
-5.754,2.305,7.968,1.000,3.768,9.283,16.805,10.549,0.004,0.962,-0.231,0.244,-0.580,0.458,73.333,344389.000,1.000
-8.928,-1.416,4.092,-0.577,1.003,5.135,13.035,7.052,0.000,0.964,-0.231,0.488,-0.854,0.488,73.333,344390.000,1.000
-11.327,-4.211,0.529,-1.322,-1.284,1.589,9.363,3.097,-0.001,0.962,-0.225,0.580,-0.885,0.397,73.333,344391.000,1.000
-12.560,-5.002,-1.642,-0.642,-2.188,0.047,7.128,0.199,-0.001,0.963,-0.229,0.305,-1.190,0.580,73.333,344392.000,1.000
-12.364,-3.173,-1.648,1.577,-1.065,1.742,7.470,-0.265,-0.001,0.967,-0.225,0.671,-1.404,0.397,73.333,344393.000,1.000
-10.930,0.680,0.508,4.539,1.533,5.937,9.969,1.683,0.002,0.967,-0.225,0.397,-1.495,0.458,73.333,344394.000,1.000
-9.081,4.614,3.389,6.588,3.640,9.263,12.017,4.156,0.000,0.974,-0.220,0.244,-1.801,0.610,73.333,344395.000,1.000
-7.409,6.892,5.605,6.639,3.571,8.500,11.115,5.045,0.002,0.975,-0.216,-0.122,-2.045,0.702,73.333,344396.000,1.000
-5.886,7.135,6.549,4.910,1.253,3.391,6.848,3.385,0.001,0.976,-0.223,-0.549,-2.106,0.763,73.333,344397.000,1.000
-4.580,5.718,5.892,2.134,-2.387,-3.835,0.332,-0.726,0.000,0.976,-0.218,-0.671,-2.228,0.763,73.333,344398.000,1.000
-3.649,3.322,3.936,-0.746,-6.014,-9.919,-6.345,-5.833,0.004,0.970,-0.223,-1.221,-2.380,0.793,73.333,344399.000,1.000
-2.646,1.170,1.775,-2.382,-7.892,-11.612,-10.258,-9.084,0.002,0.968,-0.224,-1.404,-2.533,0.702,73.333,344400.000,1.000
-0.821,0.400,0.813,-1.772,-6.922,-7.712,-9.259,-8.185,0.004,0.967,-0.223,-1.678,-2.563,0.732,73.333,344401.000,1.000
1.831,0.873,1.184,0.518,-3.992,-0.855,-4.730,-3.721,0.007,0.962,-0.227,-1.892,-2.686,0.732,73.333,344402.000,1.000
4.365,1.341,1.611,2.679,-1.376,4.077,-0.845,1.423,0.007,0.960,-0.223,-1.801,-2.747,0.641,73.333,344403.000,1.000
5.662,0.701,0.874,3.056,-0.863,3.742,-0.737,4.345,0.010,0.958,-0.227,-2.045,-2.838,0.641,73.333,344404.000,1.000
5.238,-1.204,-1.566,1.048,-2.736,-1.614,-4.583,3.599,0.008,0.958,-0.227,-1.953,-2.716,0.580,73.333,344405.000,1.000
3.684,-3.457,-4.868,-2.468,-5.719,-8.747,-9.752,0.088,0.011,0.957,-0.225,-2.106,-2.716,0.488,73.333,344406.000,1.000
2.370,-4.522,-7.301,-5.599,-7.717,-13.463,-12.498,-3.536,0.010,0.955,-0.225,-2.075,-2.808,0.397,73.333,344407.000,1.000
2.479,-3.311,-7.462,-6.742,-7.270,-13.018,-10.512,-5.211,0.009,0.959,-0.221,-1.923,-2.869,0.397,73.333,344408.000,1.000
4.190,-0.153,-5.116,-5.615,-4.677,-7.839,-4.703,-5.100,0.008,0.960,-0.226,-2.197,-2.838,0.275,73.333,344409.000,1.000
6.581,3.286,-1.669,-3.183,-1.663,-1.321,1.188,-4.690,0.007,0.962,-0.222,-2.167,-2.808,0.122,73.333,344410.000,1.000
8.215,5.113,1.042,-0.719,0.010,2.633,3.535,-4.888,0.009,0.956,-0.223,-2.441,-2.747,0.000,73.333,344411.000,1.000
8.050,4.485,1.795,0.944,-0.328,2.338,1.293,-5.658,0.008,0.954,-0.224,-2.411,-2.563,0.031,73.333,344412.000,1.000
6.306,2.292,0.791,1.897,-1.845,-0.865,-3.593,-6.236,0.010,0.954,-0.223,-2.472,-2.594,-0.092,73.333,344413.000,1.000
4.467,0.674,-0.220,3.146,-2.661,-3.911,-7.548,-5.070,0.010,0.953,-0.230,-2.563,-2.625,-0.183,73.333,344414.000,1.000
4.180,1.567,0.413,5.730,-1.083,-4.134,-7.822,-0.689,0.010,0.954,-0.224,-2.350,-2.625,-0.275,73.333,344415.000,1.000
6.122,5.418,3.281,9.785,3.097,-0.880,-4.005,6.578,0.013,0.953,-0.229,-2.502,-2.411,-0.427,73.333,344416.000,1.000
9.518,10.813,7.369,14.069,8.091,4.006,1.592,13.635,0.011,0.957,-0.224,-2.228,-2.197,-0.519,73.333,344417.000,1.000
12.571,15.241,10.551,16.584,11.102,7.233,5.169,16.379,0.011,0.954,-0.221,-2.258,-2.106,-0.580,73.333,344418.000,1.000
13.799,16.809,11.396,16.233,10.516,6.440,4.167,13.241,0.010,0.957,-0.224,-2.289,-1.984,-0.610,73.333,344419.000,1.000
13.116,15.468,9.982,13.723,7.118,1.876,-1.133,6.355,0.009,0.958,-0.222,-2.258,-1.953,-0.610,73.333,344420.000,1.000
11.581,12.528,7.672,10.711,2.898,-4.339,-8.618,-0.945,0.007,0.957,-0.228,-2.319,-1.740,-0.702,73.333,344421.000,1.000
10.397,9.414,5.666,8.400,-0.612,-9.928,-16.187,-6.539,0.005,0.961,-0.226,-2.289,-1.770,-0.763,73.333,344422.000,1.000
10.342,7.165,4.449,7.261,-2.463,-13.149,-21.602,-9.135,0.006,0.963,-0.228,-2.289,-1.740,-0.763,73.333,344423.000,1.000
11.571,6.321,4.197,7.242,-2.114,-13.115,-22.482,-7.876,0.004,0.966,-0.226,-2.258,-1.678,-0.854,73.333,344424.000,1.000
13.577,6.811,4.561,7.772,0.204,-10.056,-18.259,-3.351,0.005,0.966,-0.223,-2.472,-1.678,-0.885,73.333,344425.000,1.000
15.514,8.084,5.190,8.145,3.498,-5.014,-10.849,2.390,0.007,0.968,-0.223,-2.563,-1.495,-0.885,73.333,344426.000,1.000
16.586,9.301,5.720,7.847,6.507,0.470,-3.356,7.079,0.006,0.970,-0.221,-2.625,-1.465,-0.854,73.333,344427.000,1.000
16.484,9.706,5.821,6.786,8.295,4.639,1.819,9.459,0.004,0.970,-0.226,-2.899,-1.373,-0.671,73.333,344428.000,1.000
15.581,9.035,5.555,5.331,8.536,6.093,3.760,9.547,0.000,0.970,-0.225,-3.113,-1.373,-0.702,73.333,344429.000,1.000
14.417,7.424,4.797,3.839,7.288,4.284,2.273,7.807,0.002,0.967,-0.230,-3.418,-1.282,-0.610,73.333,344430.000,1.000
13.235,5.198,3.539,2.455,4.889,-0.111,-2.123,4.694,0.000,0.965,-0.226,-3.326,-1.251,-0.610,73.333,344431.000,1.000
12.019,2.821,2.030,1.362,2.075,-5.405,-7.987,0.931,0.003,0.959,-0.228,-3.479,-1.282,-0.519,73.333,344432.000,1.000
10.663,0.753,0.686,0.950,-0.249,-9.909,-13.525,-2.363,0.001,0.959,-0.228,-3.510,-1.221,-0.366,73.333,344433.000,1.000
9.160,-0.591,0.134,1.625,-1.402,-12.388,-17.105,-4.220,0.004,0.959,-0.224,-3.387,-1.190,-0.366,73.333,344434.000,1.000
7.802,-0.663,0.758,3.527,-0.851,-11.599,-17.297,-4.181,0.002,0.958,-0.228,-3.448,-1.190,-0.244,73.333,344435.000,1.000
7.163,1.144,2.955,6.653,1.956,-6.555,-12.944,-1.679,0.002,0.966,-0.224,-3.296,-1.129,-0.214,73.333,344436.000,1.000
7.460,4.761,6.470,10.576,6.829,1.884,-4.938,3.432,0.003,0.967,-0.227,-3.265,-1.190,0.031,73.333,344437.000,1.000
8.160,9.063,10.012,14.079,11.989,10.443,2.738,9.130,-0.002,0.970,-0.221,-3.265,-1.221,0.031,73.333,344438.000,1.000
8.655,12.812,12.440,15.959,15.223,15.776,6.013,11.985,0.000,0.966,-0.224,-3.387,-1.282,0.031,73.333,344439.000,1.000
8.836,15.484,13.252,15.944,15.708,16.766,4.104,10.146,-0.003,0.967,-0.222,-3.601,-1.251,0.153,73.333,344440.000,1.000
8.760,16.843,12.563,14.474,14.003,14.020,-0.919,4.603,0.001,0.964,-0.219,-3.571,-1.312,0.183,73.333,344441.000,1.000
8.399,16.606,10.638,12.084,11.116,8.695,-6.641,-1.923,-0.002,0.963,-0.220,-3.662,-1.282,0.275,73.333,344442.000,1.000
7.860,14.792,7.970,9.354,8.130,2.375,-11.197,-6.446,0.000,0.961,-0.219,-3.479,-1.221,0.305,73.333,344443.000,1.000
7.387,11.905,5.415,6.843,5.936,-3.073,-13.267,-7.081,0.002,0.960,-0.220,-3.571,-1.404,0.305,73.333,344444.000,1.000
7.076,8.659,3.323,4.713,4.785,-6.236,-12.853,-4.178,0.002,0.960,-0.218,-3.479,-1.404,0.336,73.333,344445.000,1.000
6.909,5.643,1.679,2.846,4.191,-7.090,-11.411,-0.068,0.005,0.957,-0.222,-3.571,-1.221,0.397,73.333,344446.000,1.000
6.980,3.159,0.298,1.266,3.454,-7.006,-10.810,2.513,0.004,0.957,-0.219,-3.326,-1.282,0.488,73.333,344447.000,1.000
7.387,1.300,-0.958,0.246,2.414,-7.175,-11.535,2.381,0.005,0.952,-0.224,-3.296,-1.221,0.458,73.333,344448.000,1.000
7.902,0.095,-1.875,0.021,1.637,-7.287,-12.104,0.656,0.001,0.954,-0.220,-3.082,-1.160,0.397,73.333,344449.000,1.000
8.124,-0.407,-2.299,0.503,1.809,-6.243,-11.018,-0.678,0.004,0.955,-0.222,-2.777,-1.007,0.549,73.333,344450.000,1.000
7.864,-0.251,-2.092,1.292,2.869,-3.848,-8.646,-0.815,0.006,0.957,-0.224,-2.594,-0.854,0.610,73.333,344451.000,1.000
7.192,0.251,-1.508,1.841,3.994,-1.241,-6.883,-0.446,0.004,0.957,-0.221,-2.441,-0.824,0.732,73.333,344452.000,1.000
6.539,0.874,-0.812,2.139,4.735,0.523,-6.702,-0.125,0.003,0.955,-0.220,-2.411,-0.732,0.763,73.333,344453.000,1.000
6.475,1.629,0.284,2.822,5.423,1.391,-7.086,0.411,0.001,0.956,-0.220,-2.350,-0.763,0.763,73.333,344454.000,1.000
6.982,2.248,1.681,4.182,6.273,1.686,-6.724,1.227,0.001,0.955,-0.222,-2.136,-0.793,0.763,73.333,344455.000,1.000
7.535,2.359,3.093,6.011,7.289,2.035,-4.639,2.380,0.000,0.958,-0.223,-2.045,-0.854,0.824,73.333,344456.000,1.000
7.893,2.234,4.505,8.272,8.961,3.756,0.002,4.798,0.000,0.961,-0.220,-1.740,-0.763,0.671,73.333,344457.000,1.000
8.229,2.668,6.043,11.165,11.930,7.806,6.984,9.583,0.004,0.964,-0.220,-1.831,-0.732,0.671,73.333,344458.000,1.000
8.493,4.024,7.535,14.366,15.838,13.250,14.059,16.104,0.006,0.966,-0.219,-1.709,-0.641,0.641,73.333,344459.000,1.000
8.032,5.711,7.895,16.472,18.979,17.524,17.560,21.135,0.006,0.966,-0.221,-1.740,-0.610,0.671,73.333,344460.000,1.000
6.168,6.824,6.289,15.924,19.537,18.616,15.295,21.045,0.007,0.966,-0.220,-1.801,-0.519,0.854,73.333,344461.000,1.000
3.201,7.259,3.214,12.713,17.449,16.985,8.915,15.408,0.009,0.964,-0.225,-1.923,-0.458,0.885,73.333,344462.000,1.000
0.612,7.958,0.494,8.909,14.766,14.949,2.940,8.014,0.006,0.961,-0.223,-1.862,-0.397,0.977,73.333,344463.000,1.000
-0.140,9.664,-0.025,6.927,13.651,14.000,0.943,3.663,0.006,0.958,-0.222,-1.770,-0.244,0.977,73.333,344464.000,1.000
0.976,11.671,1.479,7.169,14.102,13.249,2.392,3.797,0.003,0.955,-0.219,-1.709,-0.153,0.977,73.333,344465.000,1.000
2.748,12.387,3.375,7.998,14.155,10.867,3.789,5.800,0.003,0.958,-0.220,-1.648,-0.122,0.977,73.333,344466.000,1.000
4.151,11.094,4.295,7.751,12.280,6.658,2.444,6.345,0.002,0.958,-0.218,-1.617,-0.092,0.946,73.333,344467.000,1.000
5.106,8.636,4.092,6.194,8.970,2.649,-1.032,4.628,0.003,0.962,-0.222,-1.404,-0.122,0.977,73.333,344468.000,1.000
5.937,6.333,3.481,4.122,5.835,1.021,-4.004,2.138,0.004,0.964,-0.222,-1.404,0.000,1.099,73.333,344469.000,1.000
6.839,4.822,2.925,2.407,3.983,1.910,-4.969,0.534,0.005,0.968,-0.223,-1.434,0.031,1.007,73.333,344470.000,1.000
8.026,4.149,2.971,1.807,3.724,3.758,-4.092,0.794,0.006,0.970,-0.220,-1.526,0.092,1.129,73.333,344471.000,1.000
9.605,4.174,3.990,2.644,4.970,5.312,-1.801,3.150,0.008,0.969,-0.224,-1.740,0.214,1.190,73.333,344472.000,1.000
11.187,4.500,5.555,4.311,7.170,6.463,1.648,6.787,0.009,0.966,-0.224,-2.014,0.244,1.373,73.333,344473.000,1.000
12.167,4.472,6.805,5.677,9.238,7.380,5.306,9.987,0.008,0.964,-0.223,-2.045,0.305,1.465,73.333,344474.000,1.000
12.359,3.628,6.972,6.120,10.115,7.704,7.252,11.131,0.005,0.962,-0.221,-2.106,0.427,1.373,73.333,344475.000,1.000
11.928,1.956,6.125,5.950,9.342,6.644,6.001,9.838,0.001,0.961,-0.221,-2.075,0.488,1.282,73.333,344476.000,1.000
10.751,-0.399,4.568,5.638,6.968,3.505,1.275,6.807,-0.002,0.961,-0.222,-1.984,0.427,1.129,73.333,344477.000,1.000
8.461,-3.208,2.391,5.229,3.386,-1.498,-5.916,2.973,-0.004,0.960,-0.222,-1.923,0.336,0.946,73.333,344478.000,1.000
5.080,-5.997,-0.068,4.647,-0.515,-6.756,-13.102,-0.693,-0.003,0.962,-0.221,-2.045,0.153,0.793,73.333,344479.000,1.000
1.294,-8.057,-2.431,4.034,-3.386,-9.798,-17.002,-3.041,-0.005,0.966,-0.219,-1.984,0.031,0.641,73.333,344480.000,1.000
-1.697,-8.590,-4.001,3.890,-3.863,-8.689,-14.853,-2.749,-0.003,0.967,-0.219,-2.075,-0.092,0.488,73.333,344481.000,1.000
-2.827,-7.212,-4.316,4.551,-1.582,-3.793,-6.861,0.641,0.000,0.967,-0.221,-2.136,-0.183,0.366,73.333,344482.000,1.000
-2.112,-4.616,-3.918,5.378,1.846,1.660,2.417,5.209,0.001,0.968,-0.216,-2.319,-0.244,0.305,73.333,344483.000,1.000
-0.775,-2.240,-3.925,5.010,3.670,3.881,7.084,7.415,0.001,0.967,-0.217,-2.380,-0.397,0.397,73.333,344484.000,1.000
-0.109,-0.917,-5.122,2.813,2.505,1.843,4.950,5.435,0.001,0.967,-0.220,-2.502,-0.397,0.397,73.333,344485.000,1.000
-0.417,-0.240,-6.934,-0.235,-0.494,-2.139,-0.802,0.987,0.000,0.966,-0.219,-2.533,-0.427,0.397,73.333,344486.000,1.000
-1.255,0.563,-8.313,-2.552,-3.082,-4.834,-4.914,-2.740,0.000,0.962,-0.215,-2.686,-0.519,0.366,73.333,344487.000,1.000
-2.219,1.571,-8.888,-3.382,-3.946,-4.782,-4.420,-4.023,0.000,0.962,-0.214,-2.594,-0.488,0.305,73.333,344488.000,1.000
-3.232,2.027,-8.996,-3.252,-3.679,-3.424,-1.304,-3.740,-0.003,0.958,-0.217,-2.563,-0.580,0.458,73.333,344489.000,1.000
-4.399,0.950,-9.659,-3.547,-4.295,-3.947,-1.286,-4.627,-0.003,0.955,-0.217,-2.655,-0.732,0.519,73.333,344490.000,1.000
-5.764,-2.010,-11.552,-5.448,-7.442,-8.496,-8.003,-8.928,-0.002,0.952,-0.215,-2.472,-0.824,0.519,73.333,344491.000,1.000
-7.131,-6.165,-14.484,-9.085,-12.899,-16.303,-19.387,-16.427,-0.002,0.950,-0.213,-2.319,-0.916,0.519,73.333,344492.000,1.000
-8.140,-10.221,-17.516,-13.519,-18.952,-24.482,-30.285,-24.790,-0.003,0.947,-0.212,-1.984,-1.129,0.458,73.333,344493.000,1.000
-8.625,-13.212,-19.461,-17.534,-23.950,-30.206,-36.995,-31.593,-0.004,0.942,-0.213,-1.678,-1.282,0.305,73.333,344494.000,1.000
-8.785,-15.010,-19.959,-20.421,-27.135,-32.203,-39.071,-35.644,-0.006,0.938,-0.215,-1.251,-1.373,0.366,73.333,344495.000,1.000
-8.866,-16.046,-19.247,-21.940,-28.406,-31.036,-38.132,-36.708,-0.006,0.938,-0.215,-0.977,-1.556,0.214,73.333,344496.000,1.000
-9.011,-16.874,-18.017,-22.246,-28.120,-28.445,-36.416,-35.318,-0.003,0.941,-0.217,-0.488,-1.648,0.153,73.333,344497.000,1.000
-9.305,-17.795,-17.039,-21.755,-26.812,-25.936,-35.038,-32.427,-0.004,0.943,-0.215,0.031,-1.740,0.031,73.333,344498.000,1.000
-9.429,-18.322,-16.086,-20.419,-24.327,-23.395,-32.371,-28.056,-0.002,0.946,-0.217,0.519,-1.801,-0.153,73.333,344499.000,1.000
-8.541,-17.252,-14.179,-17.467,-19.603,-19.376,-25.420,-20.901,-0.003,0.948,-0.214,0.885,-1.953,-0.214,73.333,344500.000,1.000
-6.184,-13.899,-10.516,-12.401,-12.163,-13.065,-13.279,-10.212,-0.001,0.955,-0.211,1.129,-2.075,-0.122,73.333,344501.000,1.000
-3.202,-9.257,-5.830,-6.278,-3.632,-5.675,0.728,1.756,-0.002,0.955,-0.212,1.404,-2.167,-0.122,73.333,344502.000,1.000
-1.331,-5.596,-2.172,-1.505,2.819,0.186,10.930,10.079,-0.004,0.957,-0.212,1.556,-2.289,-0.183,73.333,344503.000,1.000
-1.895,-4.780,-1.149,-0.113,4.821,2.486,13.804,11.060,-0.005,0.958,-0.212,1.678,-2.319,-0.244,73.333,344504.000,1.000
-4.905,-6.850,-2.967,-2.256,2.636,1.384,10.470,5.618,-0.004,0.961,-0.210,1.953,-2.441,-0.153,73.333,344505.000,1.000
-9.139,-10.114,-6.052,-6.202,-1.331,-0.952,5.181,-1.718,-0.003,0.963,-0.209,1.923,-2.563,-0.183,73.333,344506.000,1.000
-13.022,-12.550,-8.399,-9.818,-4.575,-2.268,1.410,-6.845,-0.001,0.963,-0.208,1.892,-2.716,-0.092,73.333,344507.000,1.000
-15.502,-13.114,-9.045,-11.899,-5.952,-1.982,-0.111,-8.395,0.001,0.963,-0.211,1.984,-2.716,-0.092,73.333,344508.000,1.000
-16.355,-11.947,-8.166,-12.333,-5.596,-1.016,-0.084,-6.975,0.002,0.966,-0.212,1.984,-2.716,-0.031,73.333,344509.000,1.000
-15.992,-9.805,-6.803,-11.655,-4.121,-0.242,1.019,-3.689,0.000,0.968,-0.212,2.014,-2.686,-0.031,73.333,344510.000,1.000
-14.988,-7.417,-5.738,-10.537,-2.121,0.569,3.297,0.380,-0.003,0.968,-0.213,1.984,-2.777,0.092,73.333,344511.000,1.000
-13.746,-5.282,-5.209,-9.690,-0.329,2.031,6.028,3.570,0.000,0.971,-0.215,1.831,-2.838,0.275,73.333,344512.000,1.000
-12.464,-3.842,-5.141,-9.758,0.284,3.676,7.214,3.844,0.000,0.972,-0.215,1.678,-2.960,0.275,73.333,344513.000,1.000
-11.175,-3.461,-5.051,-10.765,-0.770,4.046,5.682,0.650,0.003,0.973,-0.214,1.434,-3.143,0.366,73.333,344514.000,1.000
-9.831,-4.202,-4.639,-11.996,-2.929,2.133,2.373,-4.254,0.004,0.972,-0.213,1.434,-3.021,0.427,73.333,344515.000,1.000
-8.598,-5.925,-3.986,-12.730,-5.276,-1.956,-0.959,-8.395,0.005,0.974,-0.211,1.221,-3.021,0.580,73.333,344516.000,1.000
-7.787,-8.309,-3.611,-12.796,-7.197,-6.952,-3.262,-10.384,0.005,0.972,-0.214,1.099,-2.960,0.671,73.333,344517.000,1.000
-7.196,-10.475,-3.675,-12.133,-8.092,-10.563,-3.813,-9.960,0.005,0.971,-0.214,0.885,-2.808,0.732,73.333,344518.000,1.000
-6.187,-11.443,-3.572,-10.635,-7.568,-11.147,-2.284,-7.646,0.005,0.969,-0.219,0.671,-2.777,0.885,73.333,344519.000,1.000
-4.661,-11.221,-3.190,-8.800,-6.219,-9.502,0.022,-4.911,0.005,0.970,-0.219,0.671,-2.777,0.977,73.333,344520.000,1.000
-3.125,-10.608,-2.763,-7.451,-5.067,-7.674,1.331,-3.140,0.005,0.970,-0.220,0.458,-2.716,1.129,73.333,344521.000,1.000
-1.728,-9.905,-2.206,-6.686,-4.139,-6.351,1.632,-2.147,0.005,0.967,-0.220,0.366,-2.686,1.099,73.333,344522.000,1.000
-0.081,-8.727,-1.230,-5.883,-2.743,-4.884,2.064,-0.848,0.006,0.967,-0.223,0.214,-2.655,1.190,73.333,344523.000,1.000
1.791,-7.159,-0.024,-4.937,-1.256,-3.323,2.158,0.156,0.005,0.967,-0.221,0.061,-2.502,1.251,73.333,344524.000,1.000
3.093,-6.157,0.323,-4.775,-1.421,-2.968,-0.509,-1.957,0.006,0.965,-0.221,0.061,-2.441,1.343,73.333,344525.000,1.000
3.063,-6.660,-0.856,-6.205,-4.534,-5.254,-7.240,-9.062,0.007,0.962,-0.223,0.031,-2.197,1.434,73.333,344526.000,1.000
1.612,-8.748,-3.293,-8.966,-10.042,-10.580,-16.633,-19.440,0.007,0.961,-0.222,0.122,-2.045,1.404,73.333,344527.000,1.000
-0.699,-11.490,-6.091,-11.907,-15.799,-17.490,-25.529,-28.660,0.005,0.963,-0.223,0.092,-1.862,1.312,73.333,344528.000,1.000
-2.983,-13.409,-7.978,-13.721,-19.294,-22.881,-30.371,-32.450,0.003,0.962,-0.225,0.092,-1.801,1.373,73.333,344529.000,1.000
-4.457,-13.384,-8.264,-13.760,-19.103,-23.889,-29.121,-29.372,0.003,0.962,-0.226,0.122,-1.801,1.282,73.333,344530.000,1.000
-4.885,-11.407,-7.085,-12.383,-15.877,-20.081,-22.772,-21.776,0.004,0.961,-0.224,0.214,-1.740,1.312,73.333,344531.000,1.000
-4.707,-8.508,-5.414,-10.630,-11.789,-13.475,-14.620,-14.055,0.006,0.957,-0.223,0.244,-1.526,1.221,73.333,344532.000,1.000
-4.465,-5.771,-4.153,-9.164,-8.530,-6.301,-7.045,-8.925,0.007,0.955,-0.224,0.275,-1.526,1.129,73.333,344533.000,1.000
-4.178,-3.581,-3.193,-7.737,-6.160,0.240,0.107,-5.677,0.010,0.956,-0.224,0.366,-1.404,1.068,73.333,344534.000,1.000
-3.500,-1.940,-2.304,-6.017,-4.140,4.924,7.043,-2.565,0.010,0.956,-0.228,0.580,-1.160,1.068,73.333,344535.000,1.000
-2.255,-0.899,-1.503,-4.340,-2.664,6.137,12.017,0.283,0.011,0.960,-0.228,0.793,-1.038,1.007,73.333,344536.000,1.000
-0.774,-0.569,-1.119,-3.520,-2.524,3.354,12.605,0.958,0.013,0.962,-0.226,0.824,-0.732,1.099,73.333,344537.000,1.000
0.260,-0.943,-1.452,-4.039,-4.014,-1.813,8.530,-1.752,0.012,0.963,-0.225,0.854,-0.580,1.068,73.333,344538.000,1.000
0.543,-1.558,-1.996,-5.285,-6.020,-6.031,3.049,-6.276,0.013,0.962,-0.225,0.885,-0.397,1.160,73.333,344539.000,1.000
0.595,-1.442,-1.810,-5.803,-6.448,-5.966,0.719,-9.136,0.014,0.960,-0.227,0.793,-0.305,1.160,73.333,344540.000,1.000
1.042,-0.099,-0.314,-4.730,-4.369,-1.251,3.106,-8.366,0.014,0.956,-0.227,0.916,0.031,1.190,73.333,344541.000,1.000
1.707,1.629,1.693,-2.829,-1.316,4.386,6.999,-5.382,0.011,0.954,-0.225,0.977,0.275,1.160,73.333,344542.000,1.000
1.977,2.453,2.797,-1.487,0.387,6.381,7.915,-2.786,0.007,0.954,-0.225,0.977,0.549,1.099,73.333,344543.000,1.000
1.706,2.017,2.642,-1.191,-0.021,3.424,4.587,-1.607,0.003,0.958,-0.224,1.190,0.641,0.946,73.333,344544.000,1.000
1.265,1.019,1.761,-1.402,-1.347,-1.802,-0.325,-0.998,0.001,0.959,-0.225,1.282,0.763,0.702,73.333,344545.000,1.000
1.155,0.451,1.137,-1.170,-1.699,-5.087,-2.559,0.630,-0.001,0.963,-0.227,1.282,0.732,0.641,73.333,344546.000,1.000
1.774,0.906,1.421,0.179,-0.034,-3.935,0.136,3.945,0.000,0.964,-0.228,1.221,0.732,0.519,73.333,344547.000,1.000
3.259,2.339,2.633,2.593,3.155,1.001,6.431,7.880,0.002,0.964,-0.229,1.129,0.702,0.488,73.333,344548.000,1.000
5.230,4.139,4.445,5.295,6.351,6.835,13.039,10.628,0.002,0.963,-0.227,1.129,0.610,0.580,73.333,344549.000,1.000
6.852,5.402,5.976,7.206,8.070,10.414,16.844,11.124,0.002,0.963,-0.226,1.038,0.641,0.580,73.333,344550.000,1.000
7.415,5.516,6.596,7.661,7.744,10.202,16.575,9.668,0.000,0.963,-0.227,0.946,0.702,0.610,73.333,344551.000,1.000
6.816,4.669,6.338,6.789,6.061,7.259,13.615,7.528,0.000,0.963,-0.224,0.824,0.763,0.732,73.333,344552.000,1.000
5.534,3.699,5.677,5.320,4.414,4.384,10.913,5.969,-0.001,0.963,-0.226,0.732,0.732,0.671,73.333,344553.000,1.000
4.118,3.260,5.041,3.836,3.551,3.631,9.883,5.006,-0.001,0.962,-0.226,0.702,0.732,0.763,73.333,344554.000,1.000
2.769,3.289,4.164,2.346,3.081,4.849,9.099,3.582,-0.001,0.963,-0.226,0.580,0.671,0.824,73.333,344555.000,1.000
1.591,3.472,3.020,0.945,2.650,6.870,7.459,1.642,-0.002,0.964,-0.227,0.549,0.610,0.854,73.333,344556.000,1.000
0.864,3.723,2.097,0.120,2.723,9.100,6.258,0.662,-0.001,0.965,-0.225,0.671,0.549,0.977,73.333,344557.000,1.000
0.893,4.072,1.861,0.241,3.821,11.362,7.109,1.765,0.000,0.967,-0.223,0.397,0.427,1.068,73.333,344558.000,1.000
1.665,4.394,2.463,1.156,5.583,13.046,9.565,4.272,0.000,0.969,-0.223,0.244,0.305,1.221,73.333,344559.000,1.000
2.738,4.488,3.370,2.323,7.049,13.499,11.663,6.373,0.003,0.968,-0.224,0.122,0.214,1.282,73.333,344560.000,1.000
3.557,4.318,4.085,3.296,7.584,12.690,12.166,7.044,0.002,0.966,-0.225,-0.122,0.244,1.373,73.333,344561.000,1.000
3.725,3.857,4.255,3.809,7.117,10.594,10.886,6.709,0.002,0.966,-0.225,-0.275,0.183,1.556,73.333,344562.000,1.000
3.104,3.028,3.677,3.787,5.997,7.047,8.353,6.482,0.004,0.965,-0.225,-0.336,0.214,1.617,73.333,344563.000,1.000
1.881,2.029,2.702,3.469,4.896,2.870,6.052,7.040,0.003,0.965,-0.225,-0.458,0.275,1.678,73.333,344564.000,1.000
0.461,1.274,1.717,3.177,4.360,-0.167,5.221,7.877,0.003,0.966,-0.221,-0.427,0.275,1.831,73.333,344565.000,1.000
-0.672,0.996,1.102,3.168,4.404,-0.926,5.628,7.979,0.001,0.964,-0.225,-0.519,0.214,1.801,73.333,344566.000,1.000
-1.185,1.063,0.929,3.539,4.700,0.301,6.077,7.031,0.002,0.963,-0.227,-0.610,0.214,1.831,73.333,344567.000,1.000
-1.064,1.154,0.917,4.159,4.949,2.396,5.728,5.626,0.001,0.962,-0.226,-0.671,0.183,1.953,73.333,344568.000,1.000
-0.511,0.997,0.880,4.726,4.849,4.000,4.297,4.324,0.003,0.960,-0.228,-0.824,0.153,1.953,73.333,344569.000,1.000
0.251,0.519,0.590,4.895,4.112,4.076,1.749,2.951,0.002,0.959,-0.226,-0.854,0.153,1.862,73.333,344570.000,1.000
1.048,-0.048,0.275,4.634,2.900,2.873,-0.937,1.302,0.003,0.960,-0.223,-0.732,0.153,1.770,73.333,344571.000,1.000
1.609,-0.381,0.335,4.246,1.907,1.869,-2.012,-0.177,0.005,0.960,-0.224,-0.732,0.153,1.678,73.333,344572.000,1.000
1.585,-0.439,0.784,4.103,1.806,2.259,-0.463,-0.575,0.007,0.959,-0.226,-0.824,0.153,1.587,73.333,344573.000,1.000
0.981,-0.416,1.514,4.522,2.782,3.790,3.172,0.841,0.005,0.958,-0.226,-0.854,0.153,1.495,73.333,344574.000,1.000
0.364,-0.402,2.241,5.570,4.377,5.136,6.934,3.639,0.005,0.959,-0.225,-0.824,0.305,1.373,73.333,344575.000,1.000
0.292,-0.367,2.742,6.821,5.566,5.213,8.663,5.855,0.006,0.959,-0.226,-1.038,0.305,1.251,73.333,344576.000,1.000
0.654,-0.352,2.650,7.457,5.412,4.325,7.482,5.326,0.006,0.962,-0.227,-0.916,0.305,1.068,73.333,344577.000,1.000
0.921,-0.361,1.726,6.988,3.970,3.894,4.449,1.890,0.004,0.960,-0.225,-1.038,0.458,1.007,73.333,344578.000,1.000
0.742,-0.408,0.287,5.638,2.064,4.445,1.204,-2.392,0.005,0.961,-0.225,-0.946,0.366,0.885,73.333,344579.000,1.000
0.123,-0.675,-1.378,3.881,0.282,4.583,-1.937,-5.458,0.005,0.960,-0.225,-1.068,0.397,0.793,73.333,344580.000,1.000
-0.486,-1.102,-2.667,2.289,-1.081,2.958,-5.066,-6.494,0.004,0.960,-0.226,-1.038,0.427,0.702,73.333,344581.000,1.000
-0.343,-1.075,-2.743,1.555,-1.464,0.313,-7.133,-5.377,0.002,0.958,-0.225,-1.038,0.458,0.610,73.333,344582.000,1.000
1.008,0.034,-1.184,2.072,-0.346,-1.336,-6.716,-2.458,0.004,0.960,-0.224,-1.099,0.366,0.580,73.333,344583.000,1.000
3.293,2.199,1.761,3.556,2.059,-0.809,-3.645,1.251,0.002,0.960,-0.225,-1.099,0.366,0.549,73.333,344584.000,1.000
5.633,4.760,5.002,5.282,4.998,1.631,0.970,4.838,0.003,0.958,-0.227,-1.038,0.366,0.458,73.333,344585.000,1.000
6.941,6.772,7.353,6.512,7.665,4.984,5.962,8.061,0.002,0.960,-0.226,-1.038,0.366,0.458,73.333,344586.000,1.000
6.455,7.414,7.906,6.670,9.337,8.004,10.251,10.640,0.003,0.961,-0.229,-1.038,0.336,0.275,73.333,344587.000,1.000
4.320,6.592,6.586,5.802,9.705,9.616,12.834,12.240,0.002,0.961,-0.227,-1.007,0.305,0.214,73.333,344588.000,1.000
1.427,5.017,4.449,4.689,9.154,9.674,13.573,13.058,0.004,0.961,-0.230,-1.007,0.244,0.305,73.333,344589.000,1.000
-1.339,3.530,2.520,4.029,8.307,9.071,13.103,13.272,0.002,0.962,-0.229,-1.099,0.214,0.305,73.333,344590.000,1.000
-3.399,2.551,1.428,3.827,7.337,8.536,11.786,12.446,0.000,0.962,-0.227,-1.221,0.275,0.427,73.333,344591.000,1.000
-4.373,2.112,1.290,3.615,6.027,7.719,9.117,10.144,0.002,0.961,-0.229,-1.282,0.244,0.397,73.333,344592.000,1.000
-4.094,2.189,1.901,3.122,4.448,6.000,4.821,7.023,0.002,0.960,-0.229,-1.373,0.214,0.488,73.333,344593.000,1.000
-2.829,2.754,3.062,2.426,3.044,3.573,-0.194,4.387,0.001,0.958,-0.229,-1.526,0.214,0.519,73.333,344594.000,1.000
-1.340,3.625,4.220,1.595,2.196,1.452,-4.407,2.819,0.002,0.955,-0.230,-1.465,0.122,0.671,73.333,344595.000,1.000
-0.457,4.547,5.002,0.834,2.160,0.724,-6.231,2.373,0.001,0.955,-0.228,-1.465,0.000,0.702,73.333,344596.000,1.000
-0.675,5.231,5.216,0.486,2.906,1.626,-5.078,3.021,0.001,0.954,-0.228,-1.312,-0.031,0.763,73.333,344597.000,1.000
-2.015,5.380,4.659,0.581,3.795,3.393,-2.098,4.070,0.001,0.954,-0.228,-1.282,-0.122,0.824,73.333,344598.000,1.000
-4.052,4.849,3.446,0.727,3.930,5.037,0.804,4.187,0.001,0.954,-0.230,-1.099,-0.305,0.763,73.333,344599.000,1.000
-6.135,3.749,1.794,0.455,2.933,5.992,2.267,2.640,0.001,0.957,-0.228,-1.007,-0.305,0.763,73.333,344600.000,1.000
-7.626,2.463,0.272,-0.234,1.274,6.127,2.154,0.313,0.002,0.960,-0.227,-1.129,-0.366,0.793,73.333,344601.000,1.000
-8.180,1.407,-0.661,-0.951,-0.259,5.402,1.206,-1.074,0.001,0.960,-0.225,-1.099,-0.458,0.854,73.333,344602.000,1.000
-8.083,0.609,-1.238,-1.602,-1.436,3.682,0.251,-0.825,0.004,0.962,-0.224,-1.129,-0.336,0.885,73.333,344603.000,1.000
-8.100,-0.318,-2.044,-2.606,-2.688,1.120,-0.344,0.147,0.003,0.963,-0.227,-1.160,-0.458,0.977,73.333,344604.000,1.000
-8.629,-1.454,-3.468,-4.077,-4.039,-1.190,-0.306,1.058,0.004,0.965,-0.224,-1.312,-0.427,1.007,73.333,344605.000,1.000
-9.191,-2.147,-4.836,-5.159,-4.516,-1.512,1.368,2.545,0.006,0.969,-0.223,-1.343,-0.427,1.068,73.333,344606.000,1.000
-9.191,-1.816,-5.372,-5.110,-3.491,0.862,5.015,4.686,0.006,0.969,-0.225,-1.465,-0.458,1.160,73.333,344607.000,1.000
