EEG 1,EEG 2,EEG 3,EEG 4,EEG 5,EEG 6,EEG 7,EEG 8,Accelerometer X,Accelerometer Y,Accelerometer Z,Gyroscope X,Gyroscope Y,Gyroscope Z,Battery Level,Counter,Validation Indicator
-6.067,-7.599,-11.461,-2.312,-6.958,-4.624,-5.945,-4.112,-0.013,0.928,-0.302,-1.312,-0.946,0.854,73.333,286521.000,1.000
-6.874,-9.103,-13.407,-4.758,-9.861,-8.565,-11.162,-7.552,-0.015,0.925,-0.302,-1.343,-0.732,0.977,73.333,286522.000,1.000
-6.973,-11.400,-15.092,-7.171,-12.368,-13.392,-16.639,-10.842,-0.016,0.923,-0.305,-1.221,-0.763,0.946,73.333,286523.000,1.000
-5.776,-13.324,-15.319,-8.071,-12.948,-16.635,-19.421,-12.110,-0.017,0.922,-0.308,-0.916,-0.732,0.946,73.333,286524.000,1.000
-3.173,-13.666,-13.295,-6.532,-10.668,-16.279,-17.566,-10.002,-0.019,0.925,-0.308,-0.671,-0.763,0.916,73.333,286525.000,1.000
0.181,-12.037,-9.311,-2.901,-6.068,-12.188,-11.631,-5.034,-0.017,0.929,-0.306,-0.610,-0.702,0.977,73.333,286526.000,1.000
3.185,-9.070,-4.816,1.406,-0.869,-6.015,-4.212,0.646,-0.015,0.935,-0.304,-0.610,-0.671,1.068,73.333,286527.000,1.000
4.818,-5.954,-1.457,4.828,3.146,0.000,2.056,4.911,-0.016,0.940,-0.304,-0.641,-0.671,1.129,73.333,286528.000,1.000
4.498,-3.785,-0.442,6.341,4.925,4.010,5.514,6.617,-0.013,0.941,-0.306,-0.824,-0.641,1.129,73.333,286529.000,1.000
2.387,-2.946,-1.888,5.804,4.412,5.238,5.670,5.679,-0.013,0.938,-0.306,-1.038,-0.580,1.099,73.333,286530.000,1.000
-0.610,-2.918,-4.730,3.900,2.441,4.216,3.203,2.890,-0.015,0.935,-0.305,-1.038,-0.580,1.068,73.333,286531.000,1.000
-3.389,-2.772,-7.557,1.585,0.222,2.133,-0.481,-0.460,-0.017,0.933,-0.306,-1.068,-0.488,1.007,73.333,286532.000,1.000
-5.263,-1.868,-9.244,-0.451,-1.213,0.044,-3.790,-3.023,-0.019,0.933,-0.307,-1.099,-0.427,0.946,73.333,286533.000,1.000
-6.138,-0.154,-9.486,-1.934,-1.270,-1.202,-5.420,-3.704,-0.020,0.936,-0.304,-1.068,-0.610,0.763,73.333,286534.000,1.000
-6.325,1.937,-8.535,-2.838,0.123,-0.886,-4.560,-1.930,-0.024,0.938,-0.303,-1.038,-0.671,0.549,73.333,286535.000,1.000
-6.357,3.637,-6.990,-3.341,2.397,1.111,-1.405,1.757,-0.023,0.939,-0.304,-1.160,-0.793,0.366,73.333,286536.000,1.000
-6.776,4.133,-5.738,-3.760,4.548,3.967,2.600,5.571,-0.023,0.942,-0.304,-1.373,-0.824,0.305,73.333,286537.000,1.000
-7.775,3.055,-5.258,-4.212,5.771,6.331,5.692,7.586,-0.020,0.943,-0.302,-1.495,-0.977,0.183,73.333,286538.000,1.000
-9.032,0.725,-5.528,-4.503,5.813,7.052,6.576,6.803,-0.020,0.942,-0.304,-1.740,-1.007,0.092,73.333,286539.000,1.000
-9.881,-1.996,-6.077,-4.257,4.933,5.877,4.968,3.612,-0.020,0.941,-0.305,-1.740,-1.068,0.092,73.333,286540.000,1.000
-9.627,-4.093,-6.244,-3.091,3.773,3.609,1.841,-0.253,-0.018,0.939,-0.302,-1.862,-1.068,0.031,73.333,286541.000,1.000
-7.973,-4.954,-5.804,-0.968,2.974,1.282,-1.331,-2.676,-0.018,0.937,-0.302,-1.923,-1.068,0.061,73.333,286542.000,1.000
-5.373,-4.765,-5.058,1.458,2.661,-0.662,-3.620,-2.635,-0.018,0.936,-0.304,-2.014,-1.190,0.061,73.333,286543.000,1.000
-2.897,-4.332,-4.766,2.998,2.401,-2.232,-5.013,-0.837,-0.017,0.935,-0.301,-2.045,-1.129,0.153,73.333,286544.000,1.000
-1.520,-4.443,-5.350,2.796,1.810,-3.273,-5.463,1.267,-0.017,0.935,-0.300,-2.014,-1.160,0.336,73.333,286545.000,1.000
-1.472,-5.334,-6.417,1.049,1.067,-3.308,-4.302,2.826,-0.017,0.932,-0.302,-1.923,-1.160,0.366,73.333,286546.000,1.000
-2.204,-6.707,-7.269,-1.217,0.570,-2.233,-1.469,3.604,-0.018,0.932,-0.303,-1.923,-1.282,0.427,73.333,286547.000,1.000
-2.860,-8.110,-7.287,-2.918,0.300,-0.916,1.577,3.388,-0.019,0.931,-0.299,-1.801,-1.282,0.580,73.333,286548.000,1.000
-2.790,-9.111,-6.342,-3.448,-0.006,-0.414,3.115,2.264,-0.019,0.929,-0.302,-1.801,-1.251,0.580,73.333,286549.000,1.000
-1.895,-9.346,-4.627,-2.770,-0.390,-0.833,2.960,0.956,-0.020,0.929,-0.303,-1.801,-1.312,0.641,73.333,286550.000,1.000
-0.657,-8.766,-2.521,-1.399,-0.809,-1.667,1.929,0.086,-0.022,0.932,-0.299,-1.770,-1.282,0.702,73.333,286551.000,1.000
0.238,-7.689,-0.584,-0.058,-1.298,-2.615,0.474,-0.270,-0.023,0.928,-0.301,-1.709,-1.465,0.763,73.333,286552.000,1.000
0.443,-6.411,1.042,0.930,-1.652,-3.369,-0.911,-0.049,-0.022,0.928,-0.302,-1.678,-1.465,0.824,73.333,286553.000,1.000
0.080,-4.936,2.484,1.736,-1.368,-3.358,-1.410,0.896,-0.022,0.927,-0.299,-1.617,-1.587,0.854,73.333,286554.000,1.000
-0.504,-3.058,3.933,2.618,-0.125,-2.230,-0.677,2.249,-0.021,0.927,-0.297,-1.556,-1.587,0.854,73.333,286555.000,1.000
-0.999,-0.533,5.542,3.628,1.899,-0.048,0.739,3.119,-0.020,0.927,-0.296,-1.495,-1.740,0.916,73.333,286556.000,1.000
-1.220,2.806,7.338,4.773,4.379,3.125,2.251,2.936,-0.019,0.925,-0.295,-1.434,-1.709,0.946,73.333,286557.000,1.000
-1.071,6.863,9.511,6.211,7.142,7.081,3.887,2.196,-0.018,0.924,-0.298,-1.282,-1.648,0.977,73.333,286558.000,1.000
-0.500,11.084,11.941,7.903,9.834,10.731,5.182,1.676,-0.015,0.925,-0.299,-1.129,-1.709,0.916,73.333,286559.000,1.000
0.542,14.631,14.148,9.454,11.792,12.402,4.956,1.568,-0.015,0.926,-0.299,-0.977,-1.587,0.977,73.333,286560.000,1.000
2.036,16.796,15.699,10.469,12.526,11.127,2.770,1.658,-0.014,0.927,-0.298,-1.007,-1.556,1.038,73.333,286561.000,1.000
3.712,17.223,16.346,10.883,12.008,7.344,-0.468,1.739,-0.013,0.927,-0.296,-0.885,-1.404,1.007,73.333,286562.000,1.000
5.076,15.952,16.272,10.958,10.510,2.594,-3.219,1.750,-0.013,0.927,-0.296,-0.793,-1.404,1.068,73.333,286563.000,1.000
5.661,13.367,15.626,11.012,8.401,-1.358,-4.619,1.569,-0.012,0.930,-0.297,-0.793,-1.221,1.099,73.333,286564.000,1.000
5.314,10.029,14.468,11.238,6.100,-3.479,-4.798,1.085,-0.011,0.929,-0.298,-0.610,-1.190,1.099,73.333,286565.000,1.000
4.304,6.505,12.987,11.677,4.132,-3.725,-4.092,0.658,-0.011,0.931,-0.299,-0.549,-1.099,1.038,73.333,286566.000,1.000
3.178,3.361,11.322,12.151,3.017,-2.605,-2.659,0.985,-0.011,0.934,-0.298,-0.549,-1.068,1.038,73.333,286567.000,1.000
2.472,1.090,9.717,12.229,2.897,-0.876,-0.806,2.255,-0.013,0.933,-0.300,-0.641,-0.977,1.068,73.333,286568.000,1.000
2.450,-0.064,8.298,11.431,3.396,0.552,0.640,3.681,-0.013,0.934,-0.298,-0.641,-0.946,0.977,73.333,286569.000,1.000
3.078,-0.175,7.158,9.724,4.018,0.912,1.057,4.336,-0.012,0.935,-0.297,-0.671,-0.732,1.038,73.333,286570.000,1.000
4.078,0.432,6.398,7.670,4.541,0.105,0.872,4.137,-0.010,0.935,-0.300,-0.671,-0.671,1.007,73.333,286571.000,1.000
5.005,1.278,5.849,5.961,4.947,-1.106,1.196,3.733,-0.012,0.935,-0.297,-0.763,-0.641,1.068,73.333,286572.000,1.000
5.415,1.841,5.317,4.816,5.006,-1.844,2.516,3.469,-0.012,0.936,-0.299,-0.732,-0.549,1.007,73.333,286573.000,1.000
5.080,1.729,4.470,3.750,4.130,-2.125,3.608,2.633,-0.011,0.937,-0.301,-0.854,-0.519,0.946,73.333,286574.000,1.000
4.162,0.990,3.171,2.140,2.040,-2.542,2.937,0.440,-0.012,0.938,-0.300,-0.916,-0.336,1.007,73.333,286575.000,1.000
3.111,0.193,1.818,-0.154,-0.610,-3.163,0.733,-2.619,-0.012,0.937,-0.301,-0.854,-0.305,1.099,73.333,286576.000,1.000
2.340,0.018,0.919,-2.801,-2.671,-3.408,-1.539,-5.220,-0.012,0.937,-0.301,-0.977,-0.275,1.068,73.333,286577.000,1.000
2.059,0.840,0.977,-5.091,-3.219,-2.535,-2.411,-6.173,-0.012,0.938,-0.300,-1.068,-0.183,1.099,73.333,286578.000,1.000
2.274,2.643,2.050,-6.082,-1.760,0.085,-0.727,-4.621,-0.012,0.938,-0.300,-1.068,-0.214,1.160,73.333,286579.000,1.000
2.616,4.904,3.507,-5.300,1.273,4.149,3.518,-0.755,-0.014,0.938,-0.300,-1.129,-0.122,1.099,73.333,286580.000,1.000
2.220,6.541,4.097,-3.552,3.966,7.603,7.826,3.089,-0.017,0.938,-0.302,-1.251,-0.183,1.099,73.333,286581.000,1.000
0.202,6.563,2.560,-2.466,3.962,7.786,8.460,3.637,-0.017,0.938,-0.303,-1.251,-0.244,1.038,73.333,286582.000,1.000
-3.567,4.957,-1.106,-2.987,0.521,3.800,4.017,-0.310,-0.016,0.937,-0.300,-1.190,-0.214,1.038,73.333,286583.000,1.000
-8.272,2.751,-5.807,-4.603,-4.787,-2.652,-3.414,-6.748,-0.019,0.938,-0.300,-1.282,-0.153,0.977,73.333,286584.000,1.000
-12.580,1.238,-10.012,-5.795,-9.214,-8.427,-9.936,-11.899,-0.019,0.938,-0.298,-1.373,-0.305,0.946,73.333,286585.000,1.000
-15.233,1.109,-12.396,-5.126,-10.596,-10.807,-12.275,-12.643,-0.019,0.936,-0.300,-1.404,-0.366,0.946,73.333,286586.000,1.000
-15.584,1.959,-12.665,-2.280,-8.678,-9.205,-9.809,-8.574,-0.018,0.931,-0.299,-1.404,-0.488,0.793,73.333,286587.000,1.000
-13.967,2.367,-11.493,1.579,-5.361,-5.818,-5.008,-2.537,-0.017,0.931,-0.304,-1.373,-0.488,0.732,73.333,286588.000,1.000
-11.523,0.810,-10.246,4.458,-3.411,-4.036,-1.835,1.222,-0.017,0.932,-0.303,-1.221,-0.488,0.763,73.333,286589.000,1.000
-9.261,-3.010,-9.829,5.055,-4.305,-5.619,-2.577,0.434,-0.015,0.934,-0.302,-1.068,-0.549,0.854,73.333,286590.000,1.000
-7.275,-7.769,-9.882,3.620,-7.306,-9.527,-6.313,-3.737,-0.014,0.935,-0.302,-1.007,-0.519,0.854,73.333,286591.000,1.000
-4.994,-11.517,-9.467,1.361,-10.342,-13.073,-10.212,-8.232,-0.014,0.938,-0.302,-0.885,-0.549,0.946,73.333,286592.000,1.000
-1.978,-12.991,-7.765,-0.524,-11.503,-13.788,-11.365,-10.336,-0.011,0.938,-0.300,-0.916,-0.549,0.916,73.333,286593.000,1.000
1.528,-12.262,-4.959,-1.538,-10.227,-10.956,-8.538,-9.207,-0.012,0.936,-0.298,-0.946,-0.580,1.007,73.333,286594.000,1.000
4.666,-10.474,-2.099,-1.975,-7.591,-6.137,-2.970,-6.066,-0.012,0.930,-0.301,-0.946,-0.580,1.160,73.333,286595.000,1.000
6.582,-8.883,-0.136,-2.371,-5.379,-2.026,2.522,-3.047,-0.013,0.927,-0.303,-0.916,-0.580,1.129,73.333,286596.000,1.000
7.136,-7.868,0.722,-2.781,-4.621,-0.381,5.510,-1.736,-0.018,0.924,-0.305,-0.763,-0.580,1.160,73.333,286597.000,1.000
7.013,-6.777,1.324,-2.632,-4.988,-0.974,5.570,-2.381,-0.021,0.924,-0.302,-0.458,-0.549,1.129,73.333,286598.000,1.000
7.095,-4.765,2.499,-1.414,-5.433,-2.322,3.808,-4.275,-0.024,0.929,-0.301,-0.214,-0.671,0.977,73.333,286599.000,1.000
7.834,-1.625,4.350,0.780,-5.098,-2.994,1.619,-6.359,-0.023,0.932,-0.299,-0.153,-0.824,0.793,73.333,286600.000,1.000
9.102,2.096,6.434,3.362,-3.662,-2.285,0.139,-7.482,-0.022,0.935,-0.298,-0.183,-0.916,0.641,73.333,286601.000,1.000
10.404,5.499,7.991,5.592,-1.332,-0.285,0.052,-6.786,-0.022,0.937,-0.302,-0.336,-1.068,0.488,73.333,286602.000,1.000
11.194,7.754,8.634,6.841,1.174,2.211,1.451,-4.290,-0.022,0.936,-0.300,-0.305,-1.190,0.397,73.333,286603.000,1.000
11.160,8.473,8.327,6.735,2.979,4.251,3.628,-1.092,-0.020,0.935,-0.302,-0.458,-1.282,0.336,73.333,286604.000,1.000
10.399,8.013,7.593,5.422,3.792,5.583,5.887,1.566,-0.018,0.938,-0.304,-0.488,-1.312,0.336,73.333,286605.000,1.000
9.323,7.272,7.392,3.546,4.081,6.499,8.000,3.123,-0.017,0.934,-0.302,-0.610,-1.434,0.305,73.333,286606.000,1.000
8.311,6.976,8.151,1.758,4.367,6.953,9.364,3.508,-0.018,0.935,-0.304,-0.549,-1.434,0.397,73.333,286607.000,1.000
7.495,7.345,9.724,0.462,4.856,6.756,9.320,3.068,-0.016,0.936,-0.301,-0.488,-1.495,0.458,73.333,286608.000,1.000
6.768,8.241,11.443,-0.143,5.657,6.367,8.197,2.659,-0.016,0.937,-0.298,-0.519,-1.556,0.519,73.333,286609.000,1.000
5.929,9.339,12.561,0.021,6.860,6.724,7.301,3.176,-0.017,0.936,-0.296,-0.488,-1.587,0.458,73.333,286610.000,1.000
4.801,10.190,12.767,0.857,8.314,8.307,7.620,4.793,-0.015,0.936,-0.300,-0.519,-1.556,0.427,73.333,286611.000,1.000
3.320,10.411,12.036,2.099,9.656,10.703,8.901,6.941,-0.014,0.935,-0.301,-0.580,-1.617,0.488,73.333,286612.000,1.000
1.646,9.955,10.869,3.591,10.693,13.085,10.527,9.177,-0.015,0.934,-0.303,-0.519,-1.648,0.549,73.333,286613.000,1.000
0.070,9.050,9.825,5.280,11.470,14.762,12.144,11.343,-0.015,0.934,-0.300,-0.671,-1.648,0.610,73.333,286614.000,1.000
-1.210,7.922,9.249,7.020,11.981,15.392,13.484,13.148,-0.016,0.936,-0.302,-0.732,-1.617,0.854,73.333,286615.000,1.000
-2.141,6.756,9.317,8.539,12.125,15.109,14.294,14.236,-0.017,0.934,-0.300,-0.793,-1.617,0.854,73.333,286616.000,1.000
-2.793,5.744,9.757,9.439,11.751,14.394,14.243,14.286,-0.017,0.934,-0.298,-0.824,-1.587,0.854,73.333,286617.000,1.000
-3.302,5.005,10.210,9.399,10.740,13.682,13.168,13.151,-0.015,0.933,-0.301,-0.885,-1.740,0.885,73.333,286618.000,1.000
-3.733,4.533,10.195,8.475,9.197,13.112,11.270,11.213,-0.016,0.933,-0.303,-0.916,-1.709,0.916,73.333,286619.000,1.000
-3.997,4.144,9.298,7.097,7.368,12.367,9.004,9.257,-0.018,0.933,-0.301,-1.007,-1.801,0.854,73.333,286620.000,1.000
-3.998,3.477,7.465,5.692,5.360,10.815,6.664,7.684,-0.017,0.932,-0.300,-1.007,-1.801,0.793,73.333,286621.000,1.000
-3.780,2.279,4.951,4.479,3.235,8.181,4.375,6.297,-0.016,0.934,-0.301,-0.977,-1.740,0.793,73.333,286622.000,1.000
-3.536,0.651,2.511,3.515,1.135,4.884,2.505,4.742,-0.014,0.933,-0.300,-0.916,-1.831,0.732,73.333,286623.000,1.000
-3.617,-1.165,0.574,2.507,-1.060,1.425,0.883,2.395,-0.013,0.933,-0.297,-0.916,-1.831,0.763,73.333,286624.000,1.000
-4.342,-2.996,-0.957,0.996,-3.742,-2.028,-1.448,-1.411,-0.015,0.932,-0.299,-1.007,-1.862,0.763,73.333,286625.000,1.000
-5.638,-4.569,-2.105,-1.006,-6.831,-5.092,-4.918,-6.338,-0.014,0.930,-0.298,-0.885,-1.740,0.732,73.333,286626.000,1.000
-6.939,-5.392,-2.805,-2.858,-9.361,-6.790,-8.520,-10.664,-0.013,0.928,-0.299,-0.885,-1.709,0.671,73.333,286627.000,1.000
-7.467,-5.014,-2.756,-3.784,-10.099,-6.173,-10.292,-12.294,-0.014,0.929,-0.302,-0.885,-1.526,0.519,73.333,286628.000,1.000
-6.713,-3.399,-1.919,-3.586,-8.610,-3.288,-9.188,-10.469,-0.013,0.930,-0.305,-0.824,-1.495,0.458,73.333,286629.000,1.000
-4.751,-0.972,-0.579,-2.741,-5.639,0.626,-5.964,-6.361,-0.014,0.930,-0.302,-0.763,-1.526,0.397,73.333,286630.000,1.000
-2.245,1.614,0.972,-1.905,-2.544,3.882,-2.261,-2.025,-0.014,0.929,-0.302,-0.702,-1.465,0.366,73.333,286631.000,1.000
-0.171,3.702,2.235,-1.540,-0.507,5.280,0.441,0.866,-0.016,0.929,-0.301,-0.763,-1.495,0.305,73.333,286632.000,1.000
0.728,4.834,2.922,-1.811,-0.087,4.670,1.553,1.638,-0.015,0.931,-0.297,-0.641,-1.556,0.305,73.333,286633.000,1.000
0.315,4.853,2.902,-2.727,-1.172,2.806,1.293,0.559,-0.016,0.931,-0.299,-0.641,-1.526,0.153,73.333,286634.000,1.000
-0.975,3.887,2.277,-4.186,-3.164,0.750,0.371,-1.479,-0.017,0.934,-0.302,-0.671,-1.526,0.183,73.333,286635.000,1.000
-2.467,2.255,1.492,-5.941,-5.256,-0.614,-0.346,-3.484,-0.016,0.936,-0.303,-0.702,-1.404,0.183,73.333,286636.000,1.000
-3.642,0.320,0.832,-7.659,-6.799,-0.948,-0.429,-4.854,-0.017,0.936,-0.300,-0.732,-1.465,0.183,73.333,286637.000,1.000
-4.373,-1.568,0.558,-8.907,-7.468,-0.544,0.101,-5.268,-0.016,0.935,-0.302,-0.641,-1.434,0.244,73.333,286638.000,1.000
-4.822,-3.036,0.681,-9.250,-7.161,0.119,1.018,-4.459,-0.017,0.934,-0.300,-0.763,-1.404,0.214,73.333,286639.000,1.000
-5.111,-3.743,1.045,-8.457,-5.967,0.831,2.144,-2.420,-0.017,0.935,-0.297,-0.793,-1.373,0.214,73.333,286640.000,1.000
-5.240,-3.674,1.458,-6.776,-4.393,1.510,3.166,0.115,-0.014,0.935,-0.300,-0.793,-1.373,0.122,73.333,286641.000,1.000
-5.300,-3.288,1.401,-4.975,-3.298,1.854,3.376,1.815,-0.017,0.936,-0.301,-0.732,-1.373,0.244,73.333,286642.000,1.000
-5.460,-3.210,0.662,-3.805,-3.239,1.532,2.549,1.958,-0.018,0.936,-0.301,-0.793,-1.343,0.244,73.333,286643.000,1.000
-5.770,-3.759,-0.609,-3.542,-3.959,0.788,1.467,1.109,-0.020,0.935,-0.302,-0.854,-1.404,0.244,73.333,286644.000,1.000
-6.190,-4.855,-2.073,-4.025,-4.755,0.295,1.256,0.350,-0.020,0.935,-0.302,-0.885,-1.404,0.305,73.333,286645.000,1.000
-6.856,-6.433,-3.553,-5.094,-5.424,-0.026,2.004,-0.067,-0.019,0.934,-0.301,-0.854,-1.404,0.275,73.333,286646.000,1.000
-8.096,-8.675,-5.594,-6.894,-6.597,-1.348,2.224,-1.116,-0.019,0.934,-0.302,-0.916,-1.465,0.305,73.333,286647.000,1.000
-10.003,-11.576,-8.534,-9.435,-8.946,-4.553,0.462,-3.837,-0.019,0.934,-0.301,-0.916,-1.556,0.397,73.333,286648.000,1.000
-12.256,-14.568,-12.049,-12.232,-12.329,-9.187,-3.398,-8.236,-0.019,0.935,-0.302,-1.007,-1.495,0.427,73.333,286649.000,1.000
-14.343,-16.639,-15.212,-14.425,-15.670,-13.741,-8.106,-13.084,-0.021,0.934,-0.300,-0.946,-1.617,0.458,73.333,286650.000,1.000
-15.717,-16.679,-16.796,-15.141,-17.396,-16.327,-11.765,-16.304,-0.021,0.935,-0.302,-0.885,-1.678,0.549,73.333,286651.000,1.000
-15.885,-14.025,-16.146,-13.921,-16.271,-15.546,-12.891,-16.072,-0.020,0.932,-0.301,-0.854,-1.617,0.580,73.333,286652.000,1.000
-14.640,-9.027,-13.294,-11.012,-12.267,-11.412,-10.949,-12.129,-0.020,0.933,-0.301,-0.854,-1.678,0.519,73.333,286653.000,1.000
-12.323,-3.153,-9.245,-7.464,-6.850,-5.612,-6.980,-6.380,-0.021,0.934,-0.302,-0.946,-1.556,0.610,73.333,286654.000,1.000
-9.769,1.626,-5.527,-4.672,-2.260,-0.665,-3.283,-1.850,-0.021,0.933,-0.305,-1.038,-1.587,0.641,73.333,286655.000,1.000
-7.817,3.919,-3.111,-3.467,-0.011,1.789,-1.452,-0.396,-0.021,0.934,-0.301,-1.068,-1.617,0.671,73.333,286656.000,1.000
-6.737,3.730,-2.089,-3.585,0.160,2.135,-0.961,-1.315,-0.021,0.936,-0.298,-1.038,-1.587,0.610,73.333,286657.000,1.000
-6.092,2.212,-1.580,-3.963,-0.219,2.007,0.143,-2.190,-0.019,0.934,-0.300,-1.099,-1.648,0.671,73.333,286658.000,1.000
-5.188,0.628,-0.819,-3.691,0.173,2.560,2.962,-1.170,-0.018,0.936,-0.301,-1.129,-1.648,0.763,73.333,286659.000,1.000
-3.609,-0.416,0.218,-2.639,1.501,3.662,6.646,1.568,-0.018,0.935,-0.301,-1.160,-1.678,0.763,73.333,286660.000,1.000
-1.434,-0.993,1.142,-1.306,2.942,4.387,9.223,4.209,-0.016,0.934,-0.299,-1.190,-1.617,0.763,73.333,286661.000,1.000
0.909,-1.423,1.409,-0.246,3.588,3.984,9.161,4.957,-0.020,0.934,-0.302,-1.221,-1.648,0.732,73.333,286662.000,1.000
2.948,-1.891,1.104,0.426,3.217,2.492,6.667,3.573,-0.019,0.934,-0.301,-1.099,-1.648,0.793,73.333,286663.000,1.000
4.374,-2.395,0.635,0.943,2.382,0.638,3.351,1.420,-0.018,0.933,-0.299,-1.160,-1.617,0.793,73.333,286664.000,1.000
5.166,-2.836,0.377,1.591,2.012,-0.619,1.282,0.477,-0.019,0.934,-0.302,-1.190,-1.495,0.854,73.333,286665.000,1.000
5.523,-3.187,0.564,2.392,2.647,-0.723,1.797,1.740,-0.017,0.935,-0.299,-1.282,-1.434,0.916,73.333,286666.000,1.000
5.647,-3.634,0.845,2.874,3.803,-0.045,4.126,4.000,-0.017,0.936,-0.298,-1.373,-1.343,0.916,73.333,286667.000,1.000
5.694,-4.345,0.963,2.545,4.379,0.495,6.049,4.924,-0.016,0.934,-0.299,-1.343,-1.282,0.946,73.333,286668.000,1.000
5.836,-5.148,0.878,1.460,3.783,0.372,5.835,3.395,-0.016,0.934,-0.302,-1.373,-1.221,0.946,73.333,286669.000,1.000
6.200,-5.572,0.722,0.278,2.519,-0.006,3.841,0.630,-0.014,0.935,-0.302,-1.465,-1.099,0.946,73.333,286670.000,1.000
6.695,-5.152,0.808,-0.160,1.841,0.597,2.581,-0.764,-0.013,0.936,-0.302,-1.526,-1.129,1.007,73.333,286671.000,1.000
6.852,-3.851,0.983,0.417,2.614,3.067,4.288,0.839,-0.013,0.934,-0.302,-1.495,-1.129,1.038,73.333,286672.000,1.000
5.946,-2.343,0.751,1.345,4.269,6.384,8.250,4.322,-0.015,0.933,-0.300,-1.495,-1.007,1.038,73.333,286673.000,1.000
3.464,-1.624,-0.637,1.431,5.154,8.003,10.955,6.530,-0.015,0.934,-0.301,-1.587,-0.916,1.007,73.333,286674.000,1.000
-0.294,-2.104,-3.430,-0.051,4.070,6.241,9.398,4.985,-0.014,0.933,-0.299,-1.556,-0.916,0.946,73.333,286675.000,1.000
-4.075,-3.103,-6.663,-2.634,1.449,1.905,3.984,0.193,-0.014,0.932,-0.299,-1.556,-0.854,0.946,73.333,286676.000,1.000
-6.223,-3.166,-8.717,-4.702,-0.639,-2.031,-1.429,-4.135,-0.015,0.931,-0.300,-1.434,-0.732,0.854,73.333,286677.000,1.000
-5.655,-0.978,-7.975,-4.403,0.173,-2.232,-2.017,-3.490,-0.013,0.932,-0.299,-1.495,-0.732,0.824,73.333,286678.000,1.000
-2.737,3.415,-4.393,-1.362,4.300,2.208,3.503,3.114,-0.014,0.932,-0.302,-1.404,-0.641,0.824,73.333,286679.000,1.000
0.785,8.114,-0.004,2.546,9.179,8.196,10.817,11.324,-0.016,0.932,-0.300,-1.495,-0.641,0.854,73.333,286680.000,1.000
2.953,10.502,2.546,4.542,11.090,10.746,13.468,14.874,-0.018,0.930,-0.299,-1.434,-0.641,0.885,73.333,286681.000,1.000
2.872,9.249,1.680,3.101,8.246,7.283,8.380,10.792,-0.017,0.931,-0.302,-1.312,-0.519,0.854,73.333,286682.000,1.000
1.140,5.290,-1.764,-0.982,2.193,-0.245,-1.579,1.555,-0.017,0.930,-0.301,-1.404,-0.397,0.824,73.333,286683.000,1.000
-0.740,1.003,-5.510,-5.354,-3.541,-7.241,-10.392,-7.208,-0.015,0.930,-0.301,-1.221,-0.488,0.763,73.333,286684.000,1.000
-1.313,-1.469,-7.485,-7.709,-6.024,-10.135,-13.636,-10.869,-0.016,0.932,-0.300,-1.160,-0.458,0.671,73.333,286685.000,1.000
0.084,-1.441,-6.829,-7.126,-4.726,-8.650,-11.155,-8.730,-0.017,0.933,-0.298,-1.068,-0.397,0.732,73.333,286686.000,1.000
3.104,0.183,-4.460,-4.463,-1.460,-5.227,-6.467,-3.938,-0.016,0.934,-0.301,-1.038,-0.427,0.793,73.333,286687.000,1.000
6.730,1.752,-1.948,-1.491,1.139,-2.809,-3.543,-0.552,-0.017,0.934,-0.302,-1.099,-0.427,0.824,73.333,286688.000,1.000
9.857,1.924,-0.633,0.318,1.337,-2.976,-4.158,-0.604,-0.017,0.935,-0.301,-1.038,-0.336,0.854,73.333,286689.000,1.000
11.828,0.417,-0.901,0.644,-0.754,-5.222,-7.013,-3.047,-0.018,0.935,-0.299,-1.038,-0.397,0.824,73.333,286690.000,1.000
12.639,-1.928,-1.923,0.334,-3.463,-7.478,-8.860,-4.893,-0.016,0.934,-0.301,-1.038,-0.427,0.793,73.333,286691.000,1.000
12.681,-3.920,-2.785,0.430,-5.028,-7.916,-7.472,-3.879,-0.019,0.936,-0.302,-1.038,-0.458,0.885,73.333,286692.000,1.000
12.310,-5.009,-3.030,1.201,-5.085,-6.764,-3.650,-0.482,-0.017,0.936,-0.300,-1.007,-0.458,0.977,73.333,286693.000,1.000
11.560,-5.588,-3.079,1.927,-4.777,-6.126,-0.652,2.418,-0.018,0.936,-0.301,-0.946,-0.519,0.946,73.333,286694.000,1.000
10.340,-6.242,-3.548,1.802,-5.294,-7.627,-1.039,2.249,-0.018,0.939,-0.299,-1.007,-0.519,0.916,73.333,286695.000,1.000
8.823,-6.904,-4.193,0.899,-6.538,-10.591,-4.224,-0.926,-0.015,0.937,-0.298,-1.007,-0.458,1.007,73.333,286696.000,1.000
7.418,-7.024,-4.401,-0.028,-7.481,-13.002,-7.754,-5.031,-0.019,0.936,-0.299,-1.068,-0.488,1.068,73.333,286697.000,1.000
6.448,-6.232,-3.613,-0.257,-7.339,-13.517,-9.557,-7.968,-0.018,0.937,-0.299,-1.160,-0.458,0.977,73.333,286698.000,1.000
6.051,-4.429,-1.820,0.607,-5.785,-11.778,-8.581,-8.394,-0.018,0.938,-0.298,-1.099,-0.519,1.007,73.333,286699.000,1.000
6.291,-1.577,0.643,2.686,-2.700,-7.974,-4.718,-5.647,-0.018,0.937,-0.299,-1.190,-0.549,1.007,73.333,286700.000,1.000
7.010,1.953,3.313,5.461,1.236,-3.437,0.272,-0.692,-0.018,0.937,-0.296,-1.099,-0.610,0.977,73.333,286701.000,1.000
7.638,5.075,5.198,7.585,4.274,-0.598,2.854,3.413,-0.018,0.936,-0.302,-1.099,-0.641,0.977,73.333,286702.000,1.000
7.624,6.644,5.732,7.913,4.939,-1.033,0.917,3.957,-0.018,0.936,-0.299,-1.160,-0.763,1.007,73.333,286703.000,1.000
7.011,6.373,5.160,6.540,3.456,-3.902,-4.097,1.198,-0.019,0.935,-0.301,-1.190,-0.763,0.977,73.333,286704.000,1.000
6.391,4.890,4.284,4.575,1.351,-6.841,-8.631,-2.186,-0.018,0.935,-0.299,-1.038,-0.763,0.946,73.333,286705.000,1.000
6.304,3.024,3.903,3.018,-0.151,-8.185,-10.173,-3.937,-0.016,0.935,-0.300,-1.129,-0.793,0.946,73.333,286706.000,1.000
6.903,1.343,3.944,2.075,-0.838,-7.847,-8.801,-3.735,-0.017,0.934,-0.299,-1.190,-0.763,0.885,73.333,286707.000,1.000
8.104,0.251,4.107,1.538,-0.929,-6.431,-5.738,-2.280,-0.018,0.935,-0.303,-1.038,-0.824,0.885,73.333,286708.000,1.000
9.614,-0.088,4.051,1.097,-0.727,-4.662,-2.372,-0.573,-0.017,0.934,-0.304,-1.007,-0.916,0.916,73.333,286709.000,1.000
10.892,0.091,3.516,0.482,-0.668,-3.435,-0.104,0.324,-0.017,0.934,-0.298,-1.038,-0.885,0.946,73.333,286710.000,1.000
11.424,0.408,2.701,-0.224,-0.909,-3.273,0.569,0.212,-0.017,0.933,-0.297,-1.007,-0.824,0.946,73.333,286711.000,1.000
11.010,0.635,1.863,-0.564,-1.027,-3.736,0.525,0.171,-0.017,0.933,-0.298,-0.916,-0.946,0.854,73.333,286712.000,1.000
9.770,0.557,1.268,-0.191,-0.591,-4.028,1.127,1.338,-0.017,0.931,-0.297,-0.854,-0.885,0.854,73.333,286713.000,1.000
7.941,-0.225,0.609,0.511,0.060,-4.031,2.500,3.270,-0.016,0.933,-0.298,-0.885,-0.916,0.885,73.333,286714.000,1.000
5.789,-2.029,-0.790,0.626,-0.009,-4.246,3.517,4.145,-0.016,0.933,-0.296,-0.916,-0.977,0.824,73.333,286715.000,1.000
3.588,-4.741,-3.099,-0.563,-1.501,-5.131,3.041,2.298,-0.016,0.933,-0.298,-0.885,-0.977,0.916,73.333,286716.000,1.000
1.573,-7.748,-5.962,-3.164,-4.337,-6.838,0.361,-2.616,-0.016,0.932,-0.298,-0.854,-0.977,0.824,73.333,286717.000,1.000
0.033,-10.009,-8.240,-6.452,-7.590,-9.039,-4.246,-9.112,-0.016,0.932,-0.296,-0.793,-1.129,0.824,73.333,286718.000,1.000
-0.790,-10.418,-8.877,-9.159,-9.861,-10.772,-9.257,-14.551,-0.016,0.932,-0.298,-0.824,-0.885,0.854,73.333,286719.000,1.000
-0.946,-8.450,-7.673,-10.133,-9.998,-10.872,-12.484,-16.584,-0.016,0.934,-0.297,-0.824,-0.946,0.854,73.333,286720.000,1.000
-0.784,-4.558,-5.209,-8.892,-7.776,-8.794,-12.312,-14.384,-0.017,0.934,-0.300,-0.793,-0.946,0.793,73.333,286721.000,1.000
-0.592,0.076,-2.707,-5.815,-4.008,-5.049,-8.795,-8.981,-0.017,0.934,-0.296,-0.854,-1.068,0.793,73.333,286722.000,1.000
-0.278,4.196,-0.949,-1.848,-0.071,-0.885,-3.382,-2.613,-0.017,0.933,-0.296,-0.885,-1.068,0.854,73.333,286723.000,1.000
0.424,6.956,-0.184,1.737,2.709,2.483,1.710,2.111,-0.018,0.932,-0.296,-0.793,-1.038,0.824,73.333,286724.000,1.000
1.627,8.161,-0.215,3.877,3.713,4.495,4.642,3.519,-0.017,0.933,-0.298,-0.671,-1.068,0.763,73.333,286725.000,1.000
3.219,8.214,-0.308,4.339,3.341,5.298,5.123,2.067,-0.017,0.935,-0.301,-0.702,-1.099,0.641,73.333,286726.000,1.000
4.960,7.738,0.049,3.649,2.560,5.269,4.107,-0.177,-0.015,0.937,-0.300,-0.763,-1.221,0.610,73.333,286727.000,1.000
6.631,7.166,1.161,2.581,2.108,4.545,2.907,-1.212,-0.015,0.936,-0.295,-0.763,-1.221,0.641,73.333,286728.000,1.000
8.128,6.672,2.848,1.660,2.184,3.217,2.366,-0.315,-0.014,0.937,-0.296,-0.854,-1.251,0.549,73.333,286729.000,1.000
9.555,6.407,4.690,1.174,2.755,1.892,2.885,2.200,-0.015,0.937,-0.294,-0.916,-1.099,0.488,73.333,286730.000,1.000
11.158,6.534,6.507,1.288,3.716,1.408,4.463,5.547,-0.016,0.935,-0.294,-0.946,-1.129,0.580,73.333,286731.000,1.000
13.053,6.977,7.897,1.863,4.712,2.090,6.300,8.436,-0.018,0.935,-0.294,-1.160,-1.190,0.641,73.333,286732.000,1.000
15.115,7.440,8.657,2.588,5.249,3.643,7.396,9.585,-0.017,0.933,-0.296,-1.221,-1.312,0.671,73.333,286733.000,1.000
17.013,7.525,8.696,3.110,4.895,5.225,6.948,8.449,-0.017,0.933,-0.298,-1.221,-1.373,0.641,73.333,286734.000,1.000
18.333,6.791,7.948,3.044,3.320,5.538,4.475,5.230,-0.017,0.932,-0.302,-1.099,-1.556,0.702,73.333,286735.000,1.000
18.820,5.054,6.667,2.147,0.566,3.649,0.345,0.722,-0.015,0.935,-0.300,-1.038,-1.495,0.641,73.333,286736.000,1.000
18.583,2.834,5.239,0.650,-2.479,0.156,-3.987,-3.622,-0.014,0.936,-0.301,-1.007,-1.495,0.580,73.333,286737.000,1.000
18.143,1.352,4.568,-0.590,-4.260,-2.807,-6.454,-6.069,-0.014,0.937,-0.300,-0.946,-1.526,0.580,73.333,286738.000,1.000
18.110,1.743,5.375,-0.687,-3.627,-3.220,-6.129,-5.867,-0.017,0.937,-0.297,-1.129,-1.465,0.641,73.333,286739.000,1.000
18.717,4.178,7.557,0.565,-0.761,-0.856,-4.034,-3.868,-0.017,0.937,-0.297,-1.129,-1.404,0.519,73.333,286740.000,1.000
19.618,7.779,10.413,2.618,3.055,2.808,-1.892,-1.683,-0.016,0.935,-0.298,-1.282,-1.404,0.549,73.333,286741.000,1.000
20.151,11.348,12.858,4.713,6.526,6.193,-0.636,-0.313,-0.015,0.933,-0.303,-1.251,-1.404,0.458,73.333,286742.000,1.000
19.823,14.119,14.444,6.548,9.157,8.749,0.192,0.578,-0.017,0.930,-0.302,-1.190,-1.404,0.458,73.333,286743.000,1.000
18.517,15.845,15.205,8.265,11.075,10.524,1.298,1.941,-0.017,0.931,-0.299,-1.160,-1.404,0.488,73.333,286744.000,1.000
16.492,16.641,15.363,10.138,12.593,11.542,2.757,4.382,-0.016,0.933,-0.300,-1.038,-1.465,0.458,73.333,286745.000,1.000
14.277,16.898,15.423,12.339,14.088,12.062,4.487,7.927,-0.014,0.935,-0.301,-0.916,-1.617,0.397,73.333,286746.000,1.000
12.322,17.049,15.549,14.632,15.867,12.715,6.535,12.130,-0.015,0.937,-0.298,-0.916,-1.465,0.488,73.333,286747.000,1.000
10.801,17.380,15.886,16.495,18.012,14.019,9.129,16.452,-0.016,0.936,-0.297,-1.099,-1.495,0.519,73.333,286748.000,1.000
9.732,17.985,16.410,17.390,20.263,16.011,12.046,20.191,-0.017,0.936,-0.295,-1.160,-1.434,0.458,73.333,286749.000,1.000
9.193,18.669,16.802,16.955,21.900,18.230,14.271,22.160,-0.016,0.937,-0.294,-1.129,-1.434,0.427,73.333,286750.000,1.000
9.318,18.919,16.802,15.188,21.977,19.811,14.614,21.180,-0.017,0.937,-0.300,-1.251,-1.465,0.458,73.333,286751.000,1.000
10.095,18.192,16.149,12.553,20.025,19.862,12.526,17.263,-0.018,0.936,-0.296,-1.282,-1.587,0.397,73.333,286752.000,1.000
11.218,16.362,15.113,9.900,16.581,18.158,8.977,12.197,-0.018,0.935,-0.296,-1.221,-1.587,0.458,73.333,286753.000,1.000
12.075,13.770,13.995,7.885,12.783,15.343,5.852,8.235,-0.016,0.937,-0.296,-1.251,-1.556,0.458,73.333,286754.000,1.000
12.020,10.918,12.705,6.470,9.432,12.222,4.267,6.130,-0.017,0.936,-0.295,-1.251,-1.556,0.549,73.333,286755.000,1.000
10.775,8.221,11.099,5.119,6.576,9.051,3.700,4.890,-0.016,0.935,-0.294,-1.282,-1.556,0.549,73.333,286756.000,1.000
8.599,5.958,9.021,3.403,4.011,5.707,2.843,3.426,-0.015,0.935,-0.294,-1.434,-1.526,0.519,73.333,286757.000,1.000
6.119,4.318,6.953,1.536,1.917,2.406,1.378,1.967,-0.015,0.934,-0.294,-1.434,-1.495,0.580,73.333,286758.000,1.000
3.914,3.328,5.475,0.044,0.726,-0.089,-0.096,1.288,-0.014,0.934,-0.298,-1.373,-1.465,0.671,73.333,286759.000,1.000
2.239,2.777,4.679,-0.875,0.525,-1.094,-1.193,1.279,-0.015,0.934,-0.297,-1.282,-1.434,0.702,73.333,286760.000,1.000
1.100,2.433,4.467,-1.376,0.958,-0.517,-1.926,1.065,-0.017,0.935,-0.296,-1.312,-1.404,0.702,73.333,286761.000,1.000
0.432,2.294,4.506,-1.634,1.586,1.251,-2.417,-0.036,-0.015,0.934,-0.296,-1.282,-1.282,0.641,73.333,286762.000,1.000
0.083,2.370,4.668,-1.680,1.945,3.238,-2.813,-2.188,-0.016,0.934,-0.295,-1.221,-1.312,0.641,73.333,286763.000,1.000
-0.273,2.421,4.734,-1.526,1.670,4.014,-3.589,-4.920,-0.016,0.935,-0.294,-1.160,-1.373,0.763,73.333,286764.000,1.000
-0.952,2.336,4.577,-0.933,1.170,3.020,-4.619,-6.547,-0.015,0.935,-0.296,-1.221,-1.373,0.702,73.333,286765.000,1.000
-2.076,2.456,4.614,0.649,1.606,1.419,-4.584,-4.883,-0.013,0.934,-0.296,-1.190,-1.282,0.763,73.333,286766.000,1.000
-3.651,3.146,4.997,3.437,3.706,0.924,-2.609,0.429,-0.017,0.934,-0.294,-1.160,-1.282,0.732,73.333,286767.000,1.000
-5.562,4.374,5.687,6.984,7.013,2.317,0.836,7.157,-0.016,0.935,-0.294,-1.099,-1.282,0.793,73.333,286768.000,1.000
-7.442,5.923,6.489,10.481,10.483,5.392,4.717,12.287,-0.016,0.936,-0.297,-1.038,-1.221,0.732,73.333,286769.000,1.000
-8.764,7.690,7.256,13.324,13.392,9.486,8.520,14.373,-0.016,0.937,-0.294,-1.038,-1.282,0.732,73.333,286770.000,1.000
-9.328,9.453,7.995,15.187,15.376,13.514,12.129,14.036,-0.017,0.934,-0.292,-0.885,-1.282,0.732,73.333,286771.000,1.000
-9.712,10.438,8.086,15.582,15.905,15.890,14.666,12.507,-0.014,0.936,-0.293,-0.916,-1.251,0.610,73.333,286772.000,1.000
-11.003,9.465,6.737,13.903,14.182,14.935,14.548,10.404,-0.017,0.936,-0.296,-1.007,-1.282,0.641,73.333,286773.000,1.000
-14.016,5.776,3.359,9.937,9.833,9.983,10.799,7.760,-0.019,0.935,-0.293,-0.977,-1.221,0.641,73.333,286774.000,1.000
-18.607,-0.059,-1.763,4.406,3.780,2.570,4.560,4.870,-0.019,0.933,-0.293,-0.916,-1.221,0.671,73.333,286775.000,1.000
-23.649,-6.223,-7.091,-1.169,-2.058,-4.229,-1.477,2.369,-0.020,0.931,-0.295,-0.885,-1.190,0.671,73.333,286776.000,1.000
-27.691,-10.775,-11.075,-5.397,-6.117,-8.131,-5.611,0.282,-0.019,0.932,-0.296,-0.793,-1.190,0.610,73.333,286777.000,1.000
-29.572,-12.586,-12.581,-7.516,-7.842,-8.855,-7.731,-1.820,-0.018,0.931,-0.297,-0.732,-1.221,0.610,73.333,286778.000,1.000
-28.705,-11.470,-11.239,-7.285,-7.229,-7.297,-8.162,-3.590,-0.017,0.931,-0.296,-0.671,-1.190,0.671,73.333,286779.000,1.000
-25.199,-7.963,-7.456,-4.814,-4.463,-4.358,-6.785,-3.652,-0.018,0.931,-0.295,-0.610,-1.160,0.702,73.333,286780.000,1.000
-19.953,-3.252,-2.250,-0.828,-0.300,-0.869,-3.585,-1.166,-0.018,0.931,-0.295,-0.671,-1.251,0.610,73.333,286781.000,1.000
-14.554,0.946,2.416,3.075,3.677,2.017,0.198,2.527,-0.018,0.932,-0.297,-0.610,-1.221,0.641,73.333,286782.000,1.000
-10.624,3.122,4.841,5.228,5.876,3.315,2.964,4.767,-0.017,0.934,-0.299,-0.610,-1.129,0.702,73.333,286783.000,1.000
-9.082,2.814,4.333,4.957,5.789,2.953,4.008,3.913,-0.018,0.935,-0.296,-0.549,-1.160,0.671,73.333,286784.000,1.000
-9.852,0.727,1.408,2.850,4.123,1.601,3.518,0.579,-0.018,0.935,-0.296,-0.519,-1.221,0.610,73.333,286785.000,1.000
-12.114,-1.886,-2.411,0.142,2.085,0.079,2.141,-3.130,-0.019,0.935,-0.293,-0.580,-1.068,0.610,73.333,286786.000,1.000
-14.849,-3.981,-5.833,-2.151,0.661,-0.931,0.616,-5.264,-0.018,0.936,-0.295,-0.610,-1.160,0.671,73.333,286787.000,1.000
-17.283,-5.132,-7.995,-3.572,0.261,-1.048,-0.249,-5.041,-0.019,0.935,-0.297,-0.549,-1.190,0.610,73.333,286788.000,1.000
-19.197,-5.627,-8.914,-4.264,0.652,-0.497,-0.060,-2.962,-0.019,0.937,-0.298,-0.458,-1.282,0.580,73.333,286789.000,1.000
-20.933,-6.221,-9.371,-4.682,1.234,-0.070,1.058,-0.052,-0.017,0.939,-0.297,-0.549,-1.221,0.580,73.333,286790.000,1.000
-23.043,-7.542,-10.012,-5.134,1.568,-0.360,2.897,2.963,-0.016,0.939,-0.297,-0.610,-1.160,0.549,73.333,286791.000,1.000
-25.856,-9.602,-11.333,-5.678,1.550,-1.220,4.967,5.601,-0.015,0.940,-0.299,-0.702,-1.129,0.580,73.333,286792.000,1.000
-29.295,-11.963,-13.404,-6.333,1.008,-2.344,6.266,7.155,-0.012,0.941,-0.300,-0.732,-1.160,0.610,73.333,286793.000,1.000
-33.041,-14.306,-16.244,-7.356,-0.548,-3.816,5.431,6.586,-0.010,0.940,-0.297,-0.793,-1.038,0.702,73.333,286794.000,1.000
-36.649,-16.587,-19.677,-8.927,-3.338,-5.562,2.094,3.572,-0.010,0.937,-0.298,-1.007,-1.038,0.885,73.333,286795.000,1.000
-39.566,-18.815,-22.900,-10.736,-6.751,-6.954,-2.187,-0.589,-0.011,0.931,-0.301,-0.916,-1.007,0.916,73.333,286796.000,1.000
-41.292,-20.990,-25.362,-12.301,-9.805,-7.494,-5.396,-3.897,-0.014,0.928,-0.298,-1.038,-0.916,0.946,73.333,286797.000,1.000
-41.554,-23.051,-26.807,-13.346,-11.917,-7.369,-6.571,-5.106,-0.016,0.928,-0.301,-0.854,-0.854,1.038,73.333,286798.000,1.000
-40.426,-24.757,-27.438,-13.917,-13.038,-6.974,-6.020,-4.260,-0.017,0.926,-0.302,-0.610,-0.793,1.038,73.333,286799.000,1.000
-38.327,-25.693,-27.694,-14.215,-13.326,-6.210,-4.421,-2.188,-0.017,0.931,-0.302,-0.458,-0.793,0.946,73.333,286800.000,1.000
-35.887,-25.555,-27.704,-14.439,-13.004,-4.663,-2.135,0.135,-0.018,0.935,-0.301,-0.244,-0.854,1.007,73.333,286801.000,1.000
-33.745,-24.487,-27.682,-14.820,-12.455,-2.414,0.374,1.844,-0.017,0.938,-0.298,-0.214,-0.854,1.038,73.333,286802.000,1.000
-32.216,-23.039,-27.598,-15.432,-12.133,-0.319,2.470,2.514,-0.013,0.939,-0.298,-0.305,-0.824,1.038,73.333,286803.000,1.000
-31.132,-21.815,-27.483,-16.211,-12.442,0.529,3.289,1.922,-0.014,0.939,-0.296,-0.305,-0.854,1.099,73.333,286804.000,1.000
-29.996,-21.201,-27.503,-17.130,-13.706,-0.469,2.006,-0.473,-0.013,0.938,-0.296,-0.427,-0.824,1.160,73.333,286805.000,1.000
-28.304,-21.261,-27.468,-18.133,-15.982,-3.092,-1.336,-4.971,-0.015,0.935,-0.296,-0.519,-0.763,1.038,73.333,286806.000,1.000
-25.796,-21.657,-27.119,-18.943,-18.704,-6.455,-5.549,-10.485,-0.017,0.936,-0.302,-0.458,-0.732,1.007,73.333,286807.000,1.000
-22.518,-21.655,-25.867,-18.999,-20.705,-9.339,-8.659,-14.516,-0.020,0.938,-0.302,-0.427,-0.916,0.916,73.333,286808.000,1.000
-18.829,-20.527,-23.360,-17.883,-20.815,-10.626,-9.181,-14.803,-0.020,0.940,-0.298,-0.336,-0.946,0.793,73.333,286809.000,1.000
-15.297,-18.072,-19.885,-15.704,-18.580,-9.852,-6.985,-10.970,-0.022,0.941,-0.297,-0.488,-1.129,0.610,73.333,286810.000,1.000
-12.545,-14.808,-16.129,-13.141,-14.640,-7.431,-3.178,-4.952,-0.022,0.941,-0.297,-0.580,-1.099,0.458,73.333,286811.000,1.000
-11.085,-11.631,-13.231,-11.164,-10.369,-4.235,0.473,0.204,-0.021,0.942,-0.294,-0.732,-1.099,0.244,73.333,286812.000,1.000
-11.003,-9.210,-11.718,-10.290,-6.961,-1.105,2.758,2.562,-0.019,0.944,-0.293,-0.885,-1.221,0.244,73.333,286813.000,1.000
-11.874,-7.690,-11.384,-10.289,-4.864,1.259,3.430,2.185,-0.021,0.944,-0.295,-1.129,-1.282,0.153,73.333,286814.000,1.000
-12.946,-6.740,-11.643,-10.456,-3.842,2.467,3.025,0.412,-0.020,0.943,-0.297,-1.343,-1.343,0.000,73.333,286815.000,1.000
-13.364,-5.713,-11.571,-9.980,-3.225,2.759,2.615,-1.100,-0.019,0.942,-0.298,-1.434,-1.434,0.061,73.333,286816.000,1.000
-12.446,-4.026,-10.609,-8.349,-2.280,2.889,3.085,-1.159,-0.015,0.939,-0.297,-1.434,-1.434,0.000,73.333,286817.000,1.000
-9.982,-1.626,-8.540,-5.659,-0.761,3.483,4.653,0.353,-0.015,0.938,-0.295,-1.556,-1.373,0.061,73.333,286818.000,1.000
-6.456,0.855,-5.946,-2.744,0.804,4.467,6.466,2.347,-0.016,0.938,-0.295,-1.495,-1.495,0.092,73.333,286819.000,1.000
-2.785,2.571,-3.910,-0.635,1.615,5.070,7.173,3.618,-0.014,0.937,-0.296,-1.495,-1.404,0.183,73.333,286820.000,1.000
0.204,3.011,-2.993,0.164,1.262,4.338,6.000,3.856,-0.015,0.937,-0.293,-1.373,-1.373,0.183,73.333,286821.000,1.000
2.017,2.155,-3.377,-0.314,-0.149,1.955,2.997,3.137,-0.019,0.936,-0.293,-1.343,-1.373,0.366,73.333,286822.000,1.000
2.599,0.493,-4.559,-1.629,-2.042,-1.029,-0.578,1.576,-0.020,0.937,-0.294,-1.434,-1.251,0.366,73.333,286823.000,1.000
2.263,-1.186,-5.807,-3.143,-3.571,-2.750,-2.845,-0.414,-0.022,0.937,-0.296,-1.373,-1.434,0.458,73.333,286824.000,1.000
1.498,-2.274,-6.630,-4.257,-4.148,-2.256,-2.812,-2.133,-0.021,0.934,-0.297,-1.434,-1.404,0.488,73.333,286825.000,1.000
0.883,-2.580,-6.596,-4.502,-3.714,-0.347,-1.053,-2.924,-0.022,0.934,-0.293,-1.373,-1.526,0.671,73.333,286826.000,1.000
1.049,-2.132,-5.663,-3.662,-2.501,1.480,0.877,-2.459,-0.022,0.934,-0.297,-1.312,-1.556,0.732,73.333,286827.000,1.000
2.523,-0.973,-3.782,-1.810,-0.774,2.452,1.916,-0.792,-0.023,0.935,-0.295,-1.312,-1.495,0.702,73.333,286828.000,1.000
5.415,0.778,-1.174,0.609,1.142,2.815,2.006,1.507,-0.023,0.932,-0.296,-1.312,-1.556,0.732,73.333,286829.000,1.000
9.225,2.779,1.604,2.869,2.801,3.133,1.661,3.499,-0.023,0.932,-0.293,-1.312,-1.556,0.763,73.333,286830.000,1.000
12.925,4.418,4.080,4.241,3.663,3.438,1.247,4.310,-0.020,0.931,-0.295,-1.373,-1.617,0.763,73.333,286831.000,1.000
15.316,5.020,5.566,4.206,3.241,3.039,0.286,3.333,-0.018,0.931,-0.296,-1.221,-1.648,0.793,73.333,286832.000,1.000
15.619,4.310,5.798,2.793,1.461,1.328,-1.828,0.574,-0.016,0.931,-0.297,-1.251,-1.648,0.763,73.333,286833.000,1.000
13.841,2.661,5.002,0.667,-1.036,-1.347,-4.777,-2.963,-0.014,0.931,-0.292,-1.129,-1.617,0.824,73.333,286834.000,1.000
10.676,0.842,3.713,-1.184,-3.165,-3.797,-7.257,-5.638,-0.015,0.931,-0.295,-1.099,-1.587,0.824,73.333,286835.000,1.000
7.090,-0.540,2.671,-2.070,-4.215,-4.980,-8.084,-6.494,-0.014,0.930,-0.298,-0.977,-1.617,0.977,73.333,286836.000,1.000
3.933,-1.340,2.089,-2.012,-4.333,-4.754,-7.415,-6.022,-0.013,0.927,-0.298,-1.007,-1.434,0.885,73.333,286837.000,1.000
1.811,-1.655,2.071,-1.355,-4.132,-3.724,-6.236,-5.326,-0.014,0.927,-0.294,-0.854,-1.312,0.916,73.333,286838.000,1.000
0.961,-1.577,2.521,-0.440,-4.170,-2.714,-5.643,-5.348,-0.014,0.928,-0.296,-0.732,-1.190,0.916,73.333,286839.000,1.000
1.235,-1.199,3.107,0.451,-4.720,-2.369,-6.436,-6.696,-0.012,0.930,-0.293,-0.732,-1.038,0.977,73.333,286840.000,1.000
2.293,-0.595,3.719,1.260,-5.593,-2.767,-8.521,-9.176,-0.014,0.931,-0.296,-0.702,-1.007,1.007,73.333,286841.000,1.000
3.761,0.268,4.217,2.190,-6.087,-3.227,-10.735,-11.491,-0.014,0.931,-0.293,-0.641,-0.946,1.038,73.333,286842.000,1.000
5.268,1.466,4.810,3.501,-5.422,-2.781,-11.273,-11.851,-0.015,0.932,-0.293,-0.671,-0.824,0.946,73.333,286843.000,1.000
6.448,2.810,5.548,5.045,-3.487,-1.116,-9.273,-9.423,-0.016,0.934,-0.294,-0.580,-0.763,1.038,73.333,286844.000,1.000
7.088,3.693,5.978,6.212,-1.178,0.896,-5.765,-5.118,-0.015,0.936,-0.296,-0.580,-0.641,0.946,73.333,286845.000,1.000
7.301,3.436,5.721,6.398,0.130,1.748,-2.735,-0.983,-0.013,0.936,-0.295,-0.580,-0.580,0.977,73.333,286846.000,1.000
7.453,1.854,4.559,5.398,-0.351,0.563,-1.531,1.241,-0.013,0.937,-0.295,-0.610,-0.549,0.946,73.333,286847.000,1.000
7.881,-0.532,2.963,3.564,-2.253,-2.172,-1.803,1.227,-0.013,0.937,-0.294,-0.671,-0.488,0.824,73.333,286848.000,1.000
8.613,-2.914,1.516,1.443,-4.615,-5.148,-2.482,-0.399,-0.013,0.940,-0.293,-0.732,-0.397,0.916,73.333,286849.000,1.000
9.511,-4.592,0.581,-0.453,-6.603,-7.165,-2.885,-2.815,-0.013,0.938,-0.295,-0.824,-0.336,0.977,73.333,286850.000,1.000
10.486,-5.208,0.589,-1.660,-7.774,-7.792,-2.805,-5.129,-0.013,0.937,-0.297,-0.946,-0.336,0.977,73.333,286851.000,1.000
11.219,-5.187,1.143,-2.240,-8.412,-7.848,-2.984,-6.929,-0.012,0.939,-0.295,-0.977,-0.305,1.007,73.333,286852.000,1.000
11.025,-5.680,1.255,-2.833,-9.437,-8.921,-4.655,-8.568,-0.013,0.937,-0.297,-1.007,-0.275,0.977,73.333,286853.000,1.000
9.397,-7.559,0.117,-3.981,-11.362,-11.723,-8.161,-10.415,-0.014,0.940,-0.297,-0.946,-0.305,1.007,73.333,286854.000,1.000
6.579,-10.493,-2.085,-5.562,-13.544,-15.182,-12.306,-12.086,-0.017,0.940,-0.297,-0.946,-0.305,1.038,73.333,286855.000,1.000
3.450,-13.207,-4.136,-7.109,-14.896,-17.496,-15.456,-13.110,-0.017,0.942,-0.298,-0.977,-0.244,1.068,73.333,286856.000,1.000
0.978,-14.390,-5.071,-8.376,-14.925,-17.666,-16.946,-13.829,-0.018,0.940,-0.297,-1.129,-0.275,1.099,73.333,286857.000,1.000
-0.091,-13.343,-4.258,-9.134,-13.784,-16.000,-16.780,-14.637,-0.016,0.940,-0.298,-1.099,-0.305,0.977,73.333,286858.000,1.000
0.466,-10.320,-1.833,-9.108,-11.951,-13.758,-15.443,-15.303,-0.018,0.938,-0.298,-1.007,-0.427,0.854,73.333,286859.000,1.000
2.140,-6.418,1.146,-8.300,-10.118,-12.229,-13.956,-15.538,-0.019,0.938,-0.293,-1.129,-0.397,0.885,73.333,286860.000,1.000
4.004,-2.854,3.593,-6.983,-8.865,-11.691,-13.136,-15.455,-0.021,0.935,-0.292,-1.312,-0.397,0.885,73.333,286861.000,1.000
5.338,-0.243,4.859,-5.374,-8.166,-11.332,-13.014,-15.175,-0.020,0.934,-0.294,-1.312,-0.519,0.885,73.333,286862.000,1.000
6.010,1.411,5.336,-3.362,-7.463,-10.403,-12.784,-14.328,-0.017,0.934,-0.299,-1.190,-0.610,0.793,73.333,286863.000,1.000
6.254,2.129,5.584,-0.893,-6.440,-9.327,-11.973,-12.620,-0.018,0.934,-0.299,-1.038,-0.519,0.885,73.333,286864.000,1.000
6.327,1.705,5.573,1.638,-5.486,-9.303,-11.076,-10.544,-0.015,0.935,-0.299,-0.946,-0.641,0.854,73.333,286865.000,1.000
6.521,0.154,5.233,3.659,-5.109,-10.807,-10.592,-8.872,-0.014,0.940,-0.297,-0.946,-0.488,0.854,73.333,286866.000,1.000
7.266,-1.844,4.661,4.869,-5.158,-12.815,-10.358,-7.804,-0.015,0.940,-0.296,-0.885,-0.549,0.977,73.333,286867.000,1.000
9.004,-3.129,4.632,5.457,-4.864,-13.632,-9.665,-6.849,-0.014,0.940,-0.295,-0.885,-0.519,1.038,73.333,286868.000,1.000
11.780,-2.752,5.841,5.758,-3.512,-12.314,-8.089,-5.357,-0.013,0.939,-0.295,-1.038,-0.641,1.068,73.333,286869.000,1.000
14.993,-0.574,8.151,5.919,-0.982,-9.249,-5.874,-2.966,-0.012,0.934,-0.293,-1.129,-0.580,1.160,73.333,286870.000,1.000
17.630,2.612,10.805,5.886,2.082,-5.714,-3.634,0.028,-0.011,0.928,-0.297,-1.099,-0.488,1.251,73.333,286871.000,1.000
18.895,5.548,12.535,5.554,4.650,-2.896,-1.964,2.686,-0.015,0.926,-0.299,-0.885,-0.427,1.282,73.333,286872.000,1.000
18.784,7.291,12.755,5.038,5.980,-1.198,-0.934,4.087,-0.018,0.924,-0.297,-0.519,-0.549,1.251,73.333,286873.000,1.000
17.995,7.555,11.679,4.500,5.824,-0.493,-0.614,3.595,-0.020,0.927,-0.297,-0.305,-0.580,1.221,73.333,286874.000,1.000
17.410,6.635,9.892,4.030,4.462,-0.532,-1.195,1.264,-0.022,0.930,-0.295,-0.214,-0.610,1.007,73.333,286875.000,1.000
17.586,5.167,8.193,3.792,2.778,-0.856,-2.178,-1.652,-0.023,0.933,-0.296,-0.153,-0.793,0.885,73.333,286876.000,1.000
18.376,3.715,6.793,3.861,1.745,-0.901,-2.689,-3.536,-0.021,0.936,-0.293,-0.244,-0.824,0.671,73.333,286877.000,1.000
19.002,2.483,5.613,4.044,1.664,-0.441,-2.266,-3.707,-0.021,0.937,-0.295,-0.183,-0.916,0.488,73.333,286878.000,1.000
18.553,1.414,4.361,3.884,2.076,0.352,-1.254,-2.716,-0.021,0.937,-0.296,-0.153,-1.068,0.458,73.333,286879.000,1.000
16.583,0.535,2.827,3.021,2.433,1.354,-0.158,-1.373,-0.020,0.938,-0.298,-0.183,-1.221,0.336,73.333,286880.000,1.000
13.437,0.158,1.424,1.565,2.692,2.674,1.118,0.258,-0.020,0.937,-0.297,-0.336,-1.343,0.214,73.333,286881.000,1.000
10.089,0.702,0.669,0.012,3.270,4.423,2.904,2.693,-0.018,0.937,-0.298,-0.366,-1.434,0.183,73.333,286882.000,1.000
7.653,2.359,1.232,-1.014,4.572,6.572,5.362,6.204,-0.016,0.937,-0.294,-0.275,-1.495,0.183,73.333,286883.000,1.000
6.790,4.853,3.306,-1.158,6.522,8.930,8.033,10.148,-0.018,0.937,-0.294,-0.397,-1.465,0.153,73.333,286884.000,1.000
7.438,7.555,6.296,-0.468,8.513,10.980,9.866,13.148,-0.017,0.937,-0.297,-0.305,-1.526,0.214,73.333,286885.000,1.000
9.013,9.840,9.457,0.851,9.789,11.889,9.850,13.886,-0.013,0.937,-0.296,-0.336,-1.526,0.214,73.333,286886.000,1.000
10.745,11.340,11.981,2.605,9.934,11.120,7.469,11.820,-0.013,0.939,-0.299,-0.397,-1.465,0.397,73.333,286887.000,1.000
12.055,12.095,13.705,4.767,9.165,9.244,3.474,7.694,-0.015,0.937,-0.295,-0.458,-1.526,0.397,73.333,286888.000,1.000
12.752,12.475,14.880,7.403,8.248,7.752,-0.349,3.360,-0.014,0.937,-0.296,-0.458,-1.465,0.488,73.333,286889.000,1.000
12.991,12.792,15.640,10.453,7.887,7.583,-2.596,0.727,-0.014,0.937,-0.297,-0.641,-1.648,0.610,73.333,286890.000,1.000
12.998,12.883,15.895,13.442,7.909,8.025,-3.479,0.189,-0.017,0.937,-0.295,-0.671,-1.587,0.732,73.333,286891.000,1.000
12.866,12.259,15.056,15.467,7.378,7.554,-4.496,0.356,-0.016,0.937,-0.298,-0.702,-1.648,0.763,73.333,286892.000,1.000
12.753,10.773,13.139,15.968,5.767,5.601,-6.253,-0.082,-0.017,0.936,-0.298,-0.763,-1.648,0.854,73.333,286893.000,1.000
12.926,8.863,10.807,15.094,3.508,2.969,-7.775,-1.206,-0.018,0.936,-0.293,-0.793,-1.770,0.793,73.333,286894.000,1.000
13.526,7.213,8.727,13.389,1.427,0.895,-7.743,-2.419,-0.018,0.936,-0.294,-0.793,-1.678,0.854,73.333,286895.000,1.000
14.455,6.363,7.513,11.494,0.140,0.124,-5.705,-3.026,-0.018,0.937,-0.295,-0.793,-1.617,0.854,73.333,286896.000,1.000
15.472,6.474,7.280,9.909,-0.187,0.562,-2.572,-2.600,-0.014,0.937,-0.295,-0.793,-1.648,0.824,73.333,286897.000,1.000
16.340,7.255,7.912,8.857,0.106,1.411,0.140,-1.365,-0.014,0.937,-0.294,-0.946,-1.556,0.854,73.333,286898.000,1.000
16.794,7.966,8.748,8.126,0.290,1.627,1.108,-0.338,-0.013,0.937,-0.297,-1.038,-1.678,0.854,73.333,286899.000,1.000
16.554,7.766,8.735,7.269,-0.221,0.610,0.034,-0.418,-0.013,0.938,-0.297,-1.068,-1.648,0.854,73.333,286900.000,1.000
15.499,6.300,7.403,6.053,-1.340,-1.294,-1.837,-1.339,-0.013,0.938,-0.295,-1.068,-1.678,0.824,73.333,286901.000,1.000
13.761,3.968,4.876,4.573,-2.417,-3.080,-2.774,-1.991,-0.013,0.938,-0.294,-1.190,-1.526,0.824,73.333,286902.000,1.000
11.746,1.756,2.135,3.165,-2.725,-3.828,-1.742,-1.477,-0.013,0.933,-0.297,-1.129,-1.526,0.732,73.333,286903.000,1.000
10.045,0.795,0.349,2.137,-1.854,-3.091,0.988,0.056,-0.015,0.934,-0.295,-1.221,-1.526,0.732,73.333,286904.000,1.000
9.178,1.803,0.145,1.608,0.134,-0.864,4.261,1.552,-0.014,0.933,-0.296,-1.129,-1.465,0.671,73.333,286905.000,1.000
9.232,4.644,1.537,1.573,2.722,2.325,6.932,2.000,-0.014,0.933,-0.295,-1.129,-1.495,0.488,73.333,286906.000,1.000
9.721,8.302,3.607,1.910,5.177,5.275,8.147,1.261,-0.013,0.932,-0.297,-1.038,-1.404,0.519,73.333,286907.000,1.000
9.947,11.422,5.399,2.481,6.969,6.643,7.743,0.205,-0.016,0.931,-0.299,-1.099,-1.495,0.366,73.333,286908.000,1.000
9.391,12.941,6.284,3.038,7.951,5.855,6.186,-0.088,-0.016,0.931,-0.300,-1.007,-1.465,0.305,73.333,286909.000,1.000
7.948,12.494,6.099,3.284,8.301,3.539,4.372,0.912,-0.017,0.932,-0.300,-0.946,-1.343,0.275,73.333,286910.000,1.000
5.999,10.444,5.401,3.119,8.347,1.086,3.420,3.038,-0.019,0.931,-0.298,-0.885,-1.404,0.183,73.333,286911.000,1.000
4.162,7.511,4.623,2.639,8.379,-0.235,3.871,5.626,-0.018,0.932,-0.297,-0.854,-1.373,0.153,73.333,286912.000,1.000
2.919,4.339,3.981,2.084,8.464,0.033,5.355,7.912,-0.018,0.932,-0.296,-0.671,-1.495,0.122,73.333,286913.000,1.000
2.344,1.285,3.302,1.614,8.336,1.374,6.631,9.066,-0.018,0.932,-0.297,-0.702,-1.434,0.061,73.333,286914.000,1.000
2.223,-1.436,2.340,1.305,7.653,2.749,6.465,8.501,-0.018,0.933,-0.297,-0.580,-1.434,0.031,73.333,286915.000,1.000
2.409,-3.470,1.491,1.411,6.502,3.321,4.843,6.651,-0.017,0.934,-0.297,-0.641,-1.465,-0.061,73.333,286916.000,1.000
2.943,-4.355,1.265,2.259,5.495,2.936,2.833,4.902,-0.017,0.935,-0.296,-0.641,-1.404,-0.092,73.333,286917.000,1.000
3.890,-3.823,2.068,3.948,5.224,1.970,1.651,4.452,-0.017,0.936,-0.295,-0.641,-1.404,-0.031,73.333,286918.000,1.000
5.149,-2.038,3.655,6.097,5.726,0.779,1.567,5.338,-0.019,0.936,-0.293,-0.732,-1.434,0.061,73.333,286919.000,1.000
6.535,0.559,5.232,8.072,6.652,-0.436,1.978,6.911,-0.018,0.938,-0.295,-0.793,-1.495,0.031,73.333,286920.000,1.000
7.878,3.457,6.234,9.369,7.640,-1.382,2.267,8.575,-0.019,0.938,-0.293,-0.793,-1.556,0.153,73.333,286921.000,1.000
8.863,6.021,6.140,9.627,8.349,-1.745,1.996,9.732,-0.021,0.940,-0.297,-0.946,-1.648,0.183,73.333,286922.000,1.000
9.077,7.647,5.014,8.778,8.511,-1.368,1.307,9.920,-0.020,0.940,-0.297,-0.977,-1.526,0.275,73.333,286923.000,1.000
8.407,8.177,3.440,7.179,8.163,-0.200,0.993,9.221,-0.018,0.941,-0.296,-1.038,-1.556,0.305,73.333,286924.000,1.000
7.314,8.116,2.168,5.514,7.709,1.795,1.882,8.232,-0.016,0.941,-0.296,-1.068,-1.434,0.336,73.333,286925.000,1.000
6.551,8.340,1.967,4.413,7.606,4.446,3.937,7.466,-0.018,0.940,-0.296,-1.160,-1.617,0.427,73.333,286926.000,1.000
6.593,9.517,2.888,4.048,8.018,7.140,5.898,6.944,-0.019,0.941,-0.297,-1.251,-1.617,0.458,73.333,286927.000,1.000
7.482,11.812,4.719,4.289,8.862,9.067,6.563,6.616,-0.018,0.941,-0.295,-1.343,-1.556,0.580,73.333,286928.000,1.000
8.931,14.891,7.083,4.914,9.989,9.811,5.739,6.628,-0.019,0.940,-0.293,-1.465,-1.617,0.610,73.333,286929.000,1.000
10.423,18.051,9.458,5.730,11.336,9.649,4.296,7.331,-0.018,0.939,-0.293,-1.434,-1.587,0.732,73.333,286930.000,1.000
11.296,20.397,11.488,6.560,12.769,9.145,3.506,8.898,-0.020,0.938,-0.294,-1.526,-1.587,0.702,73.333,286931.000,1.000
10.913,21.058,12.474,6.962,13.742,8.574,3.737,10.570,-0.017,0.938,-0.293,-1.617,-1.526,0.732,73.333,286932.000,1.000
9.021,19.617,11.914,6.461,13.555,7.956,4.575,11.111,-0.017,0.938,-0.295,-1.678,-1.587,0.824,73.333,286933.000,1.000
5.966,16.369,9.813,4.960,12.010,7.410,5.608,10.010,-0.018,0.937,-0.291,-1.709,-1.526,0.854,73.333,286934.000,1.000
2.576,12.163,6.739,2.859,9.608,7.173,6.729,7.920,-0.019,0.937,-0.291,-1.526,-1.617,0.824,73.333,286935.000,1.000
-0.220,7.923,3.785,0.784,7.110,7.229,8.020,6.014,-0.018,0.936,-0.293,-1.587,-1.526,0.885,73.333,286936.000,1.000
-1.954,4.067,1.516,-0.962,4.808,6.813,8.958,4.778,-0.018,0.937,-0.295,-1.709,-1.495,0.824,73.333,286937.000,1.000
-2.785,0.445,-0.073,-2.492,2.225,4.575,8.216,3.548,-0.018,0.936,-0.293,-1.617,-1.465,0.824,73.333,286938.000,1.000
-3.199,-3.155,-1.403,-4.016,-1.244,-0.248,4.531,1.229,-0.016,0.936,-0.293,-1.617,-1.617,0.763,73.333,286939.000,1.000
-3.579,-6.421,-2.822,-5.378,-5.319,-6.669,-1.721,-2.404,-0.016,0.934,-0.293,-1.587,-1.526,0.854,73.333,286940.000,1.000
-4.032,-8.527,-4.007,-5.953,-8.659,-12.148,-8.074,-6.180,-0.017,0.934,-0.296,-1.556,-1.556,0.793,73.333,286941.000,1.000
-4.509,-8.730,-4.606,-5.122,-9.733,-14.096,-11.534,-8.193,-0.015,0.934,-0.295,-1.556,-1.495,0.793,73.333,286942.000,1.000
-4.839,-6.828,-4.250,-2.604,-7.710,-11.254,-10.012,-6.701,-0.017,0.934,-0.292,-1.495,-1.434,0.793,73.333,286943.000,1.000
-4.837,-3.358,-3.043,1.167,-3.108,-4.456,-3.743,-1.635,-0.015,0.935,-0.292,-1.526,-1.465,0.763,73.333,286944.000,1.000
-4.575,0.361,-1.872,4.877,1.982,3.150,3.939,4.367,-0.015,0.935,-0.293,-1.434,-1.282,0.824,73.333,286945.000,1.000
-4.396,2.763,-1.613,6.998,4.967,7.555,8.543,7.616,-0.014,0.934,-0.293,-1.434,-1.312,0.732,73.333,286946.000,1.000
-4.596,3.044,-2.717,6.805,4.620,6.819,7.816,6.359,-0.015,0.934,-0.295,-1.282,-1.282,0.824,73.333,286947.000,1.000
-5.125,1.653,-4.611,4.858,1.762,2.286,3.229,1.844,-0.014,0.935,-0.292,-1.312,-1.160,0.854,73.333,286948.000,1.000
-5.732,-0.312,-6.312,2.383,-1.789,-3.163,-2.148,-3.290,-0.013,0.934,-0.291,-1.373,-0.977,0.946,73.333,286949.000,1.000
-6.232,-1.888,-7.126,0.425,-4.475,-7.144,-6.056,-6.847,-0.015,0.935,-0.290,-1.221,-1.038,0.916,73.333,286950.000,1.000
-6.558,-2.496,-6.601,-0.507,-5.484,-8.310,-7.334,-7.773,-0.015,0.934,-0.293,-1.251,-0.946,0.916,73.333,286951.000,1.000
-6.670,-1.867,-4.912,-0.484,-4.693,-6.271,-5.723,-6.264,-0.015,0.935,-0.290,-1.373,-0.946,0.916,73.333,286952.000,1.000
-6.519,-0.068,-2.435,0.085,-2.600,-1.889,-1.988,-3.487,-0.015,0.935,-0.290,-1.221,-0.854,0.946,73.333,286953.000,1.000
-6.237,2.312,0.204,0.625,-0.197,2.716,1.898,-1.025,-0.015,0.936,-0.294,-1.129,-0.671,0.916,73.333,286954.000,1.000
-6.039,4.457,2.292,0.800,1.709,5.594,4.105,0.189,-0.014,0.935,-0.293,-1.160,-0.671,0.854,73.333,286955.000,1.000
-5.777,5.961,3.805,0.952,3.178,6.571,4.750,0.649,-0.016,0.938,-0.295,-1.160,-0.671,0.885,73.333,286956.000,1.000
-4.946,6.888,5.063,1.740,4.863,6.918,5.366,1.634,-0.015,0.936,-0.294,-1.068,-0.641,0.885,73.333,286957.000,1.000
-3.235,7.312,6.571,3.540,7.152,7.674,7.175,4.131,-0.018,0.937,-0.294,-1.160,-0.519,0.824,73.333,286958.000,1.000
-1.067,6.941,8.285,5.968,9.570,8.619,9.701,7.810,-0.017,0.936,-0.294,-1.160,-0.549,0.763,73.333,286959.000,1.000
0.541,5.329,9.360,7.966,10.881,8.705,11.085,10.669,-0.017,0.937,-0.296,-1.221,-0.580,0.732,73.333,286960.000,1.000
0.748,2.441,9.024,8.533,9.972,7.172,9.910,10.347,-0.018,0.937,-0.295,-1.160,-0.488,0.916,73.333,286961.000,1.000
-0.524,-1.064,6.918,7.374,6.773,4.160,6.273,6.143,-0.018,0.935,-0.294,-1.160,-0.427,0.946,73.333,286962.000,1.000
-2.633,-4.121,3.682,5.083,2.455,0.612,1.869,-0.062,-0.018,0.936,-0.296,-1.221,-0.549,0.793,73.333,286963.000,1.000
-4.702,-5.829,0.506,2.669,-1.192,-2.129,-0.975,-5.038,-0.017,0.937,-0.295,-1.068,-0.580,0.854,73.333,286964.000,1.000
-6.050,-5.848,-1.637,0.965,-2.773,-2.986,-0.719,-6.402,-0.018,0.938,-0.295,-1.038,-0.580,0.763,73.333,286965.000,1.000
-6.345,-4.439,-2.149,0.360,-1.944,-1.815,2.596,-3.865,-0.018,0.937,-0.292,-1.068,-0.580,0.732,73.333,286966.000,1.000
-5.678,-2.237,-1.268,0.701,0.628,0.667,7.483,0.907,-0.017,0.937,-0.295,-0.946,-0.702,0.732,73.333,286967.000,1.000
-4.539,0.073,0.359,1.422,3.641,3.554,12.060,5.131,-0.017,0.939,-0.294,-0.946,-0.732,0.732,73.333,286968.000,1.000
-3.668,1.911,1.754,1.747,5.624,6.019,14.666,6.176,-0.017,0.937,-0.295,-0.977,-0.702,0.702,73.333,286969.000,1.000
-3.672,2.963,2.041,1.253,5.710,7.182,14.382,3.492,-0.016,0.937,-0.296,-0.977,-0.702,0.793,73.333,286970.000,1.000
-4.643,3.319,1.336,0.250,4.108,6.493,11.680,-0.937,-0.016,0.935,-0.295,-1.038,-0.793,0.793,73.333,286971.000,1.000
-6.160,3.344,0.237,-0.741,1.702,4.360,7.923,-4.749,-0.016,0.935,-0.293,-0.946,-0.793,0.793,73.333,286972.000,1.000
-7.585,3.336,-0.533,-1.521,-0.750,1.776,4.244,-7.027,-0.016,0.935,-0.294,-1.007,-0.793,0.824,73.333,286973.000,1.000
-8.453,3.309,-0.768,-2.243,-2.926,-0.681,0.823,-8.021,-0.015,0.935,-0.293,-0.854,-0.793,0.732,73.333,286974.000,1.000
-8.626,3.078,-0.868,-3.022,-4.627,-2.933,-2.395,-7.902,-0.016,0.934,-0.291,-0.763,-0.854,0.824,73.333,286975.000,1.000
-8.251,2.427,-1.144,-3.714,-5.576,-4.786,-4.835,-6.475,-0.015,0.934,-0.295,-0.763,-0.854,0.793,73.333,286976.000,1.000
-7.621,1.244,-1.778,-4.111,-5.564,-5.695,-5.769,-3.824,-0.017,0.936,-0.294,-0.702,-0.885,0.824,73.333,286977.000,1.000
-6.921,-0.295,-2.340,-3.974,-4.526,-5.085,-4.720,-0.492,-0.018,0.935,-0.294,-0.702,-0.885,0.885,73.333,286978.000,1.000
-6.167,-1.876,-2.269,-3.249,-2.734,-3.080,-2.010,2.566,-0.018,0.935,-0.295,-0.702,-0.977,0.885,73.333,286979.000,1.000
-5.384,-3.350,-1.615,-2.292,-1.008,-0.933,0.874,4.177,-0.018,0.934,-0.293,-0.671,-0.977,0.793,73.333,286980.000,1.000
-4.772,-4.785,-0.914,-1.725,-0.408,-0.348,2.022,3.522,-0.019,0.935,-0.294,-0.671,-1.007,0.763,73.333,286981.000,1.000
-4.682,-6.253,-1.046,-2.016,-1.446,-2.096,0.403,0.765,-0.018,0.935,-0.293,-0.488,-0.946,0.854,73.333,286982.000,1.000
-5.254,-7.550,-2.182,-2.959,-3.489,-5.251,-2.868,-2.512,-0.017,0.935,-0.291,-0.488,-0.977,0.854,73.333,286983.000,1.000
-6.211,-8.207,-3.719,-3.798,-5.089,-7.665,-4.971,-4.096,-0.016,0.936,-0.292,-0.366,-1.099,0.824,73.333,286984.000,1.000
-7.053,-7.802,-4.939,-3.870,-5.011,-7.206,-3.371,-2.730,-0.014,0.935,-0.288,-0.397,-1.160,0.732,73.333,286985.000,1.000
-7.413,-6.310,-5.346,-3.049,-3.099,-3.185,2.283,1.049,-0.015,0.936,-0.290,-0.427,-1.129,0.793,73.333,286986.000,1.000
-7.265,-4.272,-5.277,-1.889,-0.471,2.820,9.492,5.036,-0.016,0.937,-0.292,-0.458,-1.068,0.793,73.333,286987.000,1.000
-6.789,-2.453,-5.255,-1.182,1.233,7.890,14.810,6.682,-0.018,0.938,-0.292,-0.397,-1.160,0.916,73.333,286988.000,1.000
-6.090,-1.200,-5.494,-1.310,1.177,10.092,16.510,4.964,-0.016,0.939,-0.293,-0.458,-1.129,0.916,73.333,286989.000,1.000
-5.120,-0.281,-5.883,-2.018,-0.201,9.653,15.211,0.932,-0.017,0.939,-0.290,-0.519,-1.251,0.824,73.333,286990.000,1.000
-4.018,0.517,-6.158,-2.889,-2.050,7.836,12.340,-3.645,-0.017,0.940,-0.291,-0.458,-1.221,0.763,73.333,286991.000,1.000
-3.335,1.007,-6.538,-3.789,-3.794,5.659,8.901,-7.410,-0.015,0.938,-0.291,-0.458,-1.312,0.824,73.333,286992.000,1.000
-3.633,1.013,-7.039,-4.565,-4.883,3.901,6.060,-9.109,-0.017,0.938,-0.293,-0.488,-1.312,0.824,73.333,286993.000,1.000
-5.085,0.703,-7.319,-4.897,-4.636,3.310,5.246,-7.512,-0.015,0.937,-0.293,-0.488,-1.251,0.793,73.333,286994.000,1.000
-7.452,0.424,-7.133,-4.624,-2.691,4.336,7.328,-2.270,-0.015,0.937,-0.289,-0.580,-1.373,0.824,73.333,286995.000,1.000
-10.304,0.324,-6.501,-4.164,0.319,6.649,11.668,4.949,-0.014,0.938,-0.292,-0.641,-1.373,0.763,73.333,286996.000,1.000
-13.222,0.145,-6.103,-4.492,2.752,8.979,15.691,10.581,-0.014,0.937,-0.294,-0.732,-1.282,0.793,73.333,286997.000,1.000
-15.749,-0.498,-6.451,-6.193,3.120,9.846,16.791,11.718,-0.014,0.937,-0.294,-0.671,-1.373,0.793,73.333,286998.000,1.000
-17.421,-1.726,-7.496,-8.876,1.262,8.687,14.497,8.287,-0.015,0.937,-0.292,-0.763,-1.373,0.793,73.333,286999.000,1.000
-17.945,-3.308,-8.772,-11.557,-1.745,6.199,10.362,2.464,-0.015,0.936,-0.295,-0.610,-1.404,0.732,73.333,287000.000,1.000
-17.306,-4.861,-9.460,-13.295,-4.481,3.603,6.397,-3.126,-0.015,0.936,-0.292,-0.793,-1.282,0.793,73.333,287001.000,1.000
-15.773,-6.090,-9.086,-13.511,-5.909,1.745,3.764,-6.542,-0.016,0.937,-0.292,-0.732,-1.312,0.732,73.333,287002.000,1.000
-13.773,-6.819,-7.492,-11.988,-5.652,0.940,2.852,-6.877,-0.016,0.937,-0.295,-0.824,-1.312,0.732,73.333,287003.000,1.000
-11.718,-6.931,-5.020,-8.953,-3.985,1.324,3.601,-4.433,-0.016,0.935,-0.294,-0.671,-1.251,0.763,73.333,287004.000,1.000
-9.791,-6.339,-2.398,-4.974,-1.526,2.960,5.697,-0.257,-0.016,0.935,-0.294,-0.702,-1.282,0.641,73.333,287005.000,1.000
-7.965,-5.154,-0.140,-0.868,0.927,5.317,8.349,4.243,-0.014,0.935,-0.294,-0.732,-1.129,0.610,73.333,287006.000,1.000
-6.313,-3.881,1.119,2.171,2.269,6.844,9.607,6.983,-0.013,0.935,-0.295,-0.671,-1.221,0.549,73.333,287007.000,1.000
-5.038,-3.101,1.073,3.116,1.570,5.886,7.513,6.053,-0.014,0.935,-0.295,-0.702,-1.282,0.549,73.333,287008.000,1.000
-4.284,-2.923,-0.051,1.876,-0.986,2.337,2.059,1.476,-0.016,0.936,-0.295,-0.763,-1.251,0.610,73.333,287009.000,1.000
-4.025,-2.864,-1.586,-0.513,-3.899,-1.828,-4.367,-4.312,-0.015,0.935,-0.293,-0.671,-1.251,0.580,73.333,287010.000,1.000
-4.081,-2.232,-2.482,-2.444,-5.258,-3.755,-8.339,-7.979,-0.016,0.935,-0.290,-0.519,-1.251,0.519,73.333,287011.000,1.000
-4.244,-0.721,-2.285,-2.823,-4.080,-1.801,-7.889,-7.709,-0.017,0.935,-0.292,-0.580,-1.221,0.549,73.333,287012.000,1.000
-4.320,1.265,-1.191,-1.668,-1.022,3.046,-3.982,-4.370,-0.017,0.937,-0.292,-0.610,-1.312,0.427,73.333,287013.000,1.000
-4.143,2.805,0.165,0.119,2.131,7.810,0.119,-0.626,-0.018,0.937,-0.293,-0.671,-1.373,0.336,73.333,287014.000,1.000
-3.590,3.164,1.139,1.567,3.816,9.898,1.509,1.174,-0.018,0.935,-0.293,-0.580,-1.312,0.336,73.333,287015.000,1.000
-2.639,2.392,1.682,2.299,3.777,8.904,0.091,0.780,-0.017,0.934,-0.296,-0.580,-1.373,0.336,73.333,287016.000,1.000
-1.474,1.247,1.931,2.443,3.045,6.442,-1.858,0.013,-0.016,0.936,-0.295,-0.458,-1.343,0.305,73.333,287017.000,1.000
-0.514,0.581,2.102,2.144,2.811,4.581,-2.131,0.781,-0.017,0.938,-0.294,-0.519,-1.404,0.214,73.333,287018.000,1.000
-0.357,0.662,2.048,1.091,3.185,4.128,-0.734,2.816,-0.018,0.938,-0.295,-0.610,-1.373,0.366,73.333,287019.000,1.000
-1.395,1.138,1.372,-1.116,3.369,4.349,0.674,4.140,-0.017,0.938,-0.294,-0.702,-1.465,0.305,73.333,287020.000,1.000
-3.347,1.638,0.348,-4.062,3.001,4.385,1.129,3.730,-0.018,0.938,-0.293,-0.671,-1.526,0.275,73.333,287021.000,1.000
-5.387,2.096,-0.384,-6.496,2.706,4.361,1.169,2.566,-0.018,0.936,-0.292,-0.793,-1.526,0.305,73.333,287022.000,1.000
-6.771,2.430,-0.313,-7.285,3.112,4.708,1.743,1.985,-0.020,0.936,-0.293,-0.763,-1.434,0.305,73.333,287023.000,1.000
-7.446,2.066,0.133,-6.488,3.703,4.876,2.472,1.627,-0.020,0.937,-0.294,-0.763,-1.587,0.305,73.333,287024.000,1.000
-7.998,0.166,-0.285,-5.300,3.108,3.415,1.521,-0.187,-0.019,0.938,-0.292,-0.732,-1.678,0.275,73.333,287025.000,1.000
-9.001,-3.534,-2.262,-4.901,0.446,-0.675,-2.465,-4.239,-0.019,0.938,-0.293,-0.763,-1.678,0.336,73.333,287026.000,1.000
-10.464,-8.253,-5.554,-5.560,-3.820,-6.753,-8.749,-9.235,-0.018,0.938,-0.293,-0.793,-1.587,0.397,73.333,287027.000,1.000
-11.748,-12.486,-8.879,-6.517,-8.030,-12.522,-14.354,-12.458,-0.016,0.936,-0.293,-0.702,-1.648,0.458,73.333,287028.000,1.000
-12.018,-14.875,-10.808,-6.736,-10.316,-15.383,-15.935,-11.685,-0.018,0.938,-0.296,-0.763,-1.678,0.519,73.333,287029.000,1.000
-10.847,-14.952,-10.746,-5.771,-9.773,-14.122,-12.184,-6.907,-0.018,0.937,-0.295,-0.763,-1.709,0.488,73.333,287030.000,1.000
-8.466,-13.279,-8.890,-4.004,-7.033,-9.724,-4.894,-0.368,-0.017,0.936,-0.293,-0.824,-1.587,0.519,73.333,287031.000,1.000
-5.649,-11.098,-6.355,-2.455,-3.954,-4.816,1.760,4.677,-0.017,0.935,-0.293,-0.763,-1.648,0.671,73.333,287032.000,1.000
-3.301,-9.602,-4.402,-2.125,-2.480,-1.900,4.048,5.784,-0.016,0.933,-0.296,-0.702,-1.648,0.610,73.333,287033.000,1.000
-1.917,-9.214,-3.751,-3.237,-3.343,-1.699,1.260,2.730,-0.016,0.934,-0.295,-0.671,-1.678,0.732,73.333,287034.000,1.000
-1.253,-9.445,-4.282,-5.018,-5.765,-3.141,-4.379,-2.612,-0.017,0.935,-0.293,-0.549,-1.648,0.732,73.333,287035.000,1.000
-0.560,-9.418,-5.051,-6.284,-8.269,-4.703,-9.687,-7.730,-0.017,0.935,-0.292,-0.610,-1.587,0.793,73.333,287036.000,1.000
0.821,-8.441,-5.180,-6.223,-9.453,-5.329,-12.324,-10.657,-0.017,0.936,-0.294,-0.610,-1.617,0.732,73.333,287037.000,1.000
3.083,-6.140,-3.968,-4.576,-8.279,-4.367,-11.113,-10.133,-0.017,0.936,-0.294,-0.671,-1.495,0.793,73.333,287038.000,1.000
5.849,-2.522,-1.262,-1.703,-4.502,-1.517,-6.332,-6.128,-0.019,0.937,-0.294,-0.641,-1.434,0.641,73.333,287039.000,1.000
8.352,1.925,2.198,1.414,0.919,2.948,0.222,-0.380,-0.019,0.937,-0.296,-0.641,-1.556,0.763,73.333,287040.000,1.000
9.806,6.348,5.323,3.646,6.250,8.191,6.483,4.609,-0.016,0.937,-0.292,-0.610,-1.526,0.702,73.333,287041.000,1.000
9.698,9.852,6.979,4.253,9.972,13.064,11.153,7.276,-0.018,0.937,-0.291,-0.549,-1.617,0.671,73.333,287042.000,1.000
7.885,11.769,6.677,3.182,11.418,16.464,13.834,7.782,-0.017,0.937,-0.295,-0.793,-1.556,0.641,73.333,287043.000,1.000
4.547,11.703,4.530,0.807,10.683,17.656,14.456,7.309,-0.015,0.937,-0.295,-0.824,-1.495,0.641,73.333,287044.000,1.000
0.127,9.443,0.869,-2.562,8.024,16.104,12.705,6.548,-0.015,0.937,-0.292,-0.732,-1.526,0.671,73.333,287045.000,1.000
-4.704,4.925,-3.796,-6.902,3.355,11.094,7.853,4.697,-0.018,0.937,-0.291,-0.854,-1.526,0.641,73.333,287046.000,1.000
-9.065,-1.435,-9.003,-12.096,-3.271,2.564,-0.411,0.479,-0.016,0.936,-0.292,-0.824,-1.465,0.610,73.333,287047.000,1.000
-11.840,-8.247,-13.678,-17.182,-10.608,-7.493,-10.230,-5.600,-0.017,0.935,-0.292,-0.824,-1.404,0.671,73.333,287048.000,1.000
-12.096,-13.549,-16.428,-20.616,-16.487,-15.706,-18.198,-11.259,-0.016,0.934,-0.295,-0.824,-1.312,0.610,73.333,287049.000,1.000
-9.726,-15.899,-16.600,-21.259,-19.203,-19.575,-21.884,-14.409,-0.015,0.931,-0.293,-0.763,-1.251,0.610,73.333,287050.000,1.000
-5.517,-14.977,-14.408,-18.840,-18.203,-18.457,-20.638,-14.090,-0.014,0.930,-0.294,-0.641,-1.221,0.610,73.333,287051.000,1.000
-0.702,-11.594,-10.907,-13.996,-14.087,-13.273,-15.267,-10.547,-0.013,0.933,-0.294,-0.580,-1.068,0.732,73.333,287052.000,1.000
3.511,-7.446,-7.336,-8.129,-8.605,-6.472,-8.127,-5.338,-0.014,0.934,-0.294,-0.458,-1.190,0.702,73.333,287053.000,1.000
6.295,-4.443,-4.723,-2.898,-4.011,-1.367,-2.646,-0.652,-0.016,0.935,-0.297,-0.519,-1.221,0.763,73.333,287054.000,1.000
7.515,-3.583,-3.531,0.678,-1.618,0.065,-0.982,2.323,-0.021,0.933,-0.296,-0.488,-1.129,0.763,73.333,287055.000,1.000
7.660,-4.458,-3.298,2.594,-1.217,-1.527,-2.534,3.762,-0.021,0.934,-0.295,-0.580,-1.068,0.732,73.333,287056.000,1.000
7.330,-5.860,-3.378,3.353,-1.916,-4.175,-5.468,3.890,-0.022,0.935,-0.294,-0.397,-1.038,0.580,73.333,287057.000,1.000
6.924,-6.618,-3.178,3.557,-2.903,-6.334,-8.238,2.652,-0.021,0.935,-0.295,-0.397,-1.038,0.580,73.333,287058.000,1.000
6.605,-6.057,-2.425,3.693,-3.565,-7.228,-9.762,0.480,-0.019,0.934,-0.293,-0.427,-0.977,0.519,73.333,287059.000,1.000
6.372,-4.142,-1.279,3.954,-3.563,-6.593,-9.401,-1.584,-0.017,0.937,-0.292,-0.458,-1.068,0.488,73.333,287060.000,1.000
6.165,-1.359,0.125,4.232,-2.985,-4.716,-7.246,-2.665,-0.015,0.941,-0.294,-0.366,-1.160,0.427,73.333,287061.000,1.000
5.960,1.667,1.647,4.304,-2.148,-2.237,-4.131,-2.511,-0.013,0.942,-0.293,-0.458,-1.129,0.397,73.333,287062.000,1.000
5.846,4.547,3.424,4.216,-1.194,0.349,-0.792,-1.105,-0.014,0.941,-0.296,-0.488,-0.977,0.397,73.333,287063.000,1.000
5.877,7.066,5.451,4.220,-0.157,2.647,2.246,1.351,-0.013,0.940,-0.296,-0.671,-0.916,0.610,73.333,287064.000,1.000
5.945,9.025,7.236,4.475,0.828,4.155,4.280,4.259,-0.010,0.940,-0.293,-0.854,-0.946,0.610,73.333,287065.000,1.000
5.907,10.334,8.407,5.019,1.688,4.554,4.822,6.992,-0.011,0.937,-0.291,-1.038,-0.824,0.732,73.333,287066.000,1.000
5.714,11.053,8.773,5.746,2.527,4.011,3.992,9.167,-0.014,0.934,-0.292,-1.007,-0.702,0.824,73.333,287067.000,1.000
5.443,11.280,8.500,6.422,3.432,3.038,2.646,10.657,-0.015,0.929,-0.294,-1.068,-0.610,0.916,73.333,287068.000,1.000
5.220,11.072,7.858,6.739,4.285,2.182,1.872,11.461,-0.017,0.929,-0.295,-0.946,-0.610,0.854,73.333,287069.000,1.000
5.166,10.518,6.982,6.566,4.943,1.917,2.442,11.828,-0.018,0.928,-0.294,-0.793,-0.671,0.854,73.333,287070.000,1.000
5.346,9.765,6.112,6.188,5.485,2.670,4.755,12.420,-0.020,0.933,-0.296,-0.702,-0.641,1.007,73.333,287071.000,1.000
5.630,8.724,5.178,5.898,5.921,4.456,8.328,13.595,-0.017,0.937,-0.300,-0.610,-0.763,0.946,73.333,287072.000,1.000
5.669,6.938,3.900,5.449,5.649,6.358,11.346,14.431,-0.018,0.939,-0.298,-0.610,-0.793,0.977,73.333,287073.000,1.000
5.103,3.957,1.904,4.089,3.698,6.910,11.362,12.957,-0.017,0.943,-0.297,-0.793,-0.824,1.038,73.333,287074.000,1.000
3.831,-0.105,-1.080,1.321,-0.235,5.288,7.245,7.981,-0.017,0.940,-0.297,-0.854,-0.671,1.068,73.333,287075.000,1.000
2.032,-4.597,-4.792,-2.514,-5.293,1.704,0.216,0.541,-0.017,0.938,-0.296,-0.977,-0.610,1.160,73.333,287076.000,1.000
-0.018,-8.845,-8.823,-6.552,-10.102,-3.219,-7.455,-6.911,-0.019,0.936,-0.297,-0.946,-0.702,1.099,73.333,287077.000,1.000
-1.992,-12.312,-12.482,-9.837,-13.462,-8.563,-13.700,-12.189,-0.022,0.935,-0.299,-0.824,-0.854,1.007,73.333,287078.000,1.000
-3.527,-14.413,-14.886,-11.565,-14.520,-12.673,-16.860,-14.104,-0.022,0.937,-0.295,-0.854,-0.824,0.885,73.333,287079.000,1.000
-4.410,-14.682,-15.525,-11.422,-13.081,-13.763,-16.090,-12.682,-0.023,0.939,-0.292,-0.916,-0.854,0.763,73.333,287080.000,1.000
-4.792,-13.319,-14.559,-9.901,-10.101,-11.657,-12.293,-9.439,-0.021,0.941,-0.296,-0.885,-1.007,0.580,73.333,287081.000,1.000
-5.055,-11.298,-12.954,-8.046,-7.354,-8.473,-8.328,-6.702,-0.023,0.943,-0.295,-0.946,-1.129,0.336,73.333,287082.000,1.000
-5.376,-9.671,-11.504,-6.526,-6.143,-6.993,-6.988,-5.819,-0.023,0.942,-0.291,-1.129,-1.312,0.244,73.333,287083.000,1.000
-5.655,-8.878,-10.356,-5.259,-6.433,-8.389,-8.801,-6.301,-0.022,0.945,-0.294,-1.343,-1.312,0.183,73.333,287084.000,1.000
-5.840,-8.625,-9.326,-3.845,-7.182,-11.615,-11.993,-6.551,-0.020,0.945,-0.294,-1.526,-1.282,0.031,73.333,287085.000,1.000
-6.105,-8.232,-8.090,-2.111,-7.269,-14.454,-14.027,-5.121,-0.020,0.942,-0.294,-1.740,-1.312,0.061,73.333,287086.000,1.000
-6.764,-7.119,-6.720,-0.352,-6.181,-14.814,-13.196,-1.697,-0.018,0.941,-0.292,-1.740,-1.465,0.031,73.333,287087.000,1.000
-8.053,-5.178,-5.486,0.901,-4.203,-11.831,-9.301,2.646,-0.017,0.941,-0.295,-1.770,-1.556,0.031,73.333,287088.000,1.000
-9.970,-2.941,-4.734,1.160,-2.273,-6.604,-3.795,5.895,-0.016,0.939,-0.293,-1.831,-1.526,0.092,73.333,287089.000,1.000
-12.151,-1.283,-4.765,0.274,-1.432,-1.619,0.922,6.271,-0.017,0.941,-0.292,-1.862,-1.465,0.153,73.333,287090.000,1.000
-13.948,-0.804,-5.383,-1.353,-2.120,0.936,2.955,3.409,-0.016,0.938,-0.292,-1.801,-1.465,0.275,73.333,287091.000,1.000
-14.831,-1.468,-6.272,-2.964,-3.888,0.440,1.808,-1.384,-0.017,0.936,-0.290,-1.862,-1.495,0.427,73.333,287092.000,1.000
-14.709,-2.683,-7.023,-3.798,-5.675,-2.078,-1.242,-5.832,-0.018,0.937,-0.290,-1.831,-1.465,0.519,73.333,287093.000,1.000
-13.884,-3.760,-7.259,-3.502,-6.497,-4.893,-4.042,-8.141,-0.021,0.934,-0.292,-1.862,-1.526,0.580,73.333,287094.000,1.000
-12.800,-4.336,-6.887,-2.338,-6.047,-6.679,-5.290,-8.086,-0.020,0.935,-0.290,-1.831,-1.465,0.671,73.333,287095.000,1.000
-11.776,-4.416,-5.870,-0.875,-4.619,-6.765,-4.914,-6.590,-0.020,0.935,-0.294,-1.740,-1.526,0.763,73.333,287096.000,1.000
-10.752,-4.021,-4.254,0.611,-2.400,-4.637,-2.938,-4.206,-0.021,0.935,-0.290,-1.709,-1.495,0.854,73.333,287097.000,1.000
-9.292,-3.019,-1.999,2.346,0.737,-0.048,1.127,-0.561,-0.021,0.935,-0.292,-1.678,-1.526,0.824,73.333,287098.000,1.000
-7.202,-1.680,0.457,4.233,4.218,5.723,6.336,3.760,-0.021,0.932,-0.291,-1.617,-1.617,0.916,73.333,287099.000,1.000
-4.972,-1.008,1.965,5.384,6.332,9.615,9.250,6.225,-0.020,0.932,-0.295,-1.587,-1.556,0.916,73.333,287100.000,1.000
-3.331,-1.959,1.799,5.037,5.703,8.880,6.933,4.836,-0.019,0.932,-0.291,-1.495,-1.617,0.916,73.333,287101.000,1.000
-2.641,-4.572,0.127,3.326,2.647,3.291,0.001,0.331,-0.017,0.931,-0.289,-1.495,-1.648,0.916,73.333,287102.000,1.000
-2.829,-7.976,-2.075,1.048,-1.199,-4.825,-7.884,-4.603,-0.015,0.932,-0.289,-1.404,-1.587,0.885,73.333,287103.000,1.000
-3.761,-11.068,-3.855,-1.103,-4.163,-12.214,-13.006,-7.524,-0.015,0.930,-0.290,-1.251,-1.526,0.946,73.333,287104.000,1.000
-5.413,-13.031,-5.006,-2.888,-5.324,-16.223,-13.730,-7.570,-0.014,0.931,-0.291,-1.221,-1.404,1.068,73.333,287105.000,1.000
-7.584,-13.448,-5.656,-4.257,-4.529,-15.521,-10.332,-5.333,-0.012,0.928,-0.289,-1.160,-1.373,1.068,73.333,287106.000,1.000
-9.657,-12.310,-5.987,-5.076,-2.159,-10.465,-4.313,-2.091,-0.013,0.929,-0.291,-0.977,-1.282,1.007,73.333,287107.000,1.000
-10.759,-9.984,-5.781,-4.979,1.123,-3.111,2.260,1.170,-0.013,0.929,-0.287,-0.854,-1.099,0.916,73.333,287108.000,1.000
-10.354,-7.129,-4.695,-3.587,4.564,3.665,7.521,4.172,-0.012,0.930,-0.294,-0.732,-1.099,0.854,73.333,287109.000,1.000
-8.704,-4.478,-2.921,-1.072,7.383,7.735,10.412,6.595,-0.013,0.927,-0.291,-0.519,-0.916,0.916,73.333,287110.000,1.000
-6.726,-2.482,-1.017,1.688,8.938,8.782,10.904,7.582,-0.016,0.930,-0.293,-0.427,-0.824,0.854,73.333,287111.000,1.000
-5.443,-1.193,0.280,3.660,9.065,7.919,9.601,6.644,-0.016,0.932,-0.292,-0.366,-0.732,0.793,73.333,287112.000,1.000
-5.504,-0.533,0.577,4.333,8.074,6.330,7.349,4.452,-0.017,0.934,-0.291,-0.427,-0.610,0.824,73.333,287113.000,1.000
-6.924,-0.512,-0.072,3.868,6.433,4.385,4.814,2.195,-0.014,0.933,-0.295,-0.305,-0.580,0.793,73.333,287114.000,1.000
-9.092,-1.176,-1.397,2.791,4.552,1.634,2.149,0.631,-0.016,0.933,-0.293,-0.275,-0.549,0.702,73.333,287115.000,1.000
-11.140,-2.555,-2.923,1.525,2.533,-2.832,-1.051,-0.505,-0.013,0.932,-0.292,-0.275,-0.549,0.732,73.333,287116.000,1.000
-12.421,-4.517,-4.351,0.138,0.153,-9.346,-5.469,-2.525,-0.013,0.933,-0.290,-0.183,-0.549,0.671,73.333,287117.000,1.000
-12.648,-6.466,-5.368,-1.234,-2.479,-16.280,-10.793,-6.262,-0.014,0.934,-0.291,-0.031,-0.488,0.702,73.333,287118.000,1.000
-11.811,-7.432,-5.565,-2.016,-4.276,-20.045,-14.680,-10.137,-0.014,0.933,-0.291,-0.092,-0.427,0.671,73.333,287119.000,1.000
-10.109,-6.730,-4.703,-1.477,-3.686,-17.320,-13.806,-10.615,-0.013,0.933,-0.293,0.031,-0.336,0.671,73.333,287120.000,1.000
-8.138,-4.854,-3.067,0.236,-0.653,-8.690,-7.461,-6.050,-0.013,0.934,-0.292,0.031,-0.275,0.610,73.333,287121.000,1.000
-6.975,-3.640,-2.042,1.396,2.155,0.143,-0.240,0.003,-0.014,0.933,-0.291,0.244,-0.244,0.610,73.333,287122.000,1.000
-7.178,-4.495,-2.644,0.387,1.886,3.315,2.218,2.288,-0.015,0.934,-0.291,0.305,-0.153,0.671,73.333,287123.000,1.000
-7.701,-6.479,-3.822,-1.967,-0.782,0.825,-0.073,0.477,-0.015,0.936,-0.291,0.336,-0.214,0.702,73.333,287124.000,1.000
-6.832,-7.387,-3.671,-3.356,-2.752,-2.889,-2.862,-1.550,-0.017,0.934,-0.293,0.427,-0.214,0.763,73.333,287125.000,1.000
-4.175,-6.383,-1.704,-2.823,-2.609,-4.679,-3.904,-1.764,-0.016,0.934,-0.294,0.519,-0.122,0.732,73.333,287126.000,1.000
-0.913,-4.538,0.705,-1.299,-1.445,-4.519,-4.128,-1.338,-0.020,0.933,-0.292,0.702,-0.153,0.763,73.333,287127.000,1.000
1.478,-3.517,1.988,-0.154,-0.953,-4.046,-4.922,-1.762,-0.020,0.933,-0.293,0.702,-0.275,0.702,73.333,287128.000,1.000
2.353,-4.292,1.510,-0.136,-2.037,-4.956,-6.919,-3.414,-0.021,0.934,-0.292,0.824,-0.336,0.641,73.333,287129.000,1.000
2.348,-6.247,-0.050,-0.775,-4.060,-7.360,-9.450,-5.308,-0.021,0.933,-0.292,1.007,-0.336,0.610,73.333,287130.000,1.000
2.917,-7.377,-0.762,-0.513,-5.020,-9.259,-10.304,-5.267,-0.023,0.933,-0.294,1.068,-0.427,0.488,73.333,287131.000,1.000
5.124,-5.776,0.935,1.849,-3.183,-8.192,-7.588,-1.778,-0.024,0.930,-0.294,1.099,-0.458,0.458,73.333,287132.000,1.000
8.822,-1.045,4.997,5.926,1.276,-3.528,-1.792,4.020,-0.020,0.927,-0.298,1.373,-0.610,0.397,73.333,287133.000,1.000
12.963,5.645,9.979,10.183,6.542,3.034,4.629,9.159,-0.020,0.927,-0.294,1.617,-0.702,0.427,73.333,287134.000,1.000
16.680,12.713,14.358,13.540,11.066,9.281,9.790,12.055,-0.019,0.928,-0.295,1.831,-0.824,0.275,73.333,287135.000,1.000
19.683,18.825,17.482,15.885,14.308,13.725,13.316,13.372,-0.017,0.929,-0.300,2.075,-0.763,0.336,73.333,287136.000,1.000
21.544,22.562,18.719,16.911,15.603,15.006,14.410,13.311,-0.019,0.931,-0.301,2.350,-0.732,0.427,73.333,287137.000,1.000
21.609,22.888,17.544,15.991,14.191,12.373,11.889,10.959,-0.019,0.930,-0.300,2.411,-0.732,0.458,73.333,287138.000,1.000
19.880,20.283,14.527,13.395,10.715,7.224,6.521,6.700,-0.020,0.927,-0.301,2.655,-0.793,0.427,73.333,287139.000,1.000
17.312,16.653,11.238,10.539,7.288,2.647,1.314,2.886,-0.018,0.923,-0.301,2.930,-1.007,0.336,73.333,287140.000,1.000
15.181,14.091,9.413,8.997,6.032,1.577,-0.396,1.994,-0.019,0.919,-0.301,3.143,-1.007,0.275,73.333,287141.000,1.000
14.199,13.568,9.655,9.292,7.621,5.235,2.690,4.623,-0.018,0.916,-0.302,3.418,-1.068,0.244,73.333,287142.000,1.000
13.972,14.207,10.959,10.312,10.465,11.698,8.346,8.523,-0.016,0.914,-0.303,3.876,-0.946,0.061,73.333,287143.000,1.000
13.394,13.941,11.322,10.012,11.467,16.182,11.756,9.634,-0.018,0.917,-0.303,4.303,-0.916,-0.061,73.333,287144.000,1.000
11.762,11.352,9.228,7.177,8.504,14.440,9.242,5.529,-0.020,0.920,-0.303,4.822,-0.977,-0.153,73.333,287145.000,1.000
9.496,6.932,5.115,2.661,2.448,6.494,1.758,-1.718,-0.021,0.927,-0.302,5.127,-1.038,-0.275,73.333,287146.000,1.000
7.878,2.708,0.958,-1.230,-3.402,-2.980,-5.680,-7.102,-0.020,0.930,-0.301,5.310,-1.160,-0.427,73.333,287147.000,1.000
8.061,0.651,-1.163,-2.614,-6.009,-8.163,-8.042,-7.309,-0.022,0.934,-0.296,5.310,-1.251,-0.458,73.333,287148.000,1.000
9.977,0.987,-0.746,-1.614,-5.082,-6.961,-4.571,-3.515,-0.023,0.937,-0.295,5.310,-1.312,-0.427,73.333,287149.000,1.000
12.213,2.032,0.727,-0.097,-2.988,-2.434,0.772,0.231,-0.025,0.938,-0.292,5.188,-1.465,-0.549,73.333,287150.000,1.000
13.258,1.978,1.637,0.296,-2.093,1.117,3.891,1.152,-0.023,0.938,-0.297,5.035,-1.617,-0.519,73.333,287151.000,1.000
12.773,0.593,1.687,-0.466,-2.652,2.192,4.223,-0.221,-0.022,0.936,-0.295,5.035,-1.617,-0.519,73.333,287152.000,1.000
11.418,-1.159,1.666,-1.425,-3.625,1.476,3.107,-1.928,-0.024,0.936,-0.299,4.913,-1.617,-0.458,73.333,287153.000,1.000
9.679,-2.628,2.003,-2.096,-4.508,-0.411,0.929,-3.181,-0.025,0.934,-0.300,4.822,-1.678,-0.427,73.333,287154.000,1.000
7.523,-3.893,2.168,-2.690,-5.450,-2.962,-2.333,-4.366,-0.024,0.933,-0.300,4.883,-1.740,-0.458,73.333,287155.000,1.000
5.222,-4.941,1.907,-3.207,-6.289,-5.223,-5.569,-5.636,-0.021,0.930,-0.302,4.913,-1.862,-0.458,73.333,287156.000,1.000
3.733,-5.227,1.769,-3.110,-6.357,-6.366,-7.262,-6.448,-0.020,0.930,-0.305,5.005,-1.953,-0.519,73.333,287157.000,1.000
3.837,-4.188,2.552,-1.951,-5.104,-6.111,-6.531,-5.950,-0.020,0.932,-0.307,5.066,-2.045,-0.458,73.333,287158.000,1.000
5.143,-1.995,4.232,-0.179,-2.766,-4.579,-3.389,-3.764,-0.018,0.931,-0.305,5.188,-2.106,-0.397,73.333,287159.000,1.000
6.294,0.417,5.639,0.924,-0.427,-2.294,1.049,-0.680,-0.018,0.931,-0.302,5.371,-2.136,-0.305,73.333,287160.000,1.000
6.334,2.341,5.814,0.458,0.832,-0.024,5.024,1.731,-0.021,0.934,-0.299,5.249,-2.167,-0.122,73.333,287161.000,1.000
5.598,4.095,4.949,-1.180,0.910,1.796,7.114,2.191,-0.021,0.930,-0.298,5.188,-2.258,0.061,73.333,287162.000,1.000
5.144,6.518,4.190,-2.667,0.689,3.355,7.169,0.741,-0.025,0.930,-0.300,5.127,-2.350,0.153,73.333,287163.000,1.000
5.595,9.756,4.466,-3.015,1.012,4.699,6.055,-1.408,-0.023,0.932,-0.303,5.127,-2.441,0.122,73.333,287164.000,1.000
6.589,12.777,5.482,-2.482,1.654,4.854,4.171,-3.424,-0.021,0.929,-0.303,5.188,-2.472,0.153,73.333,287165.000,1.000
7.192,14.215,6.253,-2.142,1.667,2.838,1.416,-5.381,-0.022,0.930,-0.303,5.127,-2.655,0.092,73.333,287166.000,1.000
6.847,13.592,6.066,-2.603,0.763,-0.414,-1.201,-6.829,-0.021,0.930,-0.302,5.127,-2.747,0.092,73.333,287167.000,1.000
5.999,11.641,5.204,-3.348,-0.242,-2.441,-1.367,-6.295,-0.023,0.931,-0.308,5.096,-2.777,0.153,73.333,287168.000,1.000
5.745,9.541,4.551,-3.517,-0.596,-1.786,1.964,-3.442,-0.024,0.930,-0.309,5.157,-2.716,0.122,73.333,287169.000,1.000
6.831,8.048,4.546,-2.935,-0.499,0.964,7.103,-0.236,-0.025,0.928,-0.309,5.005,-2.808,0.153,73.333,287170.000,1.000
8.981,7.128,5.048,-2.050,-0.585,4.199,11.593,1.332,-0.026,0.927,-0.310,5.005,-2.930,0.153,73.333,287171.000,1.000
11.049,5.888,5.338,-1.567,-1.590,5.573,13.184,0.599,-0.025,0.926,-0.311,5.096,-2.899,0.000,73.333,287172.000,1.000
11.921,3.263,4.687,-2.070,-4.245,2.522,9.712,-2.675,-0.025,0.923,-0.310,5.157,-2.930,-0.061,73.333,287173.000,1.000
11.574,-0.615,3.317,-3.235,-8.112,-5.110,1.268,-7.784,-0.024,0.924,-0.314,5.371,-3.143,-0.122,73.333,287174.000,1.000
11.133,-4.167,2.366,-3.763,-11.226,-13.933,-8.678,-12.402,-0.025,0.925,-0.313,5.585,-3.235,-0.214,73.333,287175.000,1.000
11.606,-5.896,2.862,-2.639,-11.809,-19.594,-15.760,-14.195,-0.025,0.924,-0.316,5.737,-3.448,-0.214,73.333,287176.000,1.000
12.833,-5.595,4.628,-0.053,-9.507,-19.540,-17.110,-12.167,-0.024,0.922,-0.313,5.920,-3.418,-0.244,73.333,287177.000,1.000
13.926,-3.973,6.765,3.128,-5.032,-13.838,-11.894,-6.479,-0.023,0.925,-0.310,6.134,-3.540,-0.275,73.333,287178.000,1.000
14.183,-2.036,8.396,5.828,-0.038,-5.301,-2.558,0.757,-0.021,0.927,-0.307,6.195,-3.601,-0.305,73.333,287179.000,1.000
13.361,-0.882,8.684,6.787,2.889,1.363,4.744,5.052,-0.020,0.936,-0.304,6.195,-3.540,-0.183,73.333,287180.000,1.000
11.744,-1.115,7.414,5.373,1.905,2.504,4.409,2.920,-0.017,0.943,-0.301,6.134,-3.601,-0.275,73.333,287181.000,1.000
10.184,-2.142,5.422,2.549,-2.050,-1.528,-3.366,-4.068,-0.016,0.949,-0.297,5.951,-3.418,-0.397,73.333,287182.000,1.000
9.714,-2.496,4.332,0.377,-5.787,-6.821,-12.795,-10.300,-0.015,0.954,-0.298,5.371,-3.510,-0.214,73.333,287183.000,1.000
10.758,-1.079,5.344,0.251,-6.594,-9.267,-17.833,-11.372,-0.016,0.955,-0.300,4.822,-3.510,-0.092,73.333,287184.000,1.000
12.825,2.130,8.242,1.936,-3.937,-7.078,-16.234,-7.279,-0.018,0.951,-0.303,4.242,-3.387,-0.061,73.333,287185.000,1.000
14.958,6.398,11.924,4.345,1.117,-0.913,-9.240,-0.736,-0.018,0.948,-0.304,3.754,-3.387,0.031,73.333,287186.000,1.000
16.150,10.560,14.901,6.405,6.792,6.494,-0.350,5.521,-0.018,0.945,-0.306,3.357,-3.326,0.061,73.333,287187.000,1.000
15.517,13.272,15.785,7.278,11.083,11.398,6.048,9.664,-0.021,0.939,-0.311,3.174,-3.387,-0.031,73.333,287188.000,1.000
12.834,13.867,14.172,6.753,12.909,11.847,7.710,11.354,-0.021,0.935,-0.314,2.991,-3.418,0.031,73.333,287189.000,1.000
9.019,13.013,11.034,5.656,13.053,9.301,6.237,12.106,-0.019,0.930,-0.314,2.930,-3.387,-0.092,73.333,287190.000,1.000
5.464,11.830,7.940,4.986,12.826,6.359,4.348,13.209,-0.021,0.929,-0.316,2.808,-3.387,-0.122,73.333,287191.000,1.000
2.816,10.506,5.360,4.490,12.026,3.784,2.117,13.100,-0.021,0.926,-0.315,2.869,-3.387,-0.092,73.333,287192.000,1.000
0.935,8.494,2.787,3.114,9.483,0.916,-2.111,8.981,-0.019,0.923,-0.315,2.960,-3.418,-0.031,73.333,287193.000,1.000
-0.281,5.647,0.135,0.643,5.126,-2.376,-8.398,0.634,-0.019,0.924,-0.316,2.960,-3.387,-0.122,73.333,287194.000,1.000
-0.581,2.492,-1.999,-1.861,0.398,-5.554,-15.014,-9.012,-0.019,0.923,-0.317,3.021,-3.357,-0.183,73.333,287195.000,1.000
0.408,-0.156,-2.714,-2.890,-2.853,-8.063,-20.062,-16.239,-0.019,0.922,-0.317,3.143,-3.265,-0.183,73.333,287196.000,1.000
2.873,-1.462,-1.413,-1.422,-3.249,-9.051,-21.958,-18.505,-0.019,0.923,-0.317,3.204,-3.082,-0.305,73.333,287197.000,1.000
6.532,-0.839,1.890,2.587,-0.361,-7.436,-19.567,-15.173,-0.019,0.924,-0.314,3.296,-2.899,-0.397,73.333,287198.000,1.000
10.492,1.542,6.405,8.025,4.859,-3.240,-13.516,-7.833,-0.021,0.925,-0.313,3.326,-2.899,-0.458,73.333,287199.000,1.000
13.571,4.662,10.632,13.051,10.342,1.852,-6.671,0.268,-0.024,0.928,-0.315,3.204,-2.838,-0.458,73.333,287200.000,1.000
14.992,7.387,13.370,16.175,14.288,6.177,-1.615,6.277,-0.026,0.931,-0.312,3.174,-2.838,-0.488,73.333,287201.000,1.000
14.798,9.229,14.300,17.040,16.371,9.741,1.731,9.538,-0.026,0.932,-0.313,3.143,-2.869,-0.488,73.333,287202.000,1.000
13.659,10.274,13.914,16.264,17.375,13.294,5.019,11.303,-0.026,0.931,-0.313,2.930,-2.960,-0.458,73.333,287203.000,1.000
12.329,10.596,12.964,14.627,17.821,16.449,8.587,12.755,-0.025,0.930,-0.312,2.808,-2.960,-0.458,73.333,287204.000,1.000
11.366,10.123,11.909,12.544,17.415,17.761,10.697,13.651,-0.024,0.932,-0.315,2.716,-3.052,-0.488,73.333,287205.000,1.000
11.114,8.930,11.060,10.210,15.661,16.214,9.577,12.959,-0.023,0.932,-0.318,2.777,-3.021,-0.397,73.333,287206.000,1.000
11.580,7.338,10.483,7.774,12.512,12.085,5.067,10.107,-0.021,0.934,-0.316,2.869,-3.021,-0.366,73.333,287207.000,1.000
12.411,5.864,10.092,5.505,8.590,6.898,-1.253,5.676,-0.023,0.935,-0.315,2.563,-3.052,-0.214,73.333,287208.000,1.000
13.092,5.037,9.850,3.825,4.945,2.766,-6.945,1.130,-0.024,0.935,-0.316,2.441,-3.021,-0.153,73.333,287209.000,1.000
13.088,5.048,9.468,2.929,2.342,1.152,-10.306,-2.383,-0.026,0.935,-0.315,2.258,-2.960,-0.122,73.333,287210.000,1.000
12.011,5.643,8.613,2.575,0.917,2.045,-11.084,-4.607,-0.025,0.934,-0.317,2.014,-3.021,0.000,73.333,287211.000,1.000
9.888,6.499,7.261,2.446,0.592,4.363,-9.852,-5.495,-0.025,0.932,-0.314,1.923,-2.899,0.061,73.333,287212.000,1.000
7.289,7.559,5.940,2.573,1.480,7.070,-6.969,-4.724,-0.024,0.931,-0.317,1.831,-2.869,0.153,73.333,287213.000,1.000
5.038,8.884,5.403,3.175,3.643,9.725,-2.489,-2.162,-0.023,0.932,-0.315,1.617,-2.838,0.153,73.333,287214.000,1.000
3.698,10.204,5.764,4.103,6.469,11.752,2.518,1.466,-0.023,0.931,-0.318,1.556,-2.869,0.336,73.333,287215.000,1.000
3.254,10.764,6.449,4.695,8.564,11.814,5.665,4.651,-0.023,0.929,-0.320,1.404,-2.838,0.427,73.333,287216.000,1.000
3.347,9.964,6.739,4.406,8.855,9.203,5.422,6.240,-0.024,0.931,-0.319,1.404,-2.777,0.427,73.333,287217.000,1.000
3.712,8.135,6.513,3.530,7.700,5.370,3.073,6.434,-0.023,0.933,-0.319,1.343,-2.747,0.488,73.333,287218.000,1.000
4.031,6.109,6.119,2.757,6.184,2.552,1.242,5.945,-0.025,0.931,-0.320,1.312,-2.777,0.763,73.333,287219.000,1.000
3.624,4.191,5.449,2.247,4.728,1.299,1.009,4.730,-0.023,0.932,-0.321,1.251,-2.747,0.824,73.333,287220.000,1.000
1.932,2.155,4.167,1.731,3.142,0.504,1.631,2.543,-0.023,0.929,-0.317,1.038,-2.625,0.824,73.333,287221.000,1.000
-0.729,0.031,2.320,1.178,1.571,-0.709,2.064,0.045,-0.022,0.927,-0.319,0.916,-2.502,0.854,73.333,287222.000,1.000
-3.288,-1.706,0.420,0.891,0.644,-2.060,1.996,-1.353,-0.022,0.928,-0.317,0.854,-2.472,0.977,73.333,287223.000,1.000
-4.813,-2.655,-0.994,1.081,0.843,-2.583,1.929,-0.613,-0.021,0.930,-0.316,0.854,-2.380,0.977,73.333,287224.000,1.000
-5.098,-2.783,-1.806,1.629,2.099,-1.402,2.555,2.138,-0.022,0.930,-0.317,0.763,-2.350,1.038,73.333,287225.000,1.000
-4.602,-2.366,-2.113,2.185,3.723,1.274,3.790,5.475,-0.024,0.930,-0.320,0.763,-2.289,1.038,73.333,287226.000,1.000
-4.178,-2.027,-2.346,2.144,4.451,3.579,4.059,6.976,-0.024,0.930,-0.319,0.580,-2.136,1.038,73.333,287227.000,1.000
-4.584,-2.486,-3.105,0.956,3.189,3.316,1.472,4.721,-0.021,0.931,-0.320,0.671,-2.167,1.038,73.333,287228.000,1.000
-5.873,-3.851,-4.433,-1.156,0.244,0.260,-3.633,-0.577,-0.021,0.929,-0.318,0.519,-2.106,1.038,73.333,287229.000,1.000
-7.229,-5.184,-5.674,-2.972,-2.350,-3.105,-7.899,-5.285,-0.020,0.929,-0.318,0.458,-1.953,1.099,73.333,287230.000,1.000
-7.544,-5.008,-5.739,-3.009,-2.134,-3.257,-7.079,-5.220,-0.021,0.927,-0.321,0.427,-1.831,1.099,73.333,287231.000,1.000
-6.336,-2.531,-4.059,-0.786,1.693,1.357,0.153,0.917,-0.020,0.926,-0.322,0.305,-1.617,1.129,73.333,287232.000,1.000
-4.260,1.458,-1.319,2.466,7.218,8.523,10.269,9.991,-0.019,0.926,-0.323,0.336,-1.526,1.099,73.333,287233.000,1.000
-2.721,5.059,0.932,4.504,11.105,13.992,17.495,16.582,-0.019,0.927,-0.323,0.366,-1.312,1.129,73.333,287234.000,1.000
-2.790,6.810,1.382,3.774,11.209,15.278,18.642,17.053,-0.017,0.923,-0.320,0.336,-1.251,1.221,73.333,287235.000,1.000
-4.443,6.623,0.085,0.563,7.915,13.098,15.092,11.841,-0.017,0.923,-0.320,0.305,-1.251,1.160,73.333,287236.000,1.000
-6.828,5.267,-1.937,-3.470,3.245,9.431,10.186,4.350,-0.017,0.923,-0.323,0.244,-0.977,1.190,73.333,287237.000,1.000
-9.122,3.396,-3.823,-6.678,-0.872,5.449,5.978,-1.935,-0.020,0.922,-0.324,0.244,-0.824,1.190,73.333,287238.000,1.000
-10.957,1.326,-5.266,-8.302,-3.485,1.618,2.845,-5.355,-0.022,0.920,-0.323,0.397,-0.702,1.007,73.333,287239.000,1.000
-12.078,-0.403,-6.164,-8.177,-4.160,-1.048,1.256,-5.498,-0.024,0.922,-0.325,0.519,-0.641,0.916,73.333,287240.000,1.000
-12.166,-1.037,-6.161,-6.336,-2.703,-1.235,2.307,-2.322,-0.022,0.922,-0.323,0.702,-0.580,0.793,73.333,287241.000,1.000
-11.431,-0.598,-5.381,-3.615,-0.077,0.792,5.461,2.546,-0.025,0.924,-0.322,0.671,-0.488,0.732,73.333,287242.000,1.000
-10.723,-0.033,-4.638,-1.571,1.768,3.166,8.088,5.855,-0.023,0.924,-0.320,0.671,-0.519,0.793,73.333,287243.000,1.000
-10.637,-0.053,-4.336,-0.996,1.871,4.668,8.539,5.954,-0.023,0.924,-0.319,0.824,-0.397,0.793,73.333,287244.000,1.000
-10.995,-0.619,-4.274,-1.315,0.968,5.358,7.416,4.116,-0.024,0.924,-0.322,0.793,-0.244,0.732,73.333,287245.000,1.000
-11.274,-1.477,-4.099,-1.532,0.184,5.447,6.019,2.329,-0.025,0.924,-0.322,0.916,-0.244,0.641,73.333,287246.000,1.000
-11.120,-2.415,-3.684,-1.158,0.097,5.254,5.449,1.555,-0.025,0.926,-0.323,0.946,-0.183,0.580,73.333,287247.000,1.000
-10.469,-3.171,-3.103,-0.290,0.743,5.506,6.516,1.954,-0.027,0.925,-0.321,1.007,-0.061,0.397,73.333,287248.000,1.000
-9.467,-3.576,-2.472,0.664,1.700,6.343,8.975,3.252,-0.027,0.926,-0.323,1.007,-0.092,0.458,73.333,287249.000,1.000
-8.360,-3.670,-2.028,1.280,2.349,6.874,11.334,4.825,-0.024,0.927,-0.321,0.977,-0.092,0.519,73.333,287250.000,1.000
-7.305,-3.499,-1.746,1.512,2.520,6.450,12.454,6.299,-0.024,0.929,-0.320,1.038,0.000,0.488,73.333,287251.000,1.000
-6.195,-2.846,-1.280,1.811,2.808,5.807,12.769,8.065,-0.026,0.927,-0.321,1.068,0.000,0.458,73.333,287252.000,1.000
-4.700,-1.285,-0.192,2.786,4.046,6.429,13.742,10.752,-0.026,0.927,-0.321,1.160,-0.092,0.488,73.333,287253.000,1.000
-2.718,1.249,1.642,4.427,6.153,8.771,16.105,13.713,-0.027,0.928,-0.322,1.038,-0.061,0.549,73.333,287254.000,1.000
-0.874,3.890,3.357,5.588,7.564,11.315,18.307,14.312,-0.027,0.928,-0.321,1.160,-0.122,0.641,73.333,287255.000,1.000
-0.229,5.302,3.722,4.800,6.422,11.701,17.554,10.006,-0.026,0.926,-0.322,1.099,-0.214,0.702,73.333,287256.000,1.000
-1.243,5.007,2.379,1.889,2.679,9.079,12.869,1.559,-0.027,0.927,-0.323,1.007,-0.244,0.763,73.333,287257.000,1.000
-3.180,3.976,0.305,-1.524,-1.443,5.093,6.528,-6.758,-0.028,0.924,-0.319,0.977,-0.244,0.854,73.333,287258.000,1.000
-4.710,3.605,-0.968,-3.375,-3.375,2.245,2.054,-10.599,-0.027,0.923,-0.316,0.977,-0.244,0.885,73.333,287259.000,1.000
-5.045,4.362,-0.817,-2.839,-2.246,1.833,1.323,-8.638,-0.028,0.923,-0.316,1.038,-0.275,0.854,73.333,287260.000,1.000
-4.356,5.598,0.251,-0.610,0.886,3.669,4.080,-2.655,-0.030,0.922,-0.317,1.038,-0.305,0.916,73.333,287261.000,1.000
-3.342,6.195,1.174,1.835,4.062,6.648,8.742,4.068,-0.031,0.921,-0.323,1.068,-0.519,0.824,73.333,287262.000,1.000
-2.689,5.189,0.990,3.040,5.467,9.033,12.991,8.374,-0.031,0.922,-0.323,1.160,-0.580,0.885,73.333,287263.000,1.000
-2.672,2.420,-0.432,2.408,4.412,9.461,15.042,8.835,-0.027,0.922,-0.323,1.221,-0.671,0.946,73.333,287264.000,1.000
-2.908,-0.969,-2.299,0.730,1.956,8.322,15.087,6.715,-0.028,0.922,-0.322,1.251,-0.763,1.038,73.333,287265.000,1.000
-2.838,-3.416,-3.549,-0.577,-0.168,6.988,14.727,4.594,-0.028,0.923,-0.323,1.343,-0.793,1.007,73.333,287266.000,1.000
-2.495,-4.416,-3.956,-0.904,-1.304,5.895,14.798,3.818,-0.029,0.923,-0.324,1.312,-0.824,1.038,73.333,287267.000,1.000
-2.361,-4.518,-4.074,-0.567,-1.889,4.634,14.957,4.198,-0.029,0.923,-0.322,1.373,-0.946,1.068,73.333,287268.000,1.000
-2.894,-4.563,-4.497,-0.210,-2.553,2.945,14.703,4.979,-0.028,0.923,-0.324,1.404,-1.038,1.221,73.333,287269.000,1.000
-4.525,-5.408,-5.941,-0.710,-3.896,0.855,13.526,4.878,-0.028,0.924,-0.325,1.434,-1.007,1.099,73.333,287270.000,1.000
-7.403,-7.451,-8.702,-2.694,-6.151,-1.148,11.285,2.666,-0.028,0.923,-0.326,1.251,-1.160,1.190,73.333,287271.000,1.000
-10.956,-10.070,-12.099,-5.765,-8.662,-2.114,8.628,-1.427,-0.027,0.923,-0.324,1.312,-1.190,1.312,73.333,287272.000,1.000
-14.174,-12.029,-14.919,-8.623,-10.222,-1.455,6.648,-5.360,-0.027,0.927,-0.323,1.373,-1.251,1.312,73.333,287273.000,1.000
-16.415,-12.487,-16.236,-10.017,-9.948,0.466,6.418,-6.435,-0.028,0.929,-0.323,1.465,-1.343,1.312,73.333,287274.000,1.000
-17.874,-11.614,-16.236,-9.754,-8.077,2.436,8.033,-3.382,-0.024,0.928,-0.324,1.465,-1.404,1.434,73.333,287275.000,1.000
-19.326,-10.359,-15.949,-8.901,-6.095,3.006,10.049,2.187,-0.025,0.929,-0.325,1.312,-1.343,1.465,73.333,287276.000,1.000
-21.288,-9.494,-16.314,-8.806,-5.639,1.806,10.700,6.746,-0.024,0.928,-0.323,1.190,-1.343,1.556,73.333,287277.000,1.000
-23.267,-8.761,-17.289,-9.760,-7.028,0.297,9.620,7.562,-0.025,0.930,-0.323,1.160,-1.312,1.678,73.333,287278.000,1.000
-23.949,-7.181,-17.666,-10.810,-9.165,0.319,7.637,4.397,-0.024,0.931,-0.321,0.946,-1.434,1.801,73.333,287279.000,1.000
-22.390,-4.282,-16.427,-10.943,-10.872,1.810,5.036,-1.160,-0.024,0.930,-0.320,0.824,-1.465,1.770,73.333,287280.000,1.000
-18.952,-0.860,-13.748,-10.152,-11.930,2.788,1.372,-7.254,-0.025,0.927,-0.321,0.641,-1.556,1.923,73.333,287281.000,1.000
-14.941,1.675,-10.818,-9.271,-12.735,1.723,-3.269,-12.648,-0.024,0.927,-0.324,0.519,-1.434,1.923,73.333,287282.000,1.000
-11.500,2.530,-8.840,-9.057,-13.482,-0.789,-7.762,-16.793,-0.026,0.924,-0.327,0.458,-1.404,1.953,73.333,287283.000,1.000
-8.999,1.935,-8.110,-9.513,-13.954,-2.861,-10.553,-19.430,-0.025,0.925,-0.329,0.519,-1.587,1.953,73.333,287284.000,1.000
-7.100,0.794,-8.144,-9.741,-13.673,-3.074,-10.613,-20.092,-0.021,0.922,-0.324,0.488,-1.556,2.014,73.333,287285.000,1.000
-5.083,0.194,-7.948,-8.387,-12.090,-1.213,-7.845,-18.195,-0.022,0.922,-0.329,0.488,-1.587,1.984,73.333,287286.000,1.000
-2.518,0.652,-6.810,-4.894,-9.198,1.778,-3.300,-14.012,-0.021,0.922,-0.328,0.519,-1.526,2.075,73.333,287287.000,1.000
0.207,1.566,-5.063,-0.365,-6.117,4.075,0.847,-9.403,-0.022,0.922,-0.328,0.580,-1.556,1.953,73.333,287288.000,1.000
2.224,1.709,-3.648,3.170,-4.549,3.982,2.324,-6.955,-0.021,0.923,-0.325,0.671,-1.526,1.831,73.333,287289.000,1.000
3.004,0.346,-3.422,4.309,-5.381,1.170,0.246,-8.034,-0.022,0.922,-0.327,0.641,-1.495,1.801,73.333,287290.000,1.000
2.727,-2.259,-4.424,3.193,-7.955,-3.162,-3.996,-11.551,-0.021,0.920,-0.327,0.580,-1.434,1.709,73.333,287291.000,1.000
2.018,-5.178,-5.894,1.194,-10.619,-7.217,-7.668,-14.728,-0.022,0.919,-0.327,0.580,-1.465,1.617,73.333,287292.000,1.000
1.386,-7.564,-7.045,-0.209,-11.929,-9.814,-8.803,-15.181,-0.019,0.920,-0.328,0.580,-1.404,1.526,73.333,287293.000,1.000
0.718,-9.361,-7.657,-0.610,-11.669,-11.041,-7.425,-12.568,-0.018,0.921,-0.326,0.671,-1.312,1.434,73.333,287294.000,1.000
-0.614,-11.240,-8.347,-0.907,-10.871,-11.923,-5.387,-8.717,-0.017,0.925,-0.329,0.641,-1.221,1.282,73.333,287295.000,1.000
-2.975,-13.678,-9.745,-2.306,-10.866,-13.547,-5.041,-6.340,-0.016,0.926,-0.333,0.671,-1.160,1.129,73.333,287296.000,1.000
-5.910,-16.199,-11.782,-5.190,-12.217,-16.245,-7.676,-7.368,-0.015,0.927,-0.328,0.580,-1.007,1.068,73.333,287297.000,1.000
-8.215,-17.382,-13.610,-8.624,-14.089,-19.037,-12.409,-11.472,-0.014,0.928,-0.324,0.366,-1.007,0.977,73.333,287298.000,1.000
-8.459,-15.567,-13.651,-10.647,-14.442,-19.752,-16.186,-15.549,-0.016,0.931,-0.325,0.183,-0.854,1.007,73.333,287299.000,1.000
-5.827,-9.994,-10.648,-9.544,-11.385,-16.440,-15.755,-15.603,-0.016,0.930,-0.326,0.092,-0.580,0.977,73.333,287300.000,1.000
-0.812,-1.775,-4.761,-5.303,-5.043,-9.460,-10.349,-10.230,-0.017,0.929,-0.322,-0.122,-0.458,0.916,73.333,287301.000,1.000
4.864,6.269,2.118,0.105,2.021,-1.932,-2.638,-2.121,-0.018,0.928,-0.323,-0.122,-0.275,0.793,73.333,287302.000,1.000
9.082,11.032,7.252,3.965,6.487,2.317,3.212,4.244,-0.017,0.928,-0.322,-0.183,-0.244,0.732,73.333,287303.000,1.000
10.323,10.736,8.721,4.429,6.399,1.311,4.437,5.917,-0.018,0.929,-0.321,-0.366,-0.244,0.641,73.333,287304.000,1.000
8.380,5.875,6.182,1.406,2.286,-3.818,1.202,3.098,-0.018,0.930,-0.323,-0.427,-0.092,0.549,73.333,287305.000,1.000
4.382,-1.115,0.937,-3.559,-3.227,-9.554,-3.587,-1.230,-0.016,0.929,-0.323,-0.488,0.000,0.458,73.333,287306.000,1.000
-0.082,-7.536,-5.012,-8.509,-7.400,-12.707,-6.726,-3.716,-0.020,0.928,-0.324,-0.610,0.031,0.458,73.333,287307.000,1.000
-3.986,-12.073,-10.244,-12.389,-9.340,-12.850,-7.489,-3.469,-0.021,0.929,-0.322,-0.763,0.183,0.519,73.333,287308.000,1.000
-6.986,-14.779,-13.961,-15.084,-9.842,-11.723,-7.257,-2.125,-0.022,0.929,-0.322,-0.763,0.122,0.488,73.333,287309.000,1.000
-8.787,-15.854,-15.661,-16.552,-9.605,-10.638,-7.147,-1.275,-0.025,0.928,-0.323,-0.885,0.183,0.519,73.333,287310.000,1.000
-8.979,-15.209,-15.005,-16.546,-8.592,-9.594,-7.250,-1.013,-0.024,0.924,-0.323,-0.946,0.153,0.519,73.333,287311.000,1.000
-7.623,-13.180,-12.401,-15.228,-7.032,-8.699,-7.945,-1.113,-0.022,0.922,-0.321,-1.099,0.244,0.488,73.333,287312.000,1.000
-5.506,-10.706,-9.129,-13.230,-5.711,-8.800,-9.940,-1.694,-0.023,0.919,-0.322,-1.007,0.122,0.580,73.333,287313.000,1.000
-3.650,-8.602,-6.357,-11.025,-5.146,-10.341,-12.843,-2.534,-0.022,0.918,-0.321,-1.038,0.092,0.641,73.333,287314.000,1.000
-2.741,-7.159,-4.800,-8.774,-5.268,-12.661,-15.497,-3.163,-0.023,0.916,-0.322,-1.007,0.092,0.702,73.333,287315.000,1.000
-2.863,-6.359,-4.523,-6.500,-5.694,-14.522,-17.047,-3.273,-0.023,0.916,-0.320,-0.916,0.122,0.732,73.333,287316.000,1.000
-3.667,-6.178,-5.049,-4.255,-5.964,-14.959,-17.276,-2.770,-0.026,0.916,-0.321,-0.824,0.092,0.854,73.333,287317.000,1.000
-4.730,-6.641,-5.855,-2.239,-5.830,-13.884,-16.683,-1.926,-0.027,0.916,-0.322,-0.793,0.000,0.916,73.333,287318.000,1.000
-5.729,-7.635,-6.361,-0.680,-5.325,-11.961,-15.837,-1.174,-0.027,0.916,-0.319,-0.732,-0.214,0.916,73.333,287319.000,1.000
-6.412,-8.643,-6.191,0.374,-4.510,-9.914,-14.641,-0.579,-0.026,0.917,-0.318,-0.763,-0.153,0.977,73.333,287320.000,1.000
-6.614,-8.856,-5.242,1.087,-3.356,-8.187,-12.530,0.283,-0.024,0.917,-0.322,-0.763,-0.275,1.068,73.333,287321.000,1.000
-6.445,-7.703,-3.753,1.555,-1.981,-7.093,-9.585,1.739,-0.023,0.918,-0.320,-0.702,-0.427,1.038,73.333,287322.000,1.000
-6.263,-5.262,-2.372,1.550,-0.891,-6.904,-7.138,3.251,-0.019,0.922,-0.319,-0.732,-0.397,1.099,73.333,287323.000,1.000
-6.265,-2.094,-1.563,0.768,-0.700,-7.534,-6.630,3.667,-0.019,0.928,-0.321,-0.519,-0.397,1.099,73.333,287324.000,1.000
-6.267,1.158,-1.429,-0.747,-1.473,-8.120,-8.046,2.473,-0.017,0.929,-0.320,-0.641,-0.427,1.251,73.333,287325.000,1.000
-5.849,4.063,-1.594,-2.431,-2.373,-7.149,-9.313,0.821,-0.014,0.929,-0.320,-0.793,-0.519,1.373,73.333,287326.000,1.000
-4.604,6.469,-1.360,-3.506,-2.178,-3.575,-7.751,0.800,-0.014,0.927,-0.317,-1.007,-0.427,1.556,73.333,287327.000,1.000
-2.473,8.102,-0.474,-3.848,-0.747,1.534,-3.157,2.761,-0.015,0.922,-0.316,-1.282,-0.427,1.740,73.333,287328.000,1.000
0.081,8.285,0.615,-4.347,0.388,5.086,1.332,4.213,-0.018,0.919,-0.320,-1.282,-0.275,1.831,73.333,287329.000,1.000
2.395,6.545,1.025,-5.921,-0.403,4.577,2.141,2.571,-0.020,0.916,-0.321,-1.282,-0.183,1.678,73.333,287330.000,1.000
3.937,3.152,0.256,-8.564,-3.359,0.006,-1.747,-2.261,-0.021,0.913,-0.328,-1.343,-0.214,1.617,73.333,287331.000,1.000
4.469,-0.991,-1.492,-11.502,-7.425,-6.537,-8.544,-8.340,-0.023,0.910,-0.328,-1.251,-0.153,1.404,73.333,287332.000,1.000
4.258,-4.588,-3.517,-13.621,-10.766,-11.942,-14.611,-12.763,-0.021,0.906,-0.330,-1.068,-0.153,1.373,73.333,287333.000,1.000
3.903,-6.452,-4.822,-13.935,-11.554,-13.494,-16.061,-12.811,-0.017,0.905,-0.333,-0.793,-0.214,1.251,73.333,287334.000,1.000
3.650,-6.407,-5.171,-12.449,-9.475,-10.854,-11.885,-8.263,-0.012,0.903,-0.338,-0.549,-0.214,1.221,73.333,287335.000,1.000
3.020,-5.608,-5.276,-10.418,-6.318,-6.455,-5.065,-2.136,-0.012,0.907,-0.338,-0.122,-0.153,1.282,73.333,287336.000,1.000
1.267,-5.633,-6.011,-9.396,-4.537,-3.375,0.198,1.913,-0.013,0.910,-0.339,0.427,0.031,1.221,73.333,287337.000,1.000
-1.830,-7.312,-7.776,-10.033,-5.347,-3.167,1.623,2.469,-0.014,0.913,-0.342,0.671,0.153,1.282,73.333,287338.000,1.000
-5.433,-10.048,-9.738,-11.407,-7.779,-5.115,0.149,1.213,-0.016,0.915,-0.344,0.885,0.214,1.282,73.333,287339.000,1.000
-7.744,-11.896,-10.061,-11.433,-9.187,-6.816,-1.218,1.347,-0.015,0.915,-0.340,0.854,0.214,1.190,73.333,287340.000,1.000
-7.243,-11.076,-7.299,-8.632,-7.628,-6.468,-0.591,4.089,-0.017,0.916,-0.339,1.221,0.366,0.977,73.333,287341.000,1.000
-4.108,-7.632,-1.945,-3.631,-3.666,-4.556,1.090,7.417,-0.018,0.915,-0.339,1.495,0.519,0.793,73.333,287342.000,1.000
-0.063,-3.115,3.840,1.626,0.823,-2.417,2.300,9.244,-0.018,0.919,-0.340,1.587,0.549,0.671,73.333,287343.000,1.000
2.712,0.616,7.843,5.214,4.178,-0.700,2.750,9.209,-0.020,0.921,-0.338,1.831,0.610,0.427,73.333,287344.000,1.000
2.386,1.893,8.241,5.495,4.857,-0.173,1.853,6.774,-0.021,0.922,-0.340,1.892,0.519,0.275,73.333,287345.000,1.000
-1.600,0.012,4.454,1.903,2.060,-1.894,-1.312,1.307,-0.023,0.926,-0.335,2.075,0.519,0.061,73.333,287346.000,1.000
-7.907,-3.937,-2.012,-4.100,-2.960,-5.524,-5.864,-5.700,-0.021,0.924,-0.342,1.923,0.549,0.153,73.333,287347.000,1.000
-14.011,-7.604,-8.396,-9.704,-7.326,-8.718,-8.962,-10.865,-0.022,0.927,-0.338,2.045,0.458,0.275,73.333,287348.000,1.000
-17.686,-8.934,-12.100,-12.493,-8.452,-8.675,-7.762,-11.329,-0.018,0.931,-0.335,2.258,0.336,0.275,73.333,287349.000,1.000
-18.067,-7.332,-12.127,-11.670,-5.464,-3.949,-1.437,-6.510,-0.019,0.938,-0.335,2.411,0.336,0.244,73.333,287350.000,1.000
-15.846,-3.937,-9.335,-8.235,0.326,4.251,7.956,1.499,-0.018,0.945,-0.330,2.472,0.244,0.275,73.333,287351.000,1.000
-12.829,-1.115,-5.896,-4.484,5.736,11.603,15.572,8.487,-0.018,0.949,-0.333,1.770,0.427,0.366,73.333,287352.000,1.000
-10.729,-0.887,-4.048,-2.597,7.633,13.252,16.377,10.597,-0.019,0.952,-0.323,1.373,0.427,0.519,73.333,287353.000,1.000
-9.911,-3.289,-4.280,-3.018,5.388,8.059,9.515,7.487,-0.015,0.945,-0.328,0.549,0.427,0.580,73.333,287354.000,1.000
-9.448,-6.538,-5.531,-4.493,1.038,-0.539,-0.931,2.293,-0.019,0.938,-0.325,0.275,0.427,0.610,73.333,287355.000,1.000
-8.121,-8.453,-6.193,-5.305,-2.515,-7.092,-8.926,-1.154,-0.019,0.927,-0.327,-0.031,0.427,0.641,73.333,287356.000,1.000
-5.127,-7.523,-4.830,-4.155,-3.117,-7.187,-10.062,-0.622,-0.021,0.919,-0.336,-0.061,0.397,0.671,73.333,287357.000,1.000
-0.581,-3.723,-1.265,-0.887,-0.586,-0.303,-4.473,3.321,-0.023,0.913,-0.333,0.275,0.397,0.824,73.333,287358.000,1.000
4.035,0.954,2.916,2.910,2.702,9.060,2.780,7.203,-0.025,0.906,-0.343,0.214,0.214,0.732,73.333,287359.000,1.000
6.610,3.640,5.159,4.775,3.478,14.444,5.371,7.024,-0.028,0.906,-0.337,0.610,0.061,0.763,73.333,287360.000,1.000
6.155,2.956,4.319,3.595,0.610,12.592,1.063,2.006,-0.025,0.900,-0.335,0.946,-0.031,0.916,73.333,287361.000,1.000
3.488,-0.085,1.632,0.495,-4.013,5.543,-6.872,-4.685,-0.024,0.905,-0.335,1.404,-0.122,0.854,73.333,287362.000,1.000
0.310,-3.240,-0.747,-2.378,-7.401,-1.729,-13.095,-8.978,-0.023,0.910,-0.327,1.953,-0.366,0.885,73.333,287363.000,1.000
-1.945,-4.683,-1.066,-3.369,-7.784,-5.247,-14.221,-9.011,-0.022,0.920,-0.329,2.136,-0.519,0.885,73.333,287364.000,1.000
-2.626,-3.864,1.020,-2.015,-5.398,-4.282,-10.525,-5.751,-0.022,0.931,-0.317,2.350,-0.702,0.977,73.333,287365.000,1.000
-1.695,-1.327,4.687,1.199,-1.651,-0.747,-4.505,-1.376,-0.021,0.936,-0.318,1.923,-0.732,1.007,73.333,287366.000,1.000
0.670,2.095,8.924,5.484,2.239,3.162,1.755,2.562,-0.022,0.938,-0.318,1.617,-0.916,1.160,73.333,287367.000,1.000
4.044,5.771,12.833,10.008,5.754,6.521,7.444,5.494,-0.019,0.930,-0.322,0.916,-1.038,1.343,73.333,287368.000,1.000
7.366,8.961,15.579,13.661,8.364,8.973,11.788,6.797,-0.021,0.922,-0.323,0.549,-1.038,1.434,73.333,287369.000,1.000
9.109,10.611,16.037,15.130,9.095,9.606,13.070,5.461,-0.022,0.913,-0.323,0.549,-1.007,1.343,73.333,287370.000,1.000
8.358,10.018,13.673,13.903,7.446,7.516,10.232,1.559,-0.021,0.909,-0.328,0.427,-1.068,1.373,73.333,287371.000,1.000
5.701,7.593,9.461,10.929,4.262,3.108,4.506,-2.992,-0.021,0.908,-0.326,0.671,-1.190,1.343,73.333,287372.000,1.000
2.854,4.626,5.210,7.897,1.212,-1.854,-1.499,-5.949,-0.019,0.907,-0.331,0.793,-1.282,1.312,73.333,287373.000,1.000
1.471,2.359,2.608,6.113,-0.369,-5.427,-5.439,-6.297,-0.020,0.909,-0.326,1.099,-1.373,1.221,73.333,287374.000,1.000
2.183,1.259,2.154,5.873,-0.246,-6.754,-6.506,-4.663,-0.017,0.910,-0.326,1.068,-1.312,1.251,73.333,287375.000,1.000
4.461,0.947,3.181,6.508,0.621,-6.504,-5.828,-2.952,-0.017,0.914,-0.325,1.068,-1.465,1.373,73.333,287376.000,1.000
7.199,0.759,4.654,7.057,0.967,-5.974,-5.323,-2.909,-0.018,0.917,-0.323,1.068,-1.434,1.282,73.333,287377.000,1.000
9.543,0.475,5.800,7.166,0.554,-5.587,-5.599,-4.297,-0.018,0.918,-0.328,0.916,-1.404,1.373,73.333,287378.000,1.000
11.306,0.394,6.690,7.294,0.258,-4.790,-5.393,-5.073,-0.019,0.921,-0.325,1.007,-1.404,1.312,73.333,287379.000,1.000
12.560,0.597,7.404,7.790,0.589,-3.617,-4.084,-3.978,-0.017,0.921,-0.330,0.732,-1.526,1.221,73.333,287380.000,1.000
13.115,0.536,7.485,8.195,0.874,-3.230,-3.105,-2.028,-0.017,0.926,-0.329,0.610,-1.495,1.221,73.333,287381.000,1.000
12.671,-0.306,6.525,7.789,0.352,-4.246,-3.830,-0.958,-0.014,0.925,-0.331,0.397,-1.556,1.190,73.333,287382.000,1.000
11.272,-1.685,4.697,6.498,-0.625,-5.617,-5.513,-1.091,-0.015,0.923,-0.331,0.183,-1.465,1.099,73.333,287383.000,1.000
9.301,-2.867,2.920,4.989,-0.980,-5.693,-5.876,-1.270,-0.015,0.925,-0.327,0.092,-1.556,1.068,73.333,287384.000,1.000
7.152,-3.374,1.855,3.941,-0.159,-3.874,-3.651,-0.686,-0.016,0.925,-0.332,-0.122,-1.526,1.068,73.333,287385.000,1.000
5.142,-3.184,1.555,3.647,1.421,-1.054,0.248,0.254,-0.016,0.927,-0.329,-0.122,-1.495,0.977,73.333,287386.000,1.000
3.647,-2.408,1.942,4.224,3.023,1.257,3.871,0.908,-0.014,0.926,-0.331,-0.549,-1.495,0.977,73.333,287387.000,1.000
3.092,-1.098,2.935,5.709,4.230,1.987,5.527,1.151,-0.017,0.928,-0.329,-0.519,-1.373,0.916,73.333,287388.000,1.000
3.735,0.777,4.691,8.053,5.128,1.034,4.686,1.405,-0.017,0.927,-0.329,-0.885,-1.434,0.885,73.333,287389.000,1.000
5.532,3.510,7.294,11.220,6.509,-0.283,2.665,2.772,-0.019,0.932,-0.329,-1.068,-1.343,0.824,73.333,287390.000,1.000
8.078,7.489,10.636,15.107,9.487,0.350,2.276,6.558,-0.020,0.930,-0.329,-1.160,-1.404,0.732,73.333,287391.000,1.000
10.332,12.121,13.895,18.784,13.825,3.818,4.914,12.138,-0.018,0.927,-0.332,-1.617,-1.404,0.671,73.333,287392.000,1.000
10.788,15.327,15.149,20.327,17.111,7.806,8.318,16.086,-0.021,0.924,-0.327,-1.587,-1.434,0.702,73.333,287393.000,1.000
8.620,15.046,13.093,18.331,16.758,8.835,9.057,15.106,-0.018,0.918,-0.334,-1.862,-1.434,0.610,73.333,287394.000,1.000
4.575,11.147,8.278,13.312,12.532,5.823,6.134,9.195,-0.021,0.921,-0.333,-1.709,-1.373,0.641,73.333,287395.000,1.000
0.515,5.547,2.875,7.423,6.664,0.844,1.614,1.520,-0.017,0.920,-0.338,-1.801,-1.526,0.458,73.333,287396.000,1.000
-1.869,0.670,-0.820,2.925,1.894,-3.242,-1.609,-4.278,-0.019,0.927,-0.332,-1.617,-1.495,0.458,73.333,287397.000,1.000
-2.059,-2.063,-2.059,0.820,-0.339,-5.049,-2.208,-6.545,-0.016,0.928,-0.331,-1.648,-1.495,0.488,73.333,287398.000,1.000
-0.701,-2.647,-1.433,0.696,-0.237,-4.860,-0.622,-5.845,-0.018,0.930,-0.330,-1.801,-1.587,0.427,73.333,287399.000,1.000
1.163,-1.942,-0.101,1.490,1.134,-3.620,1.919,-3.698,-0.016,0.929,-0.322,-1.770,-1.556,0.427,73.333,287400.000,1.000
2.764,-0.919,1.156,2.406,2.797,-2.071,4.482,-1.253,-0.019,0.927,-0.325,-2.258,-1.404,0.519,73.333,287401.000,1.000
3.703,-0.275,2.244,3.221,4.236,-0.593,6.688,1.128,-0.023,0.923,-0.326,-2.228,-1.465,0.458,73.333,287402.000,1.000
3.841,-0.343,3.173,3.977,5.259,0.520,8.233,3.397,-0.024,0.919,-0.329,-2.472,-1.495,0.427,73.333,287403.000,1.000
3.240,-1.134,4.014,4.641,5.811,0.966,8.963,5.381,-0.030,0.923,-0.324,-2.289,-1.495,0.366,73.333,287404.000,1.000
2.024,-2.455,4.553,4.940,5.970,0.784,9.163,6.860,-0.029,0.921,-0.330,-2.350,-1.526,0.336,73.333,287405.000,1.000
0.380,-3.919,4.568,4.652,6.064,0.697,9.758,8.051,-0.029,0.923,-0.328,-2.167,-1.709,0.244,73.333,287406.000,1.000
-1.349,-5.051,4.229,3.908,6.438,1.633,11.553,9.341,-0.028,0.919,-0.331,-2.319,-1.984,0.305,73.333,287407.000,1.000
-2.717,-5.534,3.707,3.048,6.988,3.771,14.024,10.381,-0.029,0.922,-0.329,-2.197,-2.197,0.275,73.333,287408.000,1.000
-3.255,-5.255,3.385,2.540,7.327,6.361,15.870,10.311,-0.025,0.920,-0.332,-2.197,-2.228,0.366,73.333,287409.000,1.000
-2.631,-4.258,3.646,2.874,7.310,8.337,16.120,8.767,-0.022,0.924,-0.330,-2.167,-2.289,0.549,73.333,287410.000,1.000
-0.849,-2.809,4.629,4.290,7.049,8.735,14.392,6.211,-0.019,0.922,-0.332,-2.075,-2.258,0.580,73.333,287411.000,1.000
1.663,-1.345,6.130,6.521,6.546,6.757,10.581,3.443,-0.020,0.925,-0.332,-2.167,-2.228,0.641,73.333,287412.000,1.000
4.175,-0.136,7.515,8.886,5.726,2.180,4.953,1.280,-0.018,0.924,-0.333,-2.228,-2.228,0.793,73.333,287413.000,1.000
5.870,0.858,8.320,10.599,4.629,-4.047,-1.300,0.322,-0.018,0.924,-0.334,-2.319,-2.289,0.946,73.333,287414.000,1.000
6.108,1.782,8.114,10.915,3.406,-9.864,-6.557,0.407,-0.016,0.924,-0.333,-2.197,-2.167,1.068,73.333,287415.000,1.000
4.900,2.842,6.840,9.627,2.472,-12.828,-9.271,0.961,-0.016,0.927,-0.333,-2.411,-2.136,1.282,73.333,287416.000,1.000
3.039,4.319,5.243,7.365,2.519,-11.197,-8.286,1.682,-0.016,0.929,-0.335,-2.319,-2.136,1.343,73.333,287417.000,1.000
1.577,6.312,4.137,5.089,3.986,-4.945,-3.762,2.399,-0.015,0.927,-0.335,-2.472,-2.045,1.434,73.333,287418.000,1.000
1.269,8.550,4.061,3.481,6.621,3.947,2.641,2.922,-0.016,0.927,-0.336,-2.472,-1.923,1.434,73.333,287419.000,1.000
2.224,10.386,4.755,2.624,9.484,12.213,8.396,3.096,-0.016,0.925,-0.336,-2.625,-1.801,1.495,73.333,287420.000,1.000
3.913,11.114,5.412,2.159,11.466,16.970,11.464,3.065,-0.016,0.922,-0.337,-2.533,-1.740,1.465,73.333,287421.000,1.000
5.571,10.468,5.493,1.773,11.982,17.400,11.492,3.381,-0.016,0.920,-0.333,-2.411,-1.587,1.465,73.333,287422.000,1.000
6.620,8.726,4.772,1.328,11.069,14.777,9.333,4.284,-0.018,0.920,-0.332,-2.502,-1.465,1.495,73.333,287423.000,1.000
6.798,6.320,3.467,0.674,8.854,10.784,5.786,5.018,-0.017,0.918,-0.333,-2.380,-1.434,1.373,73.333,287424.000,1.000
6.093,3.537,1.755,-0.446,5.310,6.248,0.887,4.183,-0.019,0.917,-0.336,-2.319,-1.373,1.312,73.333,287425.000,1.000
4.705,0.651,-0.259,-2.158,0.659,1.751,-5.161,1.000,-0.020,0.916,-0.333,-2.289,-1.282,1.312,73.333,287426.000,1.000
2.993,-1.867,-2.212,-4.163,-4.162,-1.322,-10.751,-3.684,-0.019,0.914,-0.334,-2.167,-1.190,1.251,73.333,287427.000,1.000
1.414,-3.405,-3.618,-5.657,-7.626,-1.318,-13.390,-7.539,-0.020,0.909,-0.333,-1.892,-1.190,1.068,73.333,287428.000,1.000
0.440,-3.610,-3.770,-5.588,-8.569,1.819,-11.779,-8.196,-0.020,0.908,-0.334,-1.678,-1.129,0.916,73.333,287429.000,1.000
0.343,-2.760,-2.522,-3.498,-7.229,5.806,-7.603,-5.303,-0.020,0.909,-0.333,-1.343,-1.160,0.763,73.333,287430.000,1.000
1.137,-1.521,-0.449,-0.001,-5.086,7.736,-4.159,-0.893,-0.020,0.910,-0.332,-1.007,-1.038,0.580,73.333,287431.000,1.000
2.731,-0.349,1.854,3.651,-3.637,6.359,-3.562,2.261,-0.021,0.911,-0.333,-0.824,-0.946,0.458,73.333,287432.000,1.000
4.966,0.774,3.949,6.294,-3.464,2.675,-5.816,2.381,-0.022,0.912,-0.330,-0.641,-1.007,0.427,73.333,287433.000,1.000
7.589,2.281,5.995,7.530,-4.010,-0.835,-8.954,-0.209,-0.021,0.910,-0.331,-0.549,-1.129,0.336,73.333,287434.000,1.000
10.323,4.788,8.417,7.918,-3.885,-1.430,-9.961,-3.014,-0.021,0.909,-0.332,-0.336,-1.007,0.244,73.333,287435.000,1.000
12.865,8.520,11.460,8.349,-1.973,2.114,-6.844,-3.347,-0.019,0.911,-0.331,-0.122,-1.068,0.275,73.333,287436.000,1.000
14.655,12.631,14.639,8.863,1.152,7.925,-0.966,-1.362,-0.021,0.913,-0.331,-0.031,-1.007,0.275,73.333,287437.000,1.000
15.019,15.546,16.582,8.516,3.527,12.034,3.519,-0.028,-0.020,0.912,-0.333,0.000,-0.916,0.153,73.333,287438.000,1.000
13.970,16.406,16.681,6.814,3.957,11.868,3.751,-1.463,-0.019,0.913,-0.335,0.275,-0.977,0.183,73.333,287439.000,1.000
12.454,15.783,15.551,4.437,3.151,8.324,0.458,-4.827,-0.020,0.913,-0.333,0.519,-0.977,0.092,73.333,287440.000,1.000
11.578,15.015,14.275,2.581,2.823,4.565,-3.172,-7.451,-0.020,0.915,-0.332,0.610,-0.977,0.153,73.333,287441.000,1.000
11.765,15.056,13.565,1.991,4.156,3.287,-4.052,-7.055,-0.020,0.917,-0.330,0.641,-0.946,0.183,73.333,287442.000,1.000
12.491,15.661,12.993,2.360,6.765,4.699,-1.635,-3.668,-0.020,0.920,-0.330,0.732,-1.007,0.214,73.333,287443.000,1.000
12.794,15.672,11.764,2.681,9.017,6.879,2.178,0.415,-0.021,0.921,-0.331,0.854,-0.977,0.275,73.333,287444.000,1.000
12.099,14.259,9.540,2.254,9.562,7.942,5.073,2.722,-0.022,0.921,-0.332,0.824,-1.007,0.336,73.333,287445.000,1.000
10.572,11.733,6.916,1.336,8.424,7.445,6.057,2.606,-0.021,0.923,-0.328,0.854,-1.038,0.336,73.333,287446.000,1.000
8.899,9.295,5.157,0.856,6.810,6.188,5.775,1.524,-0.021,0.927,-0.327,0.702,-1.099,0.519,73.333,287447.000,1.000
7.835,8.160,5.053,1.482,6.071,5.360,5.524,1.422,-0.020,0.927,-0.331,0.580,-1.068,0.610,73.333,287448.000,1.000
7.670,8.552,6.494,2.866,6.471,5.467,5.975,2.662,-0.021,0.926,-0.329,0.488,-1.068,0.702,73.333,287449.000,1.000
7.896,9.381,8.203,3.775,6.936,5.860,6.468,3.637,-0.020,0.928,-0.328,0.549,-1.129,0.671,73.333,287450.000,1.000
7.577,9.084,8.639,3.188,6.148,5.294,5.869,2.482,-0.022,0.928,-0.327,0.336,-1.099,0.732,73.333,287451.000,1.000
6.123,6.774,7.276,1.238,3.756,2.878,3.749,-1.084,-0.022,0.927,-0.328,0.214,-1.068,0.793,73.333,287452.000,1.000
3.751,2.834,4.671,-0.827,0.781,-0.954,0.998,-5.201,-0.022,0.927,-0.327,0.092,-1.129,0.763,73.333,287453.000,1.000
1.213,-1.380,2.227,-1.482,-1.113,-4.364,-0.409,-7.031,-0.022,0.925,-0.326,-0.031,-1.129,0.854,73.333,287454.000,1.000
-1.065,-4.714,0.733,-0.316,-1.267,-6.032,0.143,-5.397,-0.022,0.925,-0.329,-0.122,-1.190,0.763,73.333,287455.000,1.000
-3.372,-7.019,-0.281,1.527,-0.704,-6.679,0.748,-1.889,-0.022,0.925,-0.327,-0.153,-1.190,0.885,73.333,287456.000,1.000
-6.123,-8.665,-1.564,2.539,-0.799,-7.753,-0.554,1.046,-0.022,0.924,-0.328,-0.275,-1.282,0.916,73.333,287457.000,1.000
-9.183,-9.722,-3.490,2.065,-1.850,-9.489,-3.626,2.187,-0.021,0.924,-0.331,-0.305,-1.251,0.885,73.333,287458.000,1.000
-11.876,-9.820,-5.578,0.481,-3.147,-10.888,-6.743,1.697,-0.021,0.923,-0.329,-0.397,-1.282,0.854,73.333,287459.000,1.000
-13.465,-8.508,-7.157,-1.377,-3.739,-10.736,-8.309,0.362,-0.021,0.922,-0.326,-0.336,-1.282,0.885,73.333,287460.000,1.000
-13.547,-5.602,-7.792,-2.702,-2.948,-8.377,-7.545,-0.799,-0.022,0.922,-0.326,-0.366,-1.312,1.038,73.333,287461.000,1.000
-12.214,-1.394,-7.222,-3.022,-0.617,-4.018,-4.432,-0.766,-0.020,0.923,-0.327,-0.458,-1.434,0.977,73.333,287462.000,1.000
-9.872,3.497,-5.515,-2.166,3.079,1.732,0.596,1.478,-0.021,0.924,-0.326,-0.519,-1.373,0.916,73.333,287463.000,1.000
-6.889,8.424,-2.603,-0.036,7.827,8.298,7.151,6.685,-0.020,0.923,-0.330,-0.519,-1.282,1.007,73.333,287464.000,1.000
-3.677,12.572,1.086,2.929,12.674,14.484,13.918,13.820,-0.021,0.923,-0.330,-0.671,-1.404,1.068,73.333,287465.000,1.000
-0.893,14.885,4.345,5.505,15.910,18.194,18.305,19.740,-0.022,0.923,-0.331,-0.671,-1.373,1.007,73.333,287466.000,1.000
0.727,14.521,5.885,6.342,15.976,17.611,17.962,21.110,-0.021,0.922,-0.328,-0.763,-1.312,0.977,73.333,287467.000,1.000
0.709,11.359,4.738,4.678,12.302,12.271,11.954,16.206,-0.021,0.920,-0.332,-0.793,-1.312,0.946,73.333,287468.000,1.000
-0.767,6.268,1.243,0.906,5.799,3.365,1.607,6.135,-0.021,0.919,-0.333,-0.732,-1.312,1.007,73.333,287469.000,1.000
-2.776,0.921,-3.042,-3.449,-1.137,-6.381,-9.612,-5.191,-0.019,0.919,-0.335,-0.793,-1.282,1.007,73.333,287470.000,1.000
-4.125,-3.013,-6.212,-6.626,-5.828,-13.719,-17.738,-13.251,-0.020,0.918,-0.331,-0.702,-1.312,1.007,73.333,287471.000,1.000
-4.030,-4.698,-6.974,-7.639,-6.838,-16.492,-20.298,-15.434,-0.019,0.917,-0.333,-0.793,-1.251,1.007,73.333,287472.000,1.000
-2.390,-4.239,-5.354,-6.467,-4.330,-14.387,-17.033,-11.567,-0.019,0.918,-0.331,-0.549,-1.221,1.038,73.333,287473.000,1.000
0.367,-2.225,-1.961,-3.576,0.611,-8.491,-9.172,-3.006,-0.019,0.918,-0.333,-0.519,-1.190,1.007,73.333,287474.000,1.000
3.513,0.591,2.166,0.199,6.452,-0.660,0.786,7.624,-0.018,0.918,-0.328,-0.427,-1.190,1.068,73.333,287475.000,1.000
6.326,3.426,5.872,3.778,11.486,6.952,9.640,16.702,-0.017,0.919,-0.326,-0.519,-1.099,1.038,73.333,287476.000,1.000
8.425,5.684,8.616,6.455,14.521,12.628,15.131,21.322,-0.016,0.920,-0.330,-0.458,-1.038,1.007,73.333,287477.000,1.000
9.701,7.022,10.205,8.239,15.449,15.622,16.860,21.065,-0.015,0.921,-0.331,-0.580,-1.007,1.068,73.333,287478.000,1.000
10.019,7.109,10.627,9.489,14.815,15.856,15.796,17.764,-0.015,0.920,-0.331,-0.549,-1.007,1.099,73.333,287479.000,1.000
9.230,5.591,9.572,10.266,13.026,13.448,12.843,13.575,-0.015,0.919,-0.329,-0.488,-0.946,1.099,73.333,287480.000,1.000
7.610,2.623,6.915,10.413,10.313,8.955,8.587,9.819,-0.016,0.920,-0.329,-0.610,-0.793,1.129,73.333,287481.000,1.000
5.936,-0.772,3.465,9.987,7.165,3.732,3.993,7.117,-0.016,0.921,-0.328,-0.641,-0.732,1.129,73.333,287482.000,1.000
4.906,-3.221,0.230,9.150,4.264,-0.505,0.241,5.518,-0.016,0.924,-0.330,-0.671,-0.732,1.038,73.333,287483.000,1.000
4.630,-3.904,-2.031,7.935,2.022,-2.692,-1.799,4.604,-0.017,0.924,-0.328,-0.610,-0.671,1.007,73.333,287484.000,1.000
4.687,-3.002,-3.367,6.193,0.390,-2.947,-2.082,3.715,-0.015,0.922,-0.331,-0.641,-0.610,1.038,73.333,287485.000,1.000
4.606,-1.452,-4.339,3.837,-0.896,-2.207,-1.264,2.379,-0.017,0.922,-0.330,-0.702,-0.549,0.977,73.333,287486.000,1.000
4.225,-0.424,-5.294,1.009,-2.173,-1.695,-0.437,0.460,-0.014,0.923,-0.328,-0.854,-0.580,0.977,73.333,287487.000,1.000
3.714,-0.775,-6.430,-2.051,-3.854,-2.458,-0.972,-2.147,-0.015,0.922,-0.328,-0.854,-0.549,0.946,73.333,287488.000,1.000
3.545,-2.449,-7.307,-4.840,-6.002,-4.535,-3.177,-5.221,-0.016,0.923,-0.330,-0.885,-0.427,0.946,73.333,287489.000,1.000
4.331,-4.296,-7.139,-6.463,-7.754,-6.476,-5.407,-7.483,-0.016,0.924,-0.328,-0.946,-0.427,0.916,73.333,287490.000,1.000
6.444,-4.740,-5.229,-5.980,-7.610,-6.281,-5.066,-6.772,-0.016,0.922,-0.328,-0.977,-0.244,0.824,73.333,287491.000,1.000
9.504,-3.019,-1.516,-3.386,-4.904,-3.297,-1.231,-2.212,-0.017,0.923,-0.330,-0.977,-0.275,0.885,73.333,287492.000,1.000
12.181,0.034,2.497,-0.370,-1.085,0.756,3.495,3.461,-0.017,0.920,-0.332,-1.068,-0.336,0.885,73.333,287493.000,1.000
12.852,2.571,4.753,0.637,1.116,3.047,5.080,5.461,-0.018,0.919,-0.331,-1.007,-0.397,0.854,73.333,287494.000,1.000
10.684,3.157,3.955,-1.639,0.030,2.138,1.781,1.322,-0.017,0.920,-0.335,-1.038,-0.397,0.916,73.333,287495.000,1.000
6.136,1.573,0.376,-6.439,-3.798,-1.062,-4.474,-6.999,-0.018,0.919,-0.332,-1.099,-0.305,0.793,73.333,287496.000,1.000
0.590,-1.389,-4.305,-11.700,-8.379,-4.513,-9.836,-14.891,-0.019,0.918,-0.334,-0.977,-0.244,0.763,73.333,287497.000,1.000
-4.360,-4.468,-8.303,-15.380,-11.557,-6.382,-11.312,-18.322,-0.018,0.919,-0.331,-0.916,-0.366,0.671,73.333,287498.000,1.000
-7.578,-6.566,-10.275,-16.394,-12.115,-5.807,-8.421,-16.199,-0.017,0.919,-0.330,-0.885,-0.336,0.702,73.333,287499.000,1.000
-8.897,-7.353,-10.081,-15.001,-10.383,-3.405,-3.529,-10.699,-0.020,0.922,-0.332,-0.916,-0.183,0.702,73.333,287500.000,1.000
-8.980,-7.192,-8.554,-12.269,-7.694,-0.774,0.167,-5.251,-0.019,0.922,-0.331,-0.946,-0.183,0.824,73.333,287501.000,1.000
-8.608,-6.508,-6.503,-9.172,-5.280,0.711,1.069,-2.124,-0.016,0.921,-0.328,-0.946,-0.214,0.702,73.333,287502.000,1.000
-8.143,-5.357,-4.513,-6.186,-3.599,0.686,-0.446,-1.463,-0.016,0.921,-0.329,-0.854,-0.305,0.763,73.333,287503.000,1.000
-7.519,-3.441,-2.494,-3.268,-2.254,0.000,-2.406,-1.597,-0.015,0.921,-0.331,-0.977,-0.244,0.671,73.333,287504.000,1.000
-6.692,-0.621,-0.412,-0.433,-0.658,-0.023,-2.791,-0.810,-0.017,0.920,-0.329,-0.824,-0.275,0.641,73.333,287505.000,1.000
-5.998,2.552,1.124,1.772,1.056,1.217,-1.221,0.932,-0.019,0.920,-0.331,-0.824,-0.305,0.732,73.333,287506.000,1.000
-6.021,4.958,1.370,2.570,2.058,3.200,1.128,2.270,-0.018,0.921,-0.330,-0.824,-0.397,0.793,73.333,287507.000,1.000
-7.136,5.569,-0.162,1.527,1.575,4.584,2.556,1.947,-0.019,0.921,-0.331,-0.763,-0.305,0.763,73.333,287508.000,1.000
-9.081,4.135,-2.871,-1.045,-0.452,4.018,2.177,-0.084,-0.020,0.921,-0.331,-0.671,-0.336,0.763,73.333,287509.000,1.000
-11.002,1.333,-5.575,-4.225,-3.291,1.216,0.318,-2.848,-0.021,0.920,-0.328,-0.641,-0.366,0.824,73.333,287510.000,1.000
-12.015,-1.743,-7.376,-7.024,-5.996,-2.879,-2.110,-5.385,-0.019,0.920,-0.330,-0.702,-0.397,0.885,73.333,287511.000,1.000
-11.768,-4.239,-7.963,-8.829,-8.017,-6.877,-4.433,-7.386,-0.020,0.919,-0.332,-0.671,-0.488,0.824,73.333,287512.000,1.000
-10.551,-5.798,-7.825,-9.403,-9.128,-9.489,-6.272,-8.686,-0.020,0.923,-0.334,-0.549,-0.580,0.824,73.333,287513.000,1.000
-8.869,-6.361,-7.279,-8.545,-9.023,-9.611,-6.641,-8.498,-0.018,0.923,-0.335,-0.580,-0.580,0.885,73.333,287514.000,1.000
-7.114,-6.078,-6.488,-6.335,-7.574,-6.945,-4.670,-6.254,-0.018,0.919,-0.332,-0.549,-0.671,0.916,73.333,287515.000,1.000
-5.702,-5.593,-5.879,-3.724,-5.660,-3.105,-1.484,-3.215,-0.018,0.920,-0.332,-0.580,-0.671,0.977,73.333,287516.000,1.000
-5.149,-5.911,-5.970,-2.298,-4.988,-1.092,-0.096,-2.166,-0.019,0.921,-0.334,-0.641,-0.641,1.038,73.333,287517.000,1.000
-5.671,-7.418,-7.024,-3.037,-6.370,-2.448,-2.508,-4.664,-0.018,0.920,-0.332,-0.519,-0.610,1.068,73.333,287518.000,1.000
-6.857,-9.192,-8.177,-5.292,-8.483,-5.294,-6.843,-8.885,-0.019,0.918,-0.335,-0.397,-0.641,1.068,73.333,287519.000,1.000
-8.031,-9.873,-8.371,-7.496,-9.062,-6.248,-9.094,-11.265,-0.017,0.917,-0.335,-0.305,-0.671,1.038,73.333,287520.000,1.000
-8.843,-9.171,-7.552,-8.698,-7.315,-4.215,-7.566,-10.090,-0.018,0.918,-0.335,-0.153,-0.580,1.129,73.333,287521.000,1.000
-9.381,-8.162,-6.501,-9.155,-4.697,-1.459,-4.408,-6.871,-0.017,0.919,-0.334,-0.183,-0.610,1.099,73.333,287522.000,1.000
-9.776,-8.097,-6.270,-9.593,-3.326,-0.944,-3.072,-4.460,-0.018,0.918,-0.335,-0.153,-0.610,1.099,73.333,287523.000,1.000
-9.924,-9.320,-7.069,-10.275,-4.220,-3.747,-5.125,-4.562,-0.018,0.916,-0.338,-0.153,-0.641,1.099,73.333,287524.000,1.000
-9.781,-11.327,-8.555,-11.009,-6.951,-8.846,-9.664,-6.944,-0.017,0.917,-0.334,-0.092,-0.732,1.099,73.333,287525.000,1.000
-9.590,-13.204,-10.211,-11.347,-10.016,-13.813,-13.817,-9.609,-0.016,0.919,-0.333,0.000,-0.671,1.007,73.333,287526.000,1.000
-9.694,-13.954,-11.338,-10.690,-11.571,-15.764,-14.069,-9.877,-0.016,0.920,-0.330,-0.031,-0.610,1.038,73.333,287527.000,1.000
-10.419,-13.141,-11.905,-8.943,-10.821,-13.451,-9.344,-6.736,-0.015,0.921,-0.333,-0.031,-0.671,1.038,73.333,287528.000,1.000
-12.002,-11.329,-12.411,-6.918,-8.831,-8.728,-2.377,-2.034,-0.018,0.920,-0.335,0.000,-0.641,1.068,73.333,287529.000,1.000
-14.254,-9.417,-13.461,-5.717,-7.373,-4.878,2.562,1.238,-0.018,0.920,-0.333,0.031,-0.671,1.038,73.333,287530.000,1.000
-16.321,-7.535,-14.852,-5.562,-7.008,-3.478,3.454,1.929,-0.017,0.922,-0.334,0.061,-0.793,1.007,73.333,287531.000,1.000
-17.099,-5.014,-15.320,-5.490,-6.619,-3.384,1.969,1.709,-0.016,0.922,-0.336,0.061,-0.732,0.977,73.333,287532.000,1.000
-16.048,-1.455,-13.995,-4.419,-4.730,-2.341,1.391,3.116,-0.015,0.921,-0.334,-0.061,-0.702,0.977,73.333,287533.000,1.000
-13.600,2.460,-11.027,-2.320,-1.196,0.746,3.625,6.757,-0.016,0.921,-0.333,-0.092,-0.671,1.007,73.333,287534.000,1.000
