EEG 1,EEG 2,EEG 3,EEG 4,EEG 5,EEG 6,EEG 7,EEG 8,Accelerometer X,Accelerometer Y,Accelerometer Z,Gyroscope X,Gyroscope Y,Gyroscope Z,Battery Level,Counter,Validation Indicator
170.282,-0.281,0.280,0.305,-4.364,-5.547,-0.529,-1.782,-0.037,0.872,-0.430,-0.610,-2.594,0.458,80.000,168905.000,1.000
45.148,-0.073,1.129,1.205,-4.307,-5.569,-0.545,-0.710,-0.039,0.873,-0.427,-0.641,-2.655,0.488,80.000,168906.000,1.000
-198.606,0.106,2.153,1.417,-4.642,-5.546,-1.044,-0.563,-0.039,0.873,-0.428,-0.641,-2.716,0.458,80.000,168907.000,1.000
-452.188,0.499,3.204,1.342,-5.029,-5.015,-1.713,-1.141,-0.038,0.871,-0.429,-0.641,-2.777,0.458,80.000,168908.000,1.000
-629.395,1.073,4.209,1.459,-5.143,-4.155,-2.634,-1.879,-0.037,0.873,-0.430,-0.641,-2.777,0.488,80.000,168909.000,1.000
-707.286,1.557,5.085,2.052,-4.750,-3.471,-4.015,-2.154,-0.036,0.873,-0.428,-0.610,-2.747,0.427,80.000,168910.000,1.000
-718.405,1.913,6.065,3.366,-3.420,-2.940,-5.281,-1.239,-0.038,0.872,-0.427,-0.519,-2.899,0.397,80.000,168911.000,1.000
-706.902,2.401,7.643,5.478,-0.749,-1.923,-5.196,1.239,-0.036,0.873,-0.430,-0.580,-2.899,0.366,80.000,168912.000,1.000
-692.619,3.299,9.792,7.977,3.168,0.164,-3.106,4.809,-0.036,0.872,-0.429,-0.549,-2.869,0.488,80.000,168913.000,1.000
-675.506,4.740,12.168,10.128,7.656,3.270,0.503,8.428,-0.035,0.874,-0.428,-0.549,-2.869,0.488,80.000,168914.000,1.000
-661.516,6.623,14.160,11.229,11.691,6.508,3.985,10.925,-0.036,0.874,-0.428,-0.458,-2.838,0.519,80.000,168915.000,1.000
-664.845,8.592,15.268,10.968,14.310,8.682,5.534,11.594,-0.033,0.875,-0.427,-0.549,-2.808,0.458,80.000,168916.000,1.000
-683.533,10.118,15.312,9.489,15.032,9.233,4.507,10.498,-0.032,0.877,-0.426,-0.580,-2.747,0.610,80.000,168917.000,1.000
-693.841,10.658,13.996,7.151,13.937,8.361,1.480,8.126,-0.031,0.875,-0.427,-0.610,-2.625,0.580,80.000,168918.000,1.000
-680.627,9.968,11.381,4.522,11.621,6.516,-2.153,5.244,-0.032,0.875,-0.427,-0.610,-2.594,0.732,80.000,168919.000,1.000
-659.448,8.365,7.932,2.333,9.097,4.358,-4.802,3.014,-0.031,0.875,-0.427,-0.610,-2.563,0.793,80.000,168920.000,1.000
-656.287,6.530,4.452,1.224,7.375,2.740,-5.357,2.530,-0.032,0.874,-0.431,-0.580,-2.533,0.702,80.000,168921.000,1.000
-673.863,4.957,1.725,1.294,6.758,2.075,-4.074,3.632,-0.034,0.876,-0.430,-0.610,-2.472,0.824,80.000,168922.000,1.000
-687.874,3.638,-0.110,2.001,6.730,2.052,-2.659,4.701,-0.032,0.878,-0.431,-0.671,-2.411,0.854,80.000,168923.000,1.000
-675.221,2.301,-1.098,2.739,6.677,2.179,-2.556,4.370,-0.033,0.875,-0.428,-0.702,-2.411,0.793,80.000,168924.000,1.000
-642.655,0.764,-1.504,3.204,6.393,2.116,-3.912,2.814,-0.032,0.875,-0.427,-0.732,-2.411,0.793,80.000,168925.000,1.000
-626.829,-0.888,-1.637,3.347,5.955,1.572,-5.924,1.210,-0.033,0.874,-0.427,-0.763,-2.289,0.885,80.000,168926.000,1.000
-665.323,-2.357,-1.592,3.110,5.365,0.403,-7.733,0.238,-0.031,0.875,-0.430,-0.732,-2.228,0.885,80.000,168927.000,1.000
-765.374,-3.346,-1.579,2.280,4.410,-1.174,-9.093,-0.589,-0.034,0.873,-0.425,-0.824,-2.136,0.977,80.000,168928.000,1.000
-897.890,-3.666,-1.562,0.812,3.006,-2.593,-9.924,-1.908,-0.034,0.873,-0.425,-0.763,-2.136,1.038,80.000,168929.000,1.000
-1018.199,-3.269,-1.491,-0.985,1.569,-3.164,-10.044,-3.540,-0.035,0.875,-0.428,-0.732,-2.106,0.977,80.000,168930.000,1.000
-1091.023,-2.399,-1.457,-2.661,0.740,-2.522,-9.405,-4.838,-0.037,0.875,-0.427,-0.702,-2.106,1.068,80.000,168931.000,1.000
-1104.914,-1.705,-1.640,-3.956,0.672,-1.305,-8.615,-5.546,-0.039,0.875,-0.428,-0.732,-2.167,0.977,80.000,168932.000,1.000
-1077.184,-1.868,-2.356,-4.832,0.852,-0.959,-8.922,-6.019,-0.038,0.876,-0.427,-0.671,-2.228,0.946,80.000,168933.000,1.000
-1042.785,-2.898,-3.299,-5.141,0.854,-2.150,-10.750,-6.578,-0.039,0.876,-0.428,-0.763,-2.319,0.916,80.000,168934.000,1.000
-1026.193,-4.040,-3.802,-4.627,0.948,-3.853,-12.993,-6.978,-0.038,0.876,-0.430,-0.824,-2.197,0.732,80.000,168935.000,1.000
-1024.307,-4.435,-3.385,-3.226,1.779,-4.402,-13.833,-6.448,-0.038,0.876,-0.429,-0.793,-2.228,0.702,80.000,168936.000,1.000
-1015.823,-3.732,-2.059,-1.292,3.663,-2.937,-12.112,-4.318,-0.038,0.876,-0.428,-0.824,-2.350,0.671,80.000,168937.000,1.000
-978.521,-2.191,-0.570,0.487,6.252,0.005,-8.285,-0.774,-0.037,0.875,-0.430,-0.885,-2.228,0.671,80.000,168938.000,1.000
-904.780,-0.498,0.263,1.361,8.578,2.785,-4.158,2.857,-0.035,0.873,-0.429,-0.885,-2.350,0.671,80.000,168939.000,1.000
-809.585,0.477,-0.401,0.631,9.346,3.709,-2.173,4.309,-0.035,0.874,-0.428,-0.946,-2.411,0.671,80.000,168940.000,1.000
-713.365,0.148,-2.908,-1.887,7.746,2.224,-3.839,2.005,-0.032,0.875,-0.427,-0.977,-2.441,0.702,80.000,168941.000,1.000
-616.310,-1.262,-6.407,-5.308,4.393,-0.633,-8.212,-2.942,-0.032,0.874,-0.428,-0.946,-2.411,0.610,80.000,168942.000,1.000
-501.878,-2.781,-9.432,-8.102,1.108,-2.889,-12.436,-7.358,-0.032,0.874,-0.428,-0.763,-2.319,0.732,80.000,168943.000,1.000
-360.554,-3.462,-10.686,-9.251,-0.554,-3.043,-13.901,-8.909,-0.033,0.872,-0.427,-0.885,-2.167,0.763,80.000,168944.000,1.000
-200.525,-3.176,-10.137,-8.982,-0.422,-1.185,-12.320,-7.892,-0.033,0.872,-0.430,-0.916,-2.106,0.916,80.000,168945.000,1.000
-40.898,-2.551,-8.737,-8.217,0.620,1.278,-9.426,-6.111,-0.031,0.871,-0.430,-0.793,-2.075,0.885,80.000,168946.000,1.000
98.963,-2.316,-7.421,-7.604,1.684,2.871,-7.027,-4.783,-0.032,0.872,-0.427,-0.824,-1.984,0.885,80.000,168947.000,1.000
208.635,-2.826,-6.904,-7.226,2.433,3.022,-5.707,-3.823,-0.033,0.873,-0.426,-0.702,-1.831,0.977,80.000,168948.000,1.000
291.004,-4.033,-7.260,-6.919,2.914,2.139,-4.689,-2.522,-0.033,0.873,-0.425,-0.671,-1.740,1.007,80.000,168949.000,1.000
352.933,-5.668,-8.277,-6.770,3.117,0.943,-3.171,-0.710,-0.034,0.875,-0.427,-0.732,-1.740,0.977,80.000,168950.000,1.000
389.548,-7.423,-9.615,-7.147,2.783,-0.298,-1.450,0.786,-0.036,0.877,-0.428,-0.702,-1.617,1.068,80.000,168951.000,1.000
385.776,-9.060,-10.743,-8.288,1.700,-1.775,-0.588,0.789,-0.034,0.875,-0.428,-0.671,-1.648,1.038,80.000,168952.000,1.000
336.588,-10.351,-11.315,-9.930,0.167,-3.358,-1.261,-1.111,-0.033,0.871,-0.427,-0.732,-1.556,1.068,80.000,168953.000,1.000
259.831,-11.024,-10.981,-11.292,-0.957,-4.267,-2.789,-3.954,-0.032,0.869,-0.432,-0.763,-1.495,1.068,80.000,168954.000,1.000
183.394,-10.895,-9.816,-11.622,-0.841,-3.753,-3.765,-6.012,-0.035,0.869,-0.429,-0.763,-1.495,1.129,80.000,168955.000,1.000
120.730,-10.003,-8.252,-10.720,0.667,-1.801,-3.192,-6.002,-0.034,0.867,-0.427,-0.671,-1.434,1.068,80.000,168956.000,1.000
65.846,-8.613,-6.697,-9.102,2.900,0.963,-1.079,-4.019,-0.035,0.870,-0.430,-0.641,-1.373,1.038,80.000,168957.000,1.000
12.490,-7.097,-5.625,-7.608,4.887,3.809,1.619,-1.243,-0.034,0.871,-0.433,-0.610,-1.434,1.038,80.000,168958.000,1.000
-31.762,-5.800,-5.055,-6.637,6.027,6.149,3.872,1.351,-0.035,0.870,-0.430,-0.488,-1.312,1.038,80.000,168959.000,1.000
-53.695,-5.060,-4.838,-6.042,6.135,7.274,4.828,3.375,-0.035,0.870,-0.430,-0.427,-1.343,0.946,80.000,168960.000,1.000
-51.168,-5.153,-4.842,-5.605,5.168,6.423,3.950,4.549,-0.034,0.870,-0.428,-0.458,-1.373,0.916,80.000,168961.000,1.000
-39.173,-5.984,-4.822,-5.244,3.372,3.644,1.581,4.729,-0.036,0.872,-0.430,-0.427,-1.282,0.977,80.000,168962.000,1.000
-37.279,-6.973,-4.671,-4.941,1.443,0.142,-1.135,4.221,-0.035,0.872,-0.428,-0.549,-1.343,0.885,80.000,168963.000,1.000
-48.991,-7.450,-4.184,-4.641,0.125,-2.470,-2.869,3.705,-0.034,0.874,-0.429,-0.610,-1.343,0.854,80.000,168964.000,1.000
-57.472,-7.079,-3.425,-4.290,-0.155,-2.868,-2.753,3.944,-0.034,0.875,-0.428,-0.549,-1.373,0.885,80.000,168965.000,1.000
-45.874,-5.912,-2.600,-3.804,0.687,-0.420,-0.415,5.467,-0.035,0.876,-0.427,-0.580,-1.251,0.854,80.000,168966.000,1.000
-19.717,-4.364,-1.827,-3.215,2.244,4.116,3.712,7.854,-0.035,0.876,-0.428,-0.671,-1.221,0.916,80.000,168967.000,1.000
-6.603,-3.165,-1.566,-2.843,3.551,8.491,7.991,9.574,-0.035,0.876,-0.429,-0.793,-1.221,0.946,80.000,168968.000,1.000
-34.826,-3.050,-2.216,-3.081,3.569,10.253,10.469,9.106,-0.035,0.876,-0.429,-0.793,-1.312,0.946,80.000,168969.000,1.000
-110.083,-4.214,-3.894,-4.072,1.921,8.461,10.013,6.136,-0.036,0.877,-0.431,-0.916,-1.312,0.885,80.000,168970.000,1.000
-205.126,-5.951,-5.975,-5.376,-0.616,4.457,7.297,2.121,-0.036,0.877,-0.432,-0.885,-1.282,0.946,80.000,168971.000,1.000
-266.995,-7.108,-7.218,-6.141,-2.537,0.856,4.584,-0.458,-0.035,0.875,-0.430,-0.977,-1.312,0.885,80.000,168972.000,1.000
-239.216,-6.999,-7.002,-5.861,-2.820,-0.503,3.724,-0.165,-0.034,0.875,-0.428,-1.038,-1.343,0.824,80.000,168973.000,1.000
-91.240,-5.747,-5.381,-4.704,-1.585,0.528,4.967,2.195,-0.036,0.876,-0.429,-1.099,-1.282,0.854,80.000,168974.000,1.000
160.675,-3.902,-2.917,-3.179,0.459,3.174,7.435,4.724,-0.037,0.877,-0.430,-1.129,-1.404,0.824,80.000,168975.000,1.000
456.962,-2.026,-0.268,-1.581,2.772,6.449,10.219,6.466,-0.037,0.876,-0.432,-1.312,-1.495,0.854,80.000,168976.000,1.000
719.869,-0.618,2.003,-0.038,4.901,9.023,12.482,7.641,-0.036,0.876,-0.430,-1.343,-1.465,0.793,80.000,168977.000,1.000
883.442,-0.097,3.085,1.023,6.092,9.491,13.101,8.326,-0.036,0.877,-0.431,-1.404,-1.312,0.702,80.000,168978.000,1.000
912.259,-0.661,2.522,1.044,5.613,7.393,11.607,8.171,-0.036,0.877,-0.431,-1.465,-1.434,0.763,80.000,168979.000,1.000
803.099,-2.204,0.280,-0.193,3.323,3.562,8.620,6.948,-0.036,0.875,-0.433,-1.434,-1.617,0.763,80.000,168980.000,1.000
580.318,-4.362,-3.187,-2.370,-0.243,-0.597,5.265,4.691,-0.038,0.872,-0.432,-1.526,-1.709,0.763,80.000,168981.000,1.000
291.775,-6.526,-6.855,-4.754,-4.077,-3.753,2.704,1.781,-0.036,0.873,-0.432,-1.434,-1.648,0.885,80.000,168982.000,1.000
-2.799,-7.895,-9.711,-6.477,-6.955,-4.932,1.891,-0.706,-0.034,0.874,-0.428,-1.495,-1.709,0.946,80.000,168983.000,1.000
-247.661,-7.816,-10.875,-6.884,-7.956,-4.005,3.296,-1.360,-0.036,0.874,-0.429,-1.587,-1.678,0.885,80.000,168984.000,1.000
-399.979,-6.243,-10.282,-5.972,-7.083,-1.939,6.244,0.203,-0.037,0.874,-0.428,-1.556,-1.770,0.977,80.000,168985.000,1.000
-439.743,-3.786,-8.667,-4.386,-5.231,-0.071,9.380,2.841,-0.037,0.874,-0.427,-1.556,-1.617,0.916,80.000,168986.000,1.000
-385.382,-1.433,-7.035,-3.018,-3.610,0.733,11.614,4.743,-0.037,0.874,-0.426,-1.678,-1.648,1.007,80.000,168987.000,1.000
-291.526,-0.231,-6.528,-2.618,-3.301,-0.026,11.996,4.353,-0.035,0.875,-0.430,-1.587,-1.770,0.977,80.000,168988.000,1.000
-214.987,-0.847,-7.599,-3.407,-4.873,-2.703,9.891,1.125,-0.035,0.875,-0.427,-1.587,-1.831,0.946,80.000,168989.000,1.000
-177.962,-3.119,-9.924,-5.029,-7.970,-7.017,5.589,-4.091,-0.035,0.875,-0.425,-1.587,-1.801,0.854,80.000,168990.000,1.000
-165.951,-5.990,-12.499,-6.692,-11.270,-11.552,0.763,-9.220,-0.034,0.874,-0.426,-1.678,-1.862,0.885,80.000,168991.000,1.000
-159.845,-7.993,-13.959,-7.436,-13.085,-14.171,-2.122,-11.794,-0.034,0.875,-0.428,-1.556,-1.862,0.946,80.000,168992.000,1.000
-164.365,-8.036,-13.544,-6.636,-12.336,-13.365,-1.480,-10.407,-0.036,0.876,-0.424,-1.587,-1.953,0.977,80.000,168993.000,1.000
-201.825,-5.986,-11.220,-4.466,-9.262,-9.440,2.371,-5.793,-0.036,0.876,-0.424,-1.709,-1.984,0.977,80.000,168994.000,1.000
-285.471,-2.602,-7.922,-1.898,-5.195,-4.181,7.442,-0.461,-0.035,0.875,-0.423,-1.678,-1.862,1.038,80.000,168995.000,1.000
-405.329,1.034,-4.943,0.021,-1.609,0.568,11.562,3.092,-0.035,0.875,-0.424,-1.740,-1.892,0.946,80.000,168996.000,1.000
-534.598,3.910,-3.174,0.766,0.543,3.718,13.507,3.828,-0.033,0.875,-0.424,-1.709,-1.862,0.977,80.000,168997.000,1.000
-644.380,5.196,-3.273,0.298,0.902,4.867,12.938,2.181,-0.033,0.875,-0.424,-1.770,-1.892,0.946,80.000,168998.000,1.000
-710.720,4.422,-5.256,-1.081,-0.418,4.065,10.342,-0.660,-0.033,0.874,-0.423,-1.709,-1.831,0.916,80.000,168999.000,1.000
-713.855,1.680,-8.644,-2.954,-3.008,1.536,6.559,-3.609,-0.033,0.876,-0.425,-1.831,-1.801,1.007,80.000,169000.000,1.000
-646.316,-2.367,-12.587,-4.948,-6.362,-2.535,2.303,-6.091,-0.032,0.875,-0.427,-1.740,-1.831,1.068,80.000,169001.000,1.000
-523.971,-6.734,-16.049,-6.790,-9.952,-7.857,-1.950,-7.876,-0.033,0.872,-0.428,-1.678,-1.740,1.038,80.000,169002.000,1.000
-377.849,-10.345,-18.285,-8.242,-13.100,-13.519,-5.797,-8.725,-0.033,0.872,-0.428,-1.648,-1.709,1.068,80.000,169003.000,1.000
-233.659,-12.215,-18.551,-8.969,-14.989,-17.975,-8.501,-8.344,-0.031,0.869,-0.427,-1.556,-1.648,1.190,80.000,169004.000,1.000
-103.282,-11.856,-16.675,-8.769,-15.161,-20.016,-9.598,-6.935,-0.033,0.869,-0.427,-1.526,-1.648,1.221,80.000,169005.000,1.000
10.828,-9.579,-13.242,-7.675,-13.799,-19.533,-9.279,-5.259,-0.035,0.868,-0.427,-1.434,-1.709,1.190,80.000,169006.000,1.000
112.767,-6.327,-9.124,-5.839,-11.475,-17.263,-7.953,-3.935,-0.034,0.870,-0.423,-1.373,-1.556,1.160,80.000,169007.000,1.000
209.266,-3.224,-5.379,-3.592,-8.854,-14.145,-6.067,-3.110,-0.034,0.871,-0.424,-1.373,-1.587,1.129,80.000,169008.000,1.000
293.178,-1.064,-2.529,-1.302,-6.458,-10.854,-3.770,-2.434,-0.035,0.870,-0.426,-1.282,-1.587,1.129,80.000,169009.000,1.000
329.503,0.019,-0.584,0.857,-4.437,-7.702,-0.949,-1.173,-0.034,0.872,-0.427,-1.221,-1.526,1.129,80.000,169010.000,1.000
276.141,0.419,0.848,2.881,-2.702,-5.010,2.396,1.163,-0.035,0.874,-0.426,-1.282,-1.526,1.038,80.000,169011.000,1.000
127.564,0.598,2.257,4.576,-1.376,-3.361,5.663,3.864,-0.033,0.873,-0.425,-1.251,-1.495,1.007,80.000,169012.000,1.000
-73.731,0.813,3.570,5.487,-0.865,-3.217,7.602,5.250,-0.034,0.875,-0.424,-1.221,-1.373,0.916,80.000,169013.000,1.000
-271.068,1.072,4.661,5.407,-1.401,-4.524,7.279,4.233,-0.035,0.876,-0.425,-1.251,-1.434,0.916,80.000,169014.000,1.000
-425.447,1.187,5.429,4.607,-2.730,-6.838,4.625,1.158,-0.034,0.876,-0.427,-1.251,-1.373,0.854,80.000,169015.000,1.000
-517.726,1.014,6.011,3.737,-4.169,-9.447,0.631,-2.504,-0.034,0.878,-0.426,-1.373,-1.373,0.793,80.000,169016.000,1.000
-540.179,0.730,6.896,3.517,-4.897,-11.402,-2.933,-5.034,-0.029,0.878,-0.427,-1.343,-1.373,0.793,80.000,169017.000,1.000
-488.589,0.748,8.233,4.270,-4.378,-11.938,-4.549,-5.370,-0.027,0.876,-0.427,-1.465,-1.282,0.793,80.000,169018.000,1.000
-353.258,1.387,9.975,5.812,-2.568,-10.874,-3.327,-3.283,-0.027,0.872,-0.428,-1.556,-1.190,0.854,80.000,169019.000,1.000
-124.782,2.673,11.799,7.625,0.160,-8.520,0.677,0.664,-0.029,0.870,-0.427,-1.495,-1.129,0.946,80.000,169020.000,1.000
182.955,4.308,13.256,9.061,3.090,-5.456,6.201,4.976,-0.027,0.870,-0.429,-1.495,-0.946,1.068,80.000,169021.000,1.000
513.919,5.720,13.983,9.506,5.309,-2.459,11.178,7.637,-0.030,0.871,-0.427,-1.312,-0.885,1.038,80.000,169022.000,1.000
769.257,6.336,13.582,8.684,6.180,-0.324,13.783,7.463,-0.031,0.871,-0.428,-1.160,-0.763,1.129,80.000,169023.000,1.000
842.104,6.040,12.342,7.012,5.821,0.585,13.740,5.130,-0.031,0.873,-0.429,-1.160,-0.641,1.129,80.000,169024.000,1.000
688.864,5.314,10.979,5.333,4.969,0.746,12.221,2.457,-0.033,0.872,-0.429,-0.946,-0.671,1.160,80.000,169025.000,1.000
372.754,4.841,10.075,4.340,4.366,1.182,10.835,0.965,-0.033,0.875,-0.430,-0.916,-0.671,1.282,80.000,169026.000,1.000
24.592,4.937,9.763,4.200,4.290,2.385,10.545,1.149,-0.033,0.875,-0.426,-0.854,-0.702,1.221,80.000,169027.000,1.000
-229.411,5.427,9.590,4.586,4.552,3.690,10.956,2.516,-0.035,0.874,-0.424,-0.885,-0.671,1.190,80.000,169028.000,1.000
-303.433,5.979,9.370,5.031,4.793,4.015,10.958,4.023,-0.037,0.876,-0.423,-0.916,-0.732,1.129,80.000,169029.000,1.000
-164.679,6.225,8.927,4.997,4.594,2.866,9.510,4.443,-0.039,0.877,-0.426,-0.824,-0.824,0.977,80.000,169030.000,1.000
150.985,5.767,7.939,4.037,3.572,0.504,6.288,3.034,-0.040,0.879,-0.426,-0.885,-0.946,0.885,80.000,169031.000,1.000
546.126,4.560,6.538,2.296,1.864,-2.155,2.182,0.335,-0.041,0.880,-0.427,-0.916,-1.068,0.732,80.000,169032.000,1.000
904.468,3.209,5.340,0.636,0.341,-3.733,-1.092,-2.108,-0.042,0.882,-0.425,-1.007,-1.160,0.580,80.000,169033.000,1.000
1131.622,2.480,5.275,-0.044,-0.091,-3.283,-2.116,-3.126,-0.042,0.884,-0.425,-1.190,-1.312,0.397,80.000,169034.000,1.000
1165.896,2.634,6.542,0.369,0.707,-1.015,-0.997,-2.869,-0.041,0.885,-0.424,-1.221,-1.312,0.275,80.000,169035.000,1.000
983.813,3.420,8.628,1.403,2.256,2.132,1.195,-2.015,-0.040,0.886,-0.425,-1.404,-1.434,0.153,80.000,169036.000,1.000
621.337,4.419,11.003,2.649,4.034,5.228,3.749,-0.672,-0.038,0.886,-0.426,-1.617,-1.404,0.092,80.000,169037.000,1.000
173.944,5.257,12.960,3.843,5.606,7.611,6.289,1.269,-0.034,0.887,-0.426,-1.740,-1.587,-0.031,80.000,169038.000,1.000
-250.016,5.694,14.043,4.748,6.508,8.893,8.303,3.262,-0.035,0.885,-0.428,-1.862,-1.648,-0.061,80.000,169039.000,1.000
-579.560,5.651,14.080,5.152,6.332,8.873,8.914,4.233,-0.035,0.883,-0.423,-1.892,-1.587,-0.183,80.000,169040.000,1.000
-793.103,5.245,13.356,5.096,5.058,7.627,7.603,3.709,-0.034,0.882,-0.423,-2.045,-1.617,-0.153,80.000,169041.000,1.000
-900.307,4.825,12.624,4.963,3.282,5.855,5.038,2.407,-0.033,0.882,-0.426,-2.075,-1.617,0.000,80.000,169042.000,1.000
-919.785,4.804,12.375,5.215,1.942,4.784,2.682,1.578,-0.033,0.880,-0.422,-1.984,-1.678,0.000,80.000,169043.000,1.000
-875.427,5.257,12.869,6.110,1.699,5.366,1.961,2.099,-0.030,0.879,-0.424,-1.984,-1.587,0.153,80.000,169044.000,1.000
-806.426,5.783,13.832,7.551,2.573,7.692,3.456,4.098,-0.031,0.878,-0.423,-1.923,-1.495,0.153,80.000,169045.000,1.000
-757.951,6.001,14.756,9.244,4.217,11.265,7.000,7.240,-0.031,0.877,-0.425,-1.923,-1.434,0.244,80.000,169046.000,1.000
-755.474,5.857,15.319,10.720,6.037,15.193,11.579,10.516,-0.033,0.875,-0.421,-1.984,-1.373,0.305,80.000,169047.000,1.000
-796.182,5.250,14.943,11.130,6.874,17.763,14.663,11.768,-0.035,0.876,-0.420,-2.014,-1.282,0.427,80.000,169048.000,1.000
-856.493,3.960,13.341,9.821,5.601,17.080,13.781,9.214,-0.035,0.876,-0.422,-2.014,-1.343,0.488,80.000,169049.000,1.000
-898.758,2.187,10.840,7.179,2.435,12.918,8.927,3.627,-0.037,0.874,-0.421,-1.923,-1.404,0.519,80.000,169050.000,1.000
-883.075,0.600,8.293,4.456,-1.118,7.168,2.487,-2.218,-0.039,0.873,-0.420,-1.892,-1.282,0.610,80.000,169051.000,1.000
-790.321,-0.277,6.577,2.833,-3.504,2.393,-2.772,-5.790,-0.039,0.873,-0.421,-1.831,-1.373,0.702,80.000,169052.000,1.000
-638.020,-0.301,5.968,2.869,-3.788,0.549,-4.991,-5.786,-0.040,0.872,-0.419,-1.801,-1.434,0.702,80.000,169053.000,1.000
-468.164,0.411,6.510,4.371,-1.929,2.214,-3.609,-2.468,-0.039,0.870,-0.420,-1.770,-1.556,0.702,80.000,169054.000,1.000
-314.867,1.433,7.670,6.321,0.953,6.064,-0.103,2.003,-0.038,0.868,-0.418,-1.709,-1.526,0.641,80.000,169055.000,1.000
-180.060,2.244,8.697,7.567,3.272,9.680,2.957,4.895,-0.038,0.867,-0.417,-1.587,-1.556,0.519,80.000,169056.000,1.000
-37.267,2.689,9.501,7.753,4.187,11.467,4.115,4.964,-0.037,0.866,-0.420,-1.526,-1.587,0.549,80.000,169057.000,1.000
140.269,3.084,10.422,7.425,4.018,11.666,3.766,3.038,-0.037,0.863,-0.419,-1.495,-1.526,0.580,80.000,169058.000,1.000
353.630,3.862,12.045,7.482,3.625,11.477,3.286,1.076,-0.036,0.864,-0.422,-1.312,-1.526,0.549,80.000,169059.000,1.000
577.260,5.046,14.285,8.337,3.466,11.447,3.210,0.453,-0.034,0.863,-0.421,-1.099,-1.465,0.519,80.000,169060.000,1.000
774.463,6.100,16.281,9.574,3.326,10.990,2.703,1.046,-0.032,0.865,-0.422,-0.946,-1.373,0.427,80.000,169061.000,1.000
910.912,6.336,17.203,10.359,2.783,9.381,0.768,1.759,-0.033,0.864,-0.419,-0.793,-1.404,0.458,80.000,169062.000,1.000
967.698,5.530,16.538,10.117,1.792,6.963,-2.455,1.794,-0.035,0.865,-0.420,-0.580,-1.282,0.519,80.000,169063.000,1.000
954.945,4.177,14.670,9.025,0.887,5.255,-5.143,1.591,-0.035,0.865,-0.422,-0.336,-1.343,0.458,80.000,169064.000,1.000
910.113,3.027,12.373,7.715,0.693,5.535,-5.323,2.168,-0.034,0.867,-0.421,-0.366,-1.312,0.427,80.000,169065.000,1.000
874.180,2.349,10.244,6.610,1.137,7.342,-2.871,3.624,-0.033,0.873,-0.419,-0.244,-1.251,0.458,80.000,169066.000,1.000
862.779,1.766,8.543,5.658,1.392,8.813,0.451,4.834,-0.035,0.873,-0.418,-0.214,-1.221,0.519,80.000,169067.000,1.000
857.104,0.911,7.165,4.720,0.853,8.515,2.673,4.798,-0.034,0.876,-0.420,-0.122,-1.190,0.397,80.000,169068.000,1.000
824.313,0.093,6.511,4.089,-0.043,6.693,3.412,3.962,-0.033,0.877,-0.421,-0.122,-1.160,0.458,80.000,169069.000,1.000
748.647,0.045,6.970,4.155,-0.329,4.648,3.429,3.526,-0.032,0.878,-0.421,-0.092,-1.068,0.519,80.000,169070.000,1.000
643.508,1.035,8.207,4.804,0.364,3.389,3.326,3.951,-0.034,0.877,-0.420,-0.061,-1.007,0.580,80.000,169071.000,1.000
537.527,2.535,9.413,5.519,1.603,3.245,3.399,4.914,-0.031,0.878,-0.420,-0.061,-1.068,0.458,80.000,169072.000,1.000
453.519,3.810,9.831,6.023,2.933,4.310,4.066,6.284,-0.031,0.881,-0.421,-0.244,-1.007,0.610,80.000,169073.000,1.000
400.597,4.617,9.782,6.729,4.485,6.738,6.197,8.614,-0.031,0.881,-0.421,-0.305,-0.977,0.702,80.000,169074.000,1.000
382.375,5.190,10.081,8.228,6.685,10.619,10.348,12.308,-0.031,0.881,-0.422,-0.275,-0.854,0.702,80.000,169075.000,1.000
405.029,5.731,11.109,10.367,9.324,15.420,15.514,16.197,-0.031,0.882,-0.422,-0.366,-0.793,0.641,80.000,169076.000,1.000
472.683,5.954,12.424,11.969,11.059,19.287,18.731,17.435,-0.032,0.882,-0.421,-0.336,-0.763,0.763,80.000,169077.000,1.000
581.202,5.220,12.808,11.690,10.305,19.620,16.812,13.729,-0.033,0.881,-0.423,-0.397,-0.671,0.702,80.000,169078.000,1.000
714.679,3.263,11.678,9.399,6.854,15.244,9.577,5.957,-0.033,0.880,-0.425,-0.366,-0.610,0.763,80.000,169079.000,1.000
837.886,0.686,9.486,6.419,2.391,7.894,0.450,-2.016,-0.035,0.880,-0.425,-0.366,-0.610,0.824,80.000,169080.000,1.000
905.643,-1.265,7.594,4.620,-0.511,1.341,-5.805,-5.862,-0.036,0.879,-0.421,-0.305,-0.732,0.793,80.000,169081.000,1.000
898.041,-1.377,7.637,5.259,0.018,-0.967,-6.017,-3.431,-0.037,0.880,-0.420,-0.458,-0.824,0.763,80.000,169082.000,1.000
840.941,0.775,10.015,8.155,3.925,2.002,-0.693,3.860,-0.036,0.880,-0.423,-0.488,-0.824,0.702,80.000,169083.000,1.000
784.465,4.419,13.749,11.814,9.157,8.327,6.471,11.828,-0.035,0.877,-0.421,-0.549,-0.732,0.641,80.000,169084.000,1.000
759.487,7.960,16.928,14.325,12.888,14.343,10.887,16.044,-0.034,0.877,-0.417,-0.580,-0.916,0.549,80.000,169085.000,1.000
748.112,10.012,17.968,14.601,13.255,16.903,9.996,14.573,-0.033,0.877,-0.421,-0.488,-0.793,0.488,80.000,169086.000,1.000
695.650,10.122,16.572,12.903,10.287,15.066,4.637,8.871,-0.033,0.878,-0.424,-0.458,-0.793,0.488,80.000,169087.000,1.000
559.853,8.618,13.155,10.201,5.459,10.142,-2.295,2.183,-0.034,0.877,-0.424,-0.397,-0.824,0.458,80.000,169088.000,1.000
351.464,6.114,8.603,7.348,0.635,4.699,-7.696,-2.686,-0.033,0.880,-0.426,-0.427,-0.854,0.427,80.000,169089.000,1.000
127.425,3.242,3.699,4.723,-2.734,1.303,-9.632,-4.532,-0.032,0.882,-0.427,-0.458,-0.793,0.488,80.000,169090.000,1.000
-47.384,0.574,-0.876,2.505,-3.954,1.204,-7.803,-3.466,-0.031,0.881,-0.425,-0.519,-0.916,0.458,80.000,169091.000,1.000
-134.174,-1.491,-4.363,0.928,-3.168,3.549,-3.457,-0.358,-0.031,0.876,-0.422,-0.610,-0.885,0.427,80.000,169092.000,1.000
-136.292,-2.833,-6.436,0.071,-1.246,6.143,0.997,3.251,-0.031,0.873,-0.422,-0.549,-0.946,0.549,80.000,169093.000,1.000
-91.906,-3.540,-6.944,-0.261,0.663,7.324,3.439,5.567,-0.033,0.870,-0.422,-0.427,-0.793,0.610,80.000,169094.000,1.000
-43.788,-3.719,-6.092,-0.389,1.690,6.962,3.100,5.558,-0.033,0.869,-0.421,-0.458,-0.824,0.580,80.000,169095.000,1.000
-6.728,-3.465,-4.351,-0.509,1.498,5.771,0.629,3.735,-0.036,0.869,-0.425,-0.275,-0.946,0.427,80.000,169096.000,1.000
41.645,-3.096,-2.338,-0.777,-0.006,4.038,-2.786,1.519,-0.036,0.872,-0.427,-0.122,-0.854,0.275,80.000,169097.000,1.000
138.601,-3.229,-1.089,-1.486,-2.949,1.422,-6.385,-0.217,-0.041,0.874,-0.426,0.000,-0.977,0.305,80.000,169098.000,1.000
297.274,-4.298,-1.193,-2.722,-7.231,-2.038,-9.521,-1.599,-0.040,0.874,-0.425,0.031,-1.068,0.214,80.000,169099.000,1.000
479.273,-6.147,-2.676,-4.209,-12.309,-5.596,-11.758,-3.277,-0.041,0.875,-0.419,-0.031,-1.251,0.000,80.000,169100.000,1.000
608.276,-8.175,-5.080,-5.501,-17.352,-8.629,-13.272,-5.728,-0.041,0.875,-0.421,0.061,-1.404,0.031,80.000,169101.000,1.000
625.758,-9.728,-7.545,-6.296,-21.569,-11.052,-14.763,-9.066,-0.044,0.875,-0.423,0.061,-1.556,-0.061,80.000,169102.000,1.000
542.899,-10.460,-9.588,-6.747,-24.562,-12.988,-17.211,-13.404,-0.043,0.876,-0.423,0.061,-1.770,-0.122,80.000,169103.000,1.000
436.807,-10.399,-10.929,-7.251,-26.386,-14.454,-20.997,-18.564,-0.040,0.876,-0.421,0.061,-1.953,-0.183,80.000,169104.000,1.000
391.542,-9.736,-11.514,-8.005,-27.179,-15.287,-25.362,-23.454,-0.040,0.875,-0.423,0.092,-2.075,-0.061,80.000,169105.000,1.000
436.977,-8.496,-11.194,-8.618,-26.696,-15.025,-28.401,-26.129,-0.039,0.876,-0.424,0.122,-2.136,-0.122,80.000,169106.000,1.000
539.040,-6.468,-9.496,-8.225,-24.344,-12.944,-27.856,-24.850,-0.038,0.875,-0.426,0.092,-2.167,-0.092,80.000,169107.000,1.000
640.952,-3.651,-6.505,-6.347,-20.030,-8.932,-23.131,-19.758,-0.035,0.876,-0.425,0.122,-2.197,-0.092,80.000,169108.000,1.000
705.043,-0.648,-2.904,-3.481,-14.814,-4.331,-16.229,-13.277,-0.036,0.875,-0.426,0.275,-2.289,0.092,80.000,169109.000,1.000
724.623,1.615,0.211,-0.719,-10.261,-1.186,-10.440,-8.321,-0.036,0.874,-0.424,0.336,-2.289,0.061,80.000,169110.000,1.000
715.694,2.552,2.032,1.162,-7.182,-0.534,-7.588,-5.895,-0.036,0.875,-0.422,0.397,-2.350,0.183,80.000,169111.000,1.000
694.430,2.245,2.487,2.084,-5.203,-1.583,-6.645,-4.526,-0.038,0.876,-0.421,0.458,-2.350,0.183,80.000,169112.000,1.000
655.899,1.141,1.587,2.127,-3.695,-2.771,-5.738,-2.619,-0.038,0.877,-0.420,0.427,-2.411,0.244,80.000,169113.000,1.000
586.535,-0.648,-0.659,0.921,-3.110,-3.855,-5.032,-1.254,-0.039,0.875,-0.421,0.366,-2.411,0.366,80.000,169114.000,1.000
498.404,-3.382,-4.377,-2.044,-4.609,-6.030,-6.607,-3.207,-0.040,0.873,-0.421,0.336,-2.411,0.488,80.000,169115.000,1.000
434.253,-6.843,-9.147,-6.353,-8.199,-9.670,-11.122,-9.056,-0.038,0.873,-0.426,0.336,-2.350,0.488,80.000,169116.000,1.000
430.810,-10.096,-13.740,-10.635,-12.292,-13.393,-16.491,-16.070,-0.039,0.873,-0.423,0.305,-2.441,0.427,80.000,169117.000,1.000
484.007,-12.265,-17.270,-13.623,-15.054,-15.534,-20.044,-20.620,-0.039,0.874,-0.423,0.427,-2.502,0.519,80.000,169118.000,1.000
558.646,-13.084,-19.272,-14.651,-15.427,-15.358,-20.215,-20.378,-0.038,0.875,-0.420,0.427,-2.563,0.519,80.000,169119.000,1.000
628.825,-12.787,-19.844,-13.679,-13.345,-13.033,-17.149,-15.351,-0.040,0.875,-0.422,0.488,-2.563,0.549,80.000,169120.000,1.000
694.964,-11.815,-19.502,-11.371,-9.769,-9.415,-12.567,-8.091,-0.039,0.874,-0.422,0.427,-2.625,0.519,80.000,169121.000,1.000
761.437,-10.469,-18.719,-8.814,-6.155,-5.705,-8.709,-2.226,-0.037,0.875,-0.423,0.214,-2.655,0.427,80.000,169122.000,1.000
817.878,-8.542,-17.779,-6.606,-3.143,-2.565,-6.649,0.524,-0.038,0.875,-0.422,0.275,-2.686,0.427,80.000,169123.000,1.000
847.463,-5.529,-16.336,-4.442,-0.168,0.280,-5.367,1.555,-0.036,0.875,-0.421,0.275,-2.625,0.458,80.000,169124.000,1.000
836.591,-1.457,-14.330,-2.060,3.253,3.146,-3.604,2.880,-0.037,0.875,-0.420,0.092,-2.655,0.366,80.000,169125.000,1.000
771.731,2.745,-12.355,0.074,6.465,5.525,-1.798,4.564,-0.034,0.875,-0.421,0.122,-2.594,0.305,80.000,169126.000,1.000
638.913,5.880,-10.940,1.283,8.354,6.695,-1.324,5.262,-0.034,0.875,-0.424,0.031,-2.472,0.336,80.000,169127.000,1.000
436.755,7.372,-10.346,1.449,8.682,6.886,-2.513,4.482,-0.037,0.874,-0.427,0.183,-2.472,0.244,80.000,169128.000,1.000
190.557,7.456,-10.225,1.102,8.265,6.898,-4.052,3.449,-0.037,0.873,-0.425,0.183,-2.472,0.183,80.000,169129.000,1.000
-55.641,6.693,-10.230,0.745,7.975,6.818,-4.679,3.640,-0.037,0.873,-0.428,0.153,-2.441,0.214,80.000,169130.000,1.000
-264.797,5.556,-10.252,0.512,8.062,6.120,-4.185,5.313,-0.037,0.874,-0.426,0.153,-2.350,0.122,80.000,169131.000,1.000
-419.227,4.256,-10.286,0.250,8.142,4.448,-3.162,7.413,-0.039,0.871,-0.427,0.183,-2.350,0.061,80.000,169132.000,1.000
-510.005,2.741,-10.697,-0.399,7.452,1.621,-2.832,8.302,-0.038,0.871,-0.427,0.122,-2.411,-0.031,80.000,169133.000,1.000
-524.793,1.073,-11.428,-1.588,5.583,-2.130,-3.880,7.095,-0.037,0.871,-0.427,0.244,-2.411,-0.031,80.000,169134.000,1.000
-449.597,-0.249,-11.946,-2.957,3.150,-5.544,-5.525,4.496,-0.037,0.873,-0.425,0.153,-2.319,0.000,80.000,169135.000,1.000
-277.361,-0.562,-11.600,-3.877,1.343,-6.941,-6.214,2.035,-0.038,0.875,-0.425,0.275,-2.289,-0.122,80.000,169136.000,1.000
-18.946,0.259,-10.101,-3.990,0.823,-5.699,-5.112,0.662,-0.037,0.877,-0.427,0.214,-2.167,-0.061,80.000,169137.000,1.000
273.204,1.584,-8.043,-3.400,1.387,-2.690,-2.604,0.524,-0.037,0.878,-0.425,0.153,-2.258,0.000,80.000,169138.000,1.000
487.166,2.440,-6.179,-2.378,2.414,0.425,0.456,1.470,-0.038,0.878,-0.426,0.153,-2.228,-0.092,80.000,169139.000,1.000
493.134,2.019,-5.385,-1.326,3.180,1.994,2.841,2.803,-0.038,0.880,-0.427,0.000,-2.075,-0.031,80.000,169140.000,1.000
237.208,0.176,-6.180,-0.542,3.271,1.253,3.565,3.622,-0.035,0.879,-0.426,-0.061,-2.014,-0.031,80.000,169141.000,1.000
-205.602,-2.234,-7.859,0.226,3.158,-0.862,3.227,4.156,-0.037,0.878,-0.427,-0.122,-2.014,0.000,80.000,169142.000,1.000
-670.833,-3.807,-9.172,1.424,3.807,-2.270,3.487,5.476,-0.038,0.878,-0.426,-0.214,-2.075,-0.031,80.000,169143.000,1.000
-991.931,-3.715,-9.226,2.817,5.398,-1.774,5.012,7.480,-0.040,0.879,-0.427,-0.305,-1.984,-0.061,80.000,169144.000,1.000
-1071.858,-2.282,-8.317,3.404,6.988,-0.331,6.436,8.503,-0.040,0.877,-0.425,-0.427,-1.953,0.000,80.000,169145.000,1.000
-910.705,-0.396,-7.150,2.538,7.706,0.162,6.168,7.408,-0.040,0.876,-0.426,-0.366,-2.014,0.000,80.000,169146.000,1.000
-594.255,1.311,-5.757,0.640,7.753,-0.989,4.333,4.860,-0.040,0.875,-0.427,-0.427,-1.984,-0.061,80.000,169147.000,1.000
-257.822,2.663,-4.008,-1.252,8.112,-2.677,2.380,2.584,-0.043,0.876,-0.426,-0.397,-2.045,-0.031,80.000,169148.000,1.000
-35.461,3.694,-1.782,-2.164,9.622,-3.174,1.979,2.262,-0.042,0.875,-0.425,-0.366,-2.014,-0.031,80.000,169149.000,1.000
-6.380,4.344,0.542,-1.776,12.273,-1.621,3.862,4.535,-0.041,0.874,-0.425,-0.366,-2.014,-0.031,80.000,169150.000,1.000
-156.363,4.363,2.205,-0.675,15.057,1.405,7.257,8.332,-0.041,0.875,-0.427,-0.336,-1.984,-0.092,80.000,169151.000,1.000
-382.834,3.457,2.641,-0.007,16.454,4.270,10.177,11.239,-0.041,0.876,-0.429,-0.488,-1.953,-0.122,80.000,169152.000,1.000
-556.830,1.628,1.616,-0.563,15.452,5.199,10.511,11.240,-0.040,0.874,-0.426,-0.427,-1.892,-0.031,80.000,169153.000,1.000
-603.099,-0.530,-0.096,-1.901,12.407,3.451,7.739,8.473,-0.041,0.873,-0.425,-0.427,-1.892,0.000,80.000,169154.000,1.000
-536.741,-2.003,-1.326,-2.696,8.848,0.105,3.227,5.049,-0.042,0.873,-0.426,-0.336,-1.892,-0.031,80.000,169155.000,1.000
-431.982,-2.023,-1.360,-1.927,6.322,-2.584,-0.938,3.215,-0.044,0.875,-0.427,-0.366,-1.923,-0.061,80.000,169156.000,1.000
-362.315,-0.720,-0.347,0.165,5.148,-3.165,-3.685,3.318,-0.043,0.877,-0.430,-0.305,-1.923,0.031,80.000,169157.000,1.000
-365.289,0.997,0.602,2.218,4.413,-2.066,-5.582,3.776,-0.041,0.878,-0.428,-0.305,-1.953,0.122,80.000,169158.000,1.000
-433.247,2.305,0.736,2.990,3.194,-0.620,-7.259,3.141,-0.040,0.877,-0.428,-0.244,-1.831,0.061,80.000,169159.000,1.000
-518.281,2.898,-0.199,2.011,1.222,0.082,-8.804,0.961,-0.040,0.877,-0.426,-0.336,-1.831,0.061,80.000,169160.000,1.000
-563.192,2.778,-2.224,-0.541,-1.409,-0.587,-10.338,-2.870,-0.038,0.876,-0.423,-0.305,-1.770,0.244,80.000,169161.000,1.000
-543.420,2.111,-4.937,-3.935,-4.399,-2.733,-12.018,-8.130,-0.042,0.876,-0.427,-0.305,-1.709,0.244,80.000,169162.000,1.000
-481.355,1.310,-7.684,-6.962,-7.077,-5.760,-13.635,-13.570,-0.042,0.874,-0.426,-0.366,-1.770,0.153,80.000,169163.000,1.000
-426.443,0.832,-9.432,-8.398,-8.654,-8.648,-14.450,-17.197,-0.040,0.876,-0.425,-0.427,-1.678,0.305,80.000,169164.000,1.000
-425.384,0.598,-9.774,-8.029,-9.112,-10.945,-14.382,-18.193,-0.040,0.874,-0.424,-0.397,-1.617,0.305,80.000,169165.000,1.000
-503.770,-0.022,-9.191,-6.843,-9.408,-13.186,-14.487,-17.750,-0.041,0.873,-0.423,-0.305,-1.587,0.397,80.000,169166.000,1.000
-659.387,-1.399,-8.121,-5.936,-10.385,-15.847,-15.575,-17.517,-0.041,0.872,-0.422,-0.183,-1.617,0.458,80.000,169167.000,1.000
-852.746,-3.095,-6.756,-5.645,-11.842,-18.374,-17.193,-18.045,-0.044,0.872,-0.425,-0.153,-1.465,0.580,80.000,169168.000,1.000
-998.655,-4.204,-4.824,-5.564,-12.786,-19.568,-17.907,-18.640,-0.041,0.873,-0.425,-0.092,-1.556,0.580,80.000,169169.000,1.000
-992.332,-4.033,-2.326,-5.125,-12.263,-18.606,-16.695,-18.171,-0.042,0.873,-0.422,-0.031,-1.495,0.519,80.000,169170.000,1.000
-777.131,-2.553,0.240,-4.035,-10.009,-15.786,-13.757,-15.966,-0.042,0.872,-0.425,0.061,-1.495,0.580,80.000,169171.000,1.000
-394.171,-0.533,2.192,-2.607,-6.793,-12.684,-10.561,-12.677,-0.042,0.871,-0.424,-0.061,-1.465,0.519,80.000,169172.000,1.000
40.692,0.835,2.612,-1.768,-4.121,-11.229,-9.153,-10.196,-0.042,0.872,-0.424,0.031,-1.495,0.641,80.000,169173.000,1.000
406.450,0.927,1.388,-2.162,-2.861,-11.768,-9.872,-9.612,-0.041,0.873,-0.422,0.031,-1.434,0.732,80.000,169174.000,1.000
632.583,0.350,-0.584,-3.449,-2.282,-12.337,-10.540,-9.778,-0.042,0.872,-0.426,0.031,-1.434,0.671,80.000,169175.000,1.000
716.114,0.303,-2.028,-4.725,-1.020,-10.761,-8.778,-8.803,-0.042,0.873,-0.429,0.092,-1.465,0.549,80.000,169176.000,1.000
705.575,1.326,-2.178,-5.500,1.227,-7.248,-4.735,-6.473,-0.040,0.872,-0.427,0.183,-1.373,0.671,80.000,169177.000,1.000
665.545,2.932,-1.438,-5.936,3.576,-4.005,-0.873,-4.221,-0.039,0.873,-0.426,0.153,-1.373,0.763,80.000,169178.000,1.000
639.932,4.394,-0.212,-5.994,5.406,-2.603,1.173,-2.674,-0.039,0.873,-0.428,0.183,-1.282,0.793,80.000,169179.000,1.000
630.780,5.533,1.516,-5.033,7.175,-2.521,2.149,-0.544,-0.039,0.872,-0.429,0.214,-1.160,0.763,80.000,169180.000,1.000
604.333,6.681,3.900,-2.542,9.641,-2.048,3.779,3.474,-0.040,0.871,-0.429,0.214,-1.190,0.824,80.000,169181.000,1.000
521.917,7.978,6.654,0.867,12.588,-0.033,6.569,8.338,-0.040,0.870,-0.426,0.183,-1.190,0.732,80.000,169182.000,1.000
372.400,8.904,8.459,3.528,14.695,3.123,9.118,11.146,-0.042,0.869,-0.426,0.275,-1.190,0.671,80.000,169183.000,1.000
180.467,8.680,8.156,4.054,14.646,5.787,9.687,9.956,-0.042,0.870,-0.427,0.336,-1.190,0.671,80.000,169184.000,1.000
-16.486,7.050,5.488,2.370,12.246,6.379,7.607,5.372,-0.042,0.872,-0.428,0.336,-1.190,0.702,80.000,169185.000,1.000
-200.847,4.702,1.471,-0.220,8.723,4.763,4.033,0.082,-0.042,0.870,-0.425,0.336,-1.099,0.702,80.000,169186.000,1.000
-375.541,2.833,-1.970,-1.869,5.979,2.353,1.508,-2.742,-0.040,0.870,-0.424,0.458,-1.068,0.488,80.000,169187.000,1.000
-531.619,2.114,-3.751,-1.660,5.068,0.625,1.719,-1.741,-0.040,0.871,-0.426,0.519,-1.007,0.488,80.000,169188.000,1.000
-637.431,2.149,-4.147,-0.299,5.362,-0.128,4.148,1.453,-0.042,0.870,-0.427,0.641,-1.007,0.397,80.000,169189.000,1.000
-666.236,2.025,-4.419,0.630,5.412,-0.446,6.814,3.701,-0.042,0.871,-0.430,0.732,-1.068,0.366,80.000,169190.000,1.000
-616.646,1.214,-5.411,0.161,4.456,-0.760,8.180,3.258,-0.041,0.874,-0.429,0.732,-1.099,0.458,80.000,169191.000,1.000
-507.977,-0.043,-6.638,-1.293,3.046,-0.944,8.293,1.139,-0.041,0.876,-0.428,0.671,-1.099,0.427,80.000,169192.000,1.000
-372.061,-1.000,-7.204,-2.527,2.437,-0.588,8.080,-0.228,-0.040,0.876,-0.428,0.610,-0.977,0.366,80.000,169193.000,1.000
-248.403,-1.052,-6.415,-2.636,3.397,0.326,8.199,0.621,-0.040,0.874,-0.426,0.580,-1.038,0.427,80.000,169194.000,1.000
-173.573,-0.248,-4.577,-1.778,5.575,1.379,8.452,3.140,-0.041,0.876,-0.426,0.610,-0.977,0.427,80.000,169195.000,1.000
-167.704,0.813,-2.798,-0.880,7.907,2.289,8.356,5.746,-0.040,0.876,-0.427,0.549,-0.916,0.427,80.000,169196.000,1.000
-231.682,1.521,-2.016,-0.760,9.440,3.114,7.875,7.326,-0.041,0.878,-0.429,0.519,-0.977,0.397,80.000,169197.000,1.000
-354.629,1.740,-2.621,-1.530,9.933,4.105,7.398,7.826,-0.042,0.879,-0.428,0.488,-1.068,0.397,80.000,169198.000,1.000
-518.462,1.769,-3.972,-2.753,9.620,5.252,7.109,7.375,-0.042,0.879,-0.428,0.458,-1.007,0.427,80.000,169199.000,1.000
-696.310,1.716,-5.357,-4.208,8.443,5.792,5.998,5.213,-0.040,0.880,-0.427,0.427,-0.885,0.397,80.000,169200.000,1.000
-855.876,1.297,-6.537,-5.965,6.195,4.763,2.990,0.850,-0.040,0.878,-0.428,0.214,-1.068,0.397,80.000,169201.000,1.000
-974.425,0.383,-7.274,-7.766,3.393,2.284,-1.089,-4.231,-0.039,0.878,-0.428,0.092,-0.977,0.458,80.000,169202.000,1.000
-1049.316,-0.480,-7.246,-8.853,1.430,-0.068,-3.850,-7.177,-0.039,0.878,-0.429,0.092,-0.824,0.580,80.000,169203.000,1.000
-1089.201,-0.448,-5.863,-8.455,1.528,-0.588,-3.308,-6.071,-0.039,0.881,-0.429,0.000,-0.824,0.610,80.000,169204.000,1.000
-1101.787,0.572,-3.345,-6.680,3.483,0.798,0.030,-1.727,-0.039,0.880,-0.427,-0.061,-0.854,0.641,80.000,169205.000,1.000
-1091.228,1.721,-0.875,-4.461,5.932,2.735,3.798,3.282,-0.041,0.879,-0.423,-0.244,-0.854,0.793,80.000,169206.000,1.000
-1055.497,2.023,0.500,-2.654,7.669,3.948,6.100,6.935,-0.040,0.877,-0.427,-0.336,-0.824,0.763,80.000,169207.000,1.000
-986.492,0.913,0.062,-1.806,8.016,3.661,5.946,8.143,-0.039,0.877,-0.429,-0.244,-0.854,0.854,80.000,169208.000,1.000
-881.761,-1.663,-2.148,-2.292,6.608,1.431,3.085,6.291,-0.040,0.876,-0.427,-0.397,-0.946,0.793,80.000,169209.000,1.000
-752.540,-5.070,-5.474,-4.005,3.814,-2.310,-1.553,1.987,-0.040,0.876,-0.426,-0.427,-0.763,0.885,80.000,169210.000,1.000
-613.506,-8.056,-8.742,-6.038,0.949,-6.046,-5.758,-2.427,-0.040,0.876,-0.427,-0.397,-0.763,0.916,80.000,169211.000,1.000
-467.410,-9.468,-10.689,-7.306,-0.724,-8.204,-7.665,-4.655,-0.042,0.877,-0.426,-0.488,-0.885,0.916,80.000,169212.000,1.000
-306.897,-8.891,-10.985,-7.448,-1.026,-8.211,-7.503,-4.546,-0.043,0.875,-0.423,-0.580,-0.854,0.946,80.000,169213.000,1.000
-136.989,-6.607,-9.708,-6.746,-0.634,-6.506,-6.772,-3.680,-0.042,0.876,-0.425,-0.641,-0.916,0.946,80.000,169214.000,1.000
7.968,-3.226,-7.168,-5.628,-0.266,-3.973,-6.785,-3.704,-0.042,0.872,-0.424,-0.610,-1.007,0.916,80.000,169215.000,1.000
81.234,0.574,-3.807,-4.319,-0.138,-1.413,-7.812,-5.032,-0.044,0.872,-0.427,-0.641,-1.099,0.854,80.000,169216.000,1.000
60.357,4.177,-0.011,-2.794,0.054,0.772,-9.034,-6.635,-0.047,0.873,-0.427,-0.702,-1.038,0.854,80.000,169217.000,1.000
-35.184,7.282,3.619,-0.890,0.878,2.802,-9.257,-6.865,-0.047,0.874,-0.429,-0.610,-1.129,0.702,80.000,169218.000,1.000
-155.157,10.099,6.956,1.701,2.964,5.452,-7.146,-4.236,-0.045,0.872,-0.430,-0.549,-1.129,0.671,80.000,169219.000,1.000
-241.493,12.920,9.990,5.003,6.471,9.180,-2.069,1.592,-0.041,0.872,-0.430,-0.519,-1.129,0.671,80.000,169220.000,1.000
-251.209,15.360,12.257,8.145,10.324,13.107,4.728,8.605,-0.044,0.872,-0.428,-0.427,-1.312,0.702,80.000,169221.000,1.000
-175.971,16.312,13.024,9.586,12.395,15.276,10.285,12.902,-0.043,0.871,-0.427,-0.427,-1.282,0.671,80.000,169222.000,1.000
-49.258,14.849,11.654,8.306,11.084,14.232,11.961,11.677,-0.041,0.874,-0.425,-0.366,-1.282,0.641,80.000,169223.000,1.000
68.952,10.978,8.554,4.741,6.578,10.113,9.555,5.632,-0.040,0.873,-0.426,-0.366,-1.282,0.671,80.000,169224.000,1.000
126.825,5.505,4.620,0.272,0.412,4.162,4.774,-2.090,-0.039,0.873,-0.427,-0.397,-1.221,0.702,80.000,169225.000,1.000
113.651,-0.299,0.840,-3.621,-5.474,-2.038,0.062,-8.094,-0.038,0.872,-0.426,-0.366,-1.190,0.854,80.000,169226.000,1.000
61.608,-4.955,-1.648,-5.853,-9.379,-6.938,-2.182,-10.158,-0.037,0.872,-0.423,-0.336,-1.221,0.824,80.000,169227.000,1.000
12.565,-7.414,-2.455,-6.251,-10.644,-9.681,-1.205,-8.477,-0.036,0.871,-0.426,-0.275,-1.160,0.854,80.000,169228.000,1.000
-14.271,-7.596,-1.874,-5.509,-9.996,-10.542,1.580,-5.528,-0.036,0.870,-0.427,-0.336,-1.160,0.916,80.000,169229.000,1.000
-23.871,-6.292,-0.736,-4.546,-8.860,-10.639,3.641,-4.178,-0.038,0.869,-0.428,-0.336,-1.099,0.946,80.000,169230.000,1.000
-27.052,-4.637,0.289,-3.845,-8.382,-11.294,3.101,-5.774,-0.038,0.869,-0.428,-0.244,-1.007,1.099,80.000,169231.000,1.000
-29.372,-3.524,1.284,-3.282,-8.813,-13.139,0.022,-9.499,-0.039,0.869,-0.427,-0.183,-0.916,1.038,80.000,169232.000,1.000
-34.563,-3.195,2.514,-2.460,-9.487,-15.486,-3.861,-13.048,-0.038,0.870,-0.429,0.061,-0.885,1.068,80.000,169233.000,1.000
-49.476,-3.270,4.411,-1.090,-9.395,-16.678,-6.168,-14.076,-0.040,0.868,-0.429,0.244,-0.824,1.038,80.000,169234.000,1.000
-77.215,-3.121,7.001,0.684,-7.901,-15.169,-5.322,-11.597,-0.041,0.871,-0.427,0.122,-1.007,0.977,80.000,169235.000,1.000
-105.412,-2.245,9.834,2.408,-5.052,-10.448,-1.081,-6.100,-0.041,0.872,-0.427,0.183,-0.977,0.885,80.000,169236.000,1.000
-112.879,-0.624,12.330,3.557,-1.612,-3.606,5.563,1.009,-0.042,0.874,-0.426,0.122,-0.854,0.885,80.000,169237.000,1.000
-92.115,1.078,13.570,3.601,1.097,2.786,12.264,7.749,-0.042,0.874,-0.424,0.122,-0.946,0.793,80.000,169238.000,1.000
-57.363,1.937,13.154,2.411,1.976,6.115,16.545,12.460,-0.044,0.875,-0.426,0.061,-0.854,0.702,80.000,169239.000,1.000
-35.415,1.453,11.273,0.369,0.787,5.483,17.085,14.352,-0.042,0.876,-0.426,0.000,-0.977,0.580,80.000,169240.000,1.000
-57.022,-0.269,8.413,-2.018,-2.073,2.001,13.990,13.121,-0.043,0.877,-0.428,-0.031,-0.977,0.549,80.000,169241.000,1.000
-142.733,-2.661,5.324,-4.202,-5.713,-2.043,8.905,9.431,-0.039,0.875,-0.428,-0.183,-0.977,0.580,80.000,169242.000,1.000
-281.685,-4.934,2.592,-5.555,-8.768,-4.425,4.452,5.503,-0.037,0.872,-0.431,-0.275,-1.007,0.671,80.000,169243.000,1.000
-432.080,-6.618,0.632,-5.838,-10.323,-4.499,2.474,3.438,-0.037,0.872,-0.430,-0.336,-0.916,0.580,80.000,169244.000,1.000
-552.243,-7.890,-0.951,-5.690,-10.773,-3.590,2.478,3.191,-0.035,0.869,-0.433,-0.305,-0.977,0.610,80.000,169245.000,1.000
-627.204,-8.987,-2.793,-5.919,-11.065,-3.422,2.764,3.396,-0.035,0.868,-0.433,-0.305,-0.854,0.671,80.000,169246.000,1.000
-666.110,-9.572,-4.665,-6.539,-11.491,-4.362,2.507,3.286,-0.035,0.867,-0.433,-0.214,-0.732,0.702,80.000,169247.000,1.000
-683.261,-9.064,-5.961,-6.976,-11.721,-5.553,1.888,2.907,-0.036,0.869,-0.435,-0.122,-0.610,0.763,80.000,169248.000,1.000
-683.689,-7.356,-6.062,-6.749,-11.541,-6.194,1.390,2.414,-0.036,0.869,-0.435,0.122,-0.641,0.763,80.000,169249.000,1.000
-666.033,-4.918,-5.019,-5.818,-11.024,-5.981,1.290,1.843,-0.036,0.870,-0.433,0.275,-0.549,0.824,80.000,169250.000,1.000
-635.622,-2.386,-3.447,-4.399,-10.209,-4.718,1.786,1.374,-0.035,0.871,-0.432,0.275,-0.488,0.824,80.000,169251.000,1.000
-606.527,-0.328,-2.002,-2.769,-9.086,-2.362,2.984,1.334,-0.036,0.873,-0.432,0.336,-0.519,0.977,80.000,169252.000,1.000
-590.350,0.779,-1.571,-1.314,-7.799,0.670,4.509,1.890,-0.037,0.873,-0.428,0.336,-0.519,1.038,80.000,169253.000,1.000
-587.237,0.653,-2.630,-0.447,-6.669,3.571,5.742,2.817,-0.040,0.874,-0.431,0.366,-0.488,1.099,80.000,169254.000,1.000
-586.576,-0.649,-5.299,-0.521,-6.039,5.529,5.926,3.416,-0.041,0.875,-0.431,0.336,-0.580,0.977,80.000,169255.000,1.000
-573.524,-2.633,-9.239,-1.554,-6.017,6.176,4.645,3.110,-0.046,0.876,-0.429,0.366,-0.549,0.946,80.000,169256.000,1.000
-537.091,-4.568,-13.547,-3.132,-6.404,5.709,2.254,1.932,-0.046,0.880,-0.431,0.336,-0.763,0.763,80.000,169257.000,1.000
-476.856,-5.933,-17.560,-4.796,-6.980,4.522,-0.715,0.059,-0.046,0.880,-0.429,0.275,-0.793,0.610,80.000,169258.000,1.000
-402.317,-6.630,-20.645,-6.245,-7.713,2.857,-3.785,-2.485,-0.046,0.882,-0.430,0.153,-0.916,0.397,80.000,169259.000,1.000
-324.007,-6.833,-22.356,-7.301,-8.581,0.935,-6.417,-5.409,-0.048,0.884,-0.428,-0.092,-1.129,0.275,80.000,169260.000,1.000
-247.384,-6.721,-22.493,-7.795,-9.297,-0.706,-7.793,-7.773,-0.046,0.882,-0.428,-0.244,-1.282,0.153,80.000,169261.000,1.000
-175.947,-6.398,-20.982,-7.639,-9.417,-1.322,-7.082,-8.555,-0.046,0.883,-0.428,-0.427,-1.282,0.153,80.000,169262.000,1.000
-114.918,-5.879,-18.220,-6.915,-8.643,-0.465,-4.149,-7.413,-0.043,0.882,-0.432,-0.671,-1.495,-0.031,80.000,169263.000,1.000
-68.764,-5.096,-14.486,-5.677,-6.990,1.654,0.512,-4.689,-0.041,0.883,-0.430,-0.824,-1.526,-0.122,80.000,169264.000,1.000
-36.637,-4.035,-10.117,-4.029,-4.936,4.116,5.643,-1.357,-0.041,0.880,-0.430,-0.946,-1.617,-0.183,80.000,169265.000,1.000
-9.856,-2.891,-5.614,-2.295,-3.334,5.611,9.456,1.196,-0.041,0.877,-0.429,-0.946,-1.648,-0.122,80.000,169266.000,1.000
27.786,-1.944,-1.402,-0.899,-2.893,5.234,10.689,1.890,-0.040,0.875,-0.430,-0.916,-1.740,-0.153,80.000,169267.000,1.000
95.611,-1.261,1.936,-0.144,-3.600,3.374,9.423,0.661,-0.037,0.875,-0.430,-0.946,-1.709,-0.061,80.000,169268.000,1.000
205.300,-0.553,4.253,0.071,-4.610,1.718,7.246,-1.369,-0.036,0.876,-0.429,-1.038,-1.648,-0.061,80.000,169269.000,1.000
350.031,0.572,5.645,0.210,-4.744,2.151,6.081,-2.473,-0.038,0.876,-0.428,-0.916,-1.678,0.000,80.000,169270.000,1.000
507.819,2.193,6.365,0.802,-3.244,5.379,6.997,-1.326,-0.038,0.876,-0.431,-1.160,-1.709,0.183,80.000,169271.000,1.000
650.545,3.813,6.822,1.886,-0.487,10.248,9.617,1.773,-0.037,0.875,-0.429,-1.099,-1.648,0.305,80.000,169272.000,1.000
742.799,4.609,7.008,2.789,2.111,14.441,12.270,4.739,-0.040,0.876,-0.429,-1.129,-1.526,0.458,80.000,169273.000,1.000
753.737,4.143,7.148,2.924,3.265,16.166,13.646,5.688,-0.041,0.877,-0.429,-1.190,-1.556,0.580,80.000,169274.000,1.000
690.716,2.824,7.696,2.465,2.904,15.344,13.874,4.774,-0.041,0.875,-0.428,-1.282,-1.526,0.519,80.000,169275.000,1.000
606.557,1.570,9.070,2.119,1.974,13.222,13.975,3.599,-0.041,0.873,-0.430,-1.312,-1.556,0.488,80.000,169276.000,1.000
560.164,0.861,11.296,2.277,1.204,10.885,14.338,3.026,-0.043,0.873,-0.430,-1.404,-1.495,0.671,80.000,169277.000,1.000
575.231,0.322,13.423,2.642,0.515,8.584,14.157,2.511,-0.043,0.872,-0.427,-1.526,-1.587,0.732,80.000,169278.000,1.000
633.759,-0.624,14.633,2.804,-0.327,6.516,13.012,1.552,-0.044,0.868,-0.426,-1.465,-1.709,0.763,80.000,169279.000,1.000
695.321,-2.150,14.633,2.572,-1.223,5.209,11.386,0.341,-0.044,0.867,-0.425,-1.495,-1.678,0.763,80.000,169280.000,1.000
718.256,-4.022,13.690,2.045,-1.878,4.909,9.948,-0.605,-0.042,0.864,-0.426,-1.495,-1.678,0.763,80.000,169281.000,1.000
674.860,-5.710,12.722,1.754,-1.854,5.407,9.270,-0.588,-0.041,0.864,-0.429,-1.373,-1.556,0.793,80.000,169282.000,1.000
568.555,-6.492,12.583,2.448,-0.600,6.624,9.735,0.970,-0.040,0.864,-0.428,-1.373,-1.465,0.793,80.000,169283.000,1.000
447.036,-5.746,14.017,4.622,2.208,8.800,11.578,4.022,-0.039,0.864,-0.425,-1.221,-1.434,0.885,80.000,169284.000,1.000
382.061,-3.507,16.956,7.927,6.175,11.974,14.414,7.629,-0.038,0.867,-0.425,-1.221,-1.373,0.854,80.000,169285.000,1.000
418.471,-0.877,20.202,11.032,9.896,15.247,16.968,10.257,-0.040,0.865,-0.423,-1.129,-1.343,0.793,80.000,169286.000,1.000
543.166,0.228,21.890,12.079,11.210,16.645,17.330,10.222,-0.036,0.866,-0.427,-1.007,-1.312,0.824,80.000,169287.000,1.000
702.590,-1.774,20.092,9.674,8.412,14.373,13.905,6.462,-0.036,0.866,-0.427,-0.977,-1.221,0.854,80.000,169288.000,1.000
843.147,-6.952,14.453,3.975,1.627,8.407,7.125,-0.424,-0.037,0.867,-0.428,-1.007,-1.190,0.885,80.000,169289.000,1.000
937.144,-13.872,6.198,-3.413,-7.232,0.389,-0.839,-8.402,-0.037,0.870,-0.428,-0.946,-1.190,0.885,80.000,169290.000,1.000
984.052,-20.464,-2.602,-10.391,-15.612,-7.660,-7.705,-15.117,-0.037,0.870,-0.425,-0.885,-1.068,0.824,80.000,169291.000,1.000
997.961,-24.947,-9.732,-15.299,-21.434,-14.103,-12.022,-18.755,-0.037,0.873,-0.426,-0.854,-1.038,0.824,80.000,169292.000,1.000
991.377,-26.676,-14.206,-17.756,-23.977,-18.074,-13.703,-18.932,-0.038,0.874,-0.424,-0.916,-1.068,0.885,80.000,169293.000,1.000
964.910,-26.487,-16.377,-18.799,-24.246,-19.735,-13.827,-17.220,-0.037,0.875,-0.423,-0.946,-1.068,0.885,80.000,169294.000,1.000
910.830,-26.030,-17.670,-20.025,-24.188,-20.040,-13.995,-16.276,-0.037,0.876,-0.429,-0.977,-1.038,0.916,80.000,169295.000,1.000
826.102,-26.616,-19.374,-22.246,-25.209,-20.117,-15.203,-17.699,-0.036,0.878,-0.429,-1.007,-0.977,0.854,80.000,169296.000,1.000
719.872,-28.562,-21.571,-25.005,-27.381,-20.676,-17.255,-20.905,-0.038,0.877,-0.432,-1.068,-0.946,0.885,80.000,169297.000,1.000
604.516,-31.311,-23.752,-27.262,-29.798,-21.826,-19.360,-23.998,-0.038,0.875,-0.431,-1.251,-0.946,1.007,80.000,169298.000,1.000
481.508,-34.023,-25.162,-28.238,-31.501,-23.407,-20.740,-25.323,-0.038,0.876,-0.430,-1.251,-0.946,1.038,80.000,169299.000,1.000
344.918,-36.218,-25.721,-28.113,-32.352,-25.430,-21.549,-24.962,-0.039,0.876,-0.432,-1.282,-0.885,1.038,80.000,169300.000,1.000
202.929,-37.981,-26.096,-27.956,-33.162,-28.147,-23.022,-24.968,-0.039,0.875,-0.432,-1.282,-0.885,1.160,80.000,169301.000,1.000
92.508,-39.606,-26.871,-28.728,-34.745,-31.584,-26.123,-27.375,-0.041,0.875,-0.431,-1.282,-0.885,1.221,80.000,169302.000,1.000
63.207,-41.065,-28.331,-30.318,-36.803,-34.851,-30.148,-31.764,-0.041,0.876,-0.432,-1.282,-0.854,1.221,80.000,169303.000,1.000
134.143,-41.938,-29.899,-31.543,-38.056,-36.342,-32.721,-35.264,-0.042,0.877,-0.428,-1.221,-0.824,1.221,80.000,169304.000,1.000
263.887,-41.953,-30.861,-31.332,-37.686,-35.304,-32.274,-35.503,-0.041,0.879,-0.428,-1.282,-0.793,1.221,80.000,169305.000,1.000
368.583,-41.246,-30.861,-29.548,-36.109,-32.701,-29.554,-32.619,-0.042,0.880,-0.429,-1.404,-0.824,1.160,80.000,169306.000,1.000
374.638,-39.948,-29.582,-26.621,-34.195,-30.153,-26.329,-28.398,-0.042,0.881,-0.427,-1.526,-0.946,1.282,80.000,169307.000,1.000
260.830,-38.026,-27.194,-23.152,-32.552,-28.849,-24.222,-24.886,-0.041,0.879,-0.429,-1.678,-1.007,1.251,80.000,169308.000,1.000
61.171,-35.539,-24.169,-19.700,-31.389,-29.048,-23.847,-23.289,-0.040,0.876,-0.429,-1.801,-1.038,1.282,80.000,169309.000,1.000
-163.731,-32.603,-21.210,-16.565,-30.225,-29.674,-24.168,-23.025,-0.039,0.875,-0.424,-1.801,-1.129,1.282,80.000,169310.000,1.000
-358.419,-29.219,-18.731,-13.676,-28.059,-29.047,-23.163,-22.116,-0.040,0.875,-0.428,-1.923,-1.190,1.251,80.000,169311.000,1.000
-488.470,-25.407,-16.508,-10.893,-24.345,-26.490,-19.812,-19.114,-0.039,0.876,-0.429,-1.831,-1.251,1.221,80.000,169312.000,1.000
-541.267,-21.313,-14.319,-8.271,-19.526,-22.797,-15.319,-14.452,-0.040,0.875,-0.429,-1.801,-1.190,1.282,80.000,169313.000,1.000
-520.220,-17.032,-11.651,-5.746,-14.480,-19.235,-11.686,-9.663,-0.038,0.875,-0.431,-1.678,-1.251,1.251,80.000,169314.000,1.000
-439.505,-12.507,-8.185,-3.019,-9.724,-16.314,-9.870,-5.794,-0.038,0.877,-0.432,-1.648,-1.221,1.221,80.000,169315.000,1.000
-322.480,-7.608,-4.144,0.211,-5.215,-13.393,-9.045,-2.726,-0.037,0.877,-0.429,-1.617,-1.343,1.282,80.000,169316.000,1.000
-202.802,-2.358,-0.037,3.891,-0.750,-9.443,-7.430,0.177,-0.036,0.875,-0.427,-1.617,-1.373,1.373,80.000,169317.000,1.000
-119.173,2.881,3.290,7.482,3.611,-4.225,-4.055,3.181,-0.038,0.870,-0.425,-1.617,-1.343,1.434,80.000,169318.000,1.000
-96.988,7.548,5.554,10.395,7.574,1.422,0.716,6.094,-0.038,0.867,-0.426,-1.587,-1.404,1.404,80.000,169319.000,1.000
-131.556,11.260,7.080,12.403,10.955,6.486,5.758,8.606,-0.039,0.864,-0.424,-1.465,-1.373,1.404,80.000,169320.000,1.000
-190.964,14.150,8.712,13.848,14.020,10.836,10.434,10.796,-0.042,0.863,-0.425,-1.251,-1.282,1.343,80.000,169321.000,1.000
-235.162,16.620,11.389,15.275,17.152,14.902,14.776,12.893,-0.045,0.866,-0.428,-1.007,-1.465,1.160,80.000,169322.000,1.000
-237.636,18.633,14.732,16.539,20.000,18.208,17.892,14.212,-0.047,0.866,-0.427,-0.946,-1.678,0.946,80.000,169323.000,1.000
-196.622,19.557,17.449,16.829,21.528,19.138,18.059,13.556,-0.049,0.868,-0.427,-0.885,-1.862,0.885,80.000,169324.000,1.000
-125.148,18.832,18.264,15.594,21.145,16.632,14.620,10.896,-0.048,0.868,-0.427,-0.946,-1.984,0.671,80.000,169325.000,1.000
-32.307,16.697,16.921,13.276,19.458,11.716,9.293,8.009,-0.047,0.870,-0.427,-0.824,-2.167,0.488,80.000,169326.000,1.000
74.495,14.206,14.494,11.123,17.897,7.321,5.435,7.313,-0.048,0.871,-0.427,-0.763,-2.350,0.305,80.000,169327.000,1.000
171.288,12.508,12.153,10.267,17.653,6.276,5.647,10.100,-0.046,0.874,-0.426,-0.610,-2.625,0.122,80.000,169328.000,1.000
219.080,12.039,10.727,10.983,18.722,8.948,9.963,15.599,-0.045,0.875,-0.427,-0.732,-2.625,0.183,80.000,169329.000,1.000
188.419,12.386,10.198,12.585,19.967,13.126,15.796,21.535,-0.043,0.875,-0.430,-0.610,-2.747,-0.031,80.000,169330.000,1.000
77.779,12.856,9.999,14.126,20.211,16.363,20.155,25.823,-0.043,0.874,-0.429,-0.671,-2.869,0.000,80.000,169331.000,1.000
-85.495,12.998,9.725,15.046,19.040,17.748,21.585,27.457,-0.039,0.874,-0.428,-0.610,-3.052,0.000,80.000,169332.000,1.000
-250.901,12.797,9.126,15.292,16.838,17.755,20.161,26.401,-0.038,0.874,-0.427,-0.519,-2.991,-0.031,80.000,169333.000,1.000
-357.781,12.708,8.736,15.368,14.630,17.420,17.323,23.774,-0.036,0.873,-0.428,-0.458,-2.960,0.031,80.000,169334.000,1.000
-366.935,13.405,9.262,15.927,13.539,17.672,14.954,21.286,-0.038,0.875,-0.425,-0.549,-2.899,0.092,80.000,169335.000,1.000
-292.619,15.309,10.900,17.237,13.993,18.724,14.011,19.901,-0.038,0.876,-0.426,-0.580,-2.960,0.061,80.000,169336.000,1.000
-195.172,18.266,13.458,19.128,15.512,19.849,14.036,19.480,-0.037,0.876,-0.426,-0.519,-2.899,0.183,80.000,169337.000,1.000
-134.981,21.717,16.391,21.342,17.336,20.195,13.978,19.698,-0.036,0.876,-0.424,-0.549,-2.808,0.336,80.000,169338.000,1.000
-133.518,25.139,19.565,23.880,19.080,19.916,13.686,20.675,-0.037,0.876,-0.426,-0.610,-2.869,0.336,80.000,169339.000,1.000
-172.990,28.182,22.786,26.665,20.584,19.939,13.507,22.193,-0.039,0.875,-0.424,-0.580,-2.899,0.366,80.000,169340.000,1.000
-221.875,30.660,25.554,29.201,21.552,20.711,13.267,23.203,-0.041,0.875,-0.427,-0.641,-2.838,0.488,80.000,169341.000,1.000
-255.416,32.626,27.570,30.794,21.675,21.774,12.506,22.618,-0.042,0.875,-0.425,-0.671,-2.869,0.488,80.000,169342.000,1.000
-256.882,34.391,28.621,31.058,21.070,22.504,11.267,20.403,-0.043,0.873,-0.425,-0.671,-2.869,0.519,80.000,169343.000,1.000
-207.357,36.417,29.142,30.421,20.508,22.892,10.726,17.983,-0.044,0.874,-0.427,-0.641,-2.838,0.458,80.000,169344.000,1.000
-80.197,39.065,29.807,29.882,21.033,23.454,12.206,17.265,-0.045,0.876,-0.423,-0.671,-2.838,0.366,80.000,169345.000,1.000
141.758,42.316,31.067,30.303,23.254,24.614,15.978,19.369,-0.043,0.874,-0.423,-0.732,-2.960,0.305,80.000,169346.000,1.000
431.196,45.595,32.996,31.772,26.771,26.207,20.998,23.752,-0.045,0.875,-0.420,-0.732,-2.991,0.397,80.000,169347.000,1.000
712.774,47.814,34.658,33.271,30.023,27.408,24.952,27.783,-0.046,0.874,-0.425,-0.824,-3.021,0.397,80.000,169348.000,1.000
914.282,47.922,34.989,33.392,31.194,27.256,25.686,28.388,-0.044,0.874,-0.425,-0.946,-3.143,0.305,80.000,169349.000,1.000
1014.434,45.623,33.422,31.466,29.609,25.371,22.737,24.720,-0.044,0.874,-0.426,-0.916,-3.113,0.244,80.000,169350.000,1.000
1037.585,41.561,30.257,27.976,26.087,22.119,17.505,18.637,-0.044,0.874,-0.427,-0.946,-3.143,0.305,80.000,169351.000,1.000
1021.621,36.983,26.705,24.162,22.250,18.461,12.309,12.995,-0.043,0.872,-0.429,-0.916,-3.143,0.214,80.000,169352.000,1.000
997.020,33.305,23.984,21.365,19.757,15.761,9.172,10.041,-0.042,0.873,-0.427,-0.885,-3.113,0.214,80.000,169353.000,1.000
972.471,31.621,23.117,20.525,19.685,15.171,9.216,10.711,-0.040,0.873,-0.429,-0.854,-3.113,0.183,80.000,169354.000,1.000
916.183,32.096,24.106,21.598,21.946,16.859,12.014,14.161,-0.038,0.873,-0.428,-0.977,-2.991,0.214,80.000,169355.000,1.000
764.874,33.858,25.956,23.576,25.351,19.971,15.966,18.290,-0.039,0.873,-0.425,-0.885,-2.899,0.214,80.000,169356.000,1.000
485.737,35.619,27.677,25.317,28.455,23.206,19.566,21.344,-0.038,0.873,-0.424,-0.946,-2.930,0.183,80.000,169357.000,1.000
132.944,36.423,28.465,26.190,30.316,25.342,21.899,22.855,-0.038,0.874,-0.425,-0.885,-2.777,0.275,80.000,169358.000,1.000
-176.955,35.986,28.221,26.218,30.691,25.770,22.866,23.383,-0.039,0.873,-0.426,-0.793,-2.747,0.305,80.000,169359.000,1.000
-349.047,34.494,27.099,25.664,29.758,24.693,22.692,23.470,-0.041,0.873,-0.424,-0.763,-2.655,0.305,80.000,169360.000,1.000
-364.032,32.195,25.225,24.642,27.728,22.644,21.356,22.848,-0.042,0.875,-0.425,-0.732,-2.625,0.183,80.000,169361.000,1.000
-262.962,29.321,22.958,23.188,24.879,20.040,18.827,20.869,-0.041,0.876,-0.425,-0.885,-2.563,0.275,80.000,169362.000,1.000
-107.960,26.347,20.649,21.589,21.956,17.450,15.696,17.827,-0.042,0.876,-0.426,-0.824,-2.563,0.275,80.000,169363.000,1.000
34.654,24.033,19.021,20.482,20.082,15.779,13.470,15.377,-0.041,0.877,-0.423,-0.702,-2.563,0.275,80.000,169364.000,1.000
103.026,22.880,18.394,20.202,19.832,15.501,13.099,14.907,-0.041,0.875,-0.424,-0.793,-2.411,0.275,80.000,169365.000,1.000
64.305,22.700,18.339,20.385,20.673,15.972,13.952,16.127,-0.040,0.876,-0.428,-0.824,-2.411,0.305,80.000,169366.000,1.000
-63.419,22.937,18.404,20.429,21.652,16.271,14.946,17.779,-0.042,0.877,-0.427,-0.854,-2.411,0.336,80.000,169367.000,1.000
-217.914,23.285,18.247,20.050,22.394,16.464,15.763,19.014,-0.042,0.878,-0.424,-0.946,-2.380,0.336,80.000,169368.000,1.000
-325.261,23.778,18.120,19.427,23.137,17.287,16.789,19.749,-0.042,0.875,-0.427,-0.946,-2.228,0.214,80.000,169369.000,1.000
-336.364,24.356,18.265,18.772,24.004,18.690,17.805,20.010,-0.042,0.876,-0.426,-1.068,-2.136,0.244,80.000,169370.000,1.000
-249.419,24.615,18.501,18.020,24.550,19.389,17.680,19.480,-0.042,0.877,-0.429,-0.977,-2.075,0.366,80.000,169371.000,1.000
-113.064,24.025,18.510,16.934,24.078,18.087,15.490,17.827,-0.044,0.876,-0.427,-1.190,-2.045,0.275,80.000,169372.000,1.000
-7.939,22.328,17.715,15.346,22.300,14.777,11.379,15.229,-0.044,0.877,-0.427,-1.129,-2.045,0.305,80.000,169373.000,1.000
-6.940,19.806,16.065,13.445,19.619,10.723,6.753,12.398,-0.045,0.876,-0.427,-1.129,-1.984,0.214,80.000,169374.000,1.000
-131.467,17.192,13.944,11.740,16.936,7.475,3.371,10.136,-0.044,0.876,-0.427,-1.160,-2.045,0.214,80.000,169375.000,1.000
-334.875,15.373,12.010,10.891,15.367,6.161,2.575,9.361,-0.045,0.875,-0.424,-1.129,-2.075,0.214,80.000,169376.000,1.000
-531.551,15.015,11.115,11.430,15.820,7.334,5.003,11.087,-0.045,0.876,-0.421,-1.129,-2.136,0.244,80.000,169377.000,1.000
-651.346,16.109,11.349,13.156,18.211,10.564,9.735,15.230,-0.045,0.875,-0.422,-1.160,-2.075,0.153,80.000,169378.000,1.000
-674.616,17.755,12.144,14.967,21.021,14.008,14.221,19.691,-0.045,0.875,-0.422,-1.068,-2.014,0.244,80.000,169379.000,1.000
-626.521,18.696,12.391,15.470,22.228,15.475,15.762,21.593,-0.046,0.876,-0.422,-1.099,-1.984,0.244,80.000,169380.000,1.000
-547.591,18.205,11.155,14.015,20.850,14.236,13.606,19.611,-0.045,0.876,-0.422,-1.068,-1.923,0.275,80.000,169381.000,1.000
-469.478,16.278,8.322,11.006,17.347,11.105,9.077,14.664,-0.045,0.875,-0.422,-1.129,-1.862,0.214,80.000,169382.000,1.000
-410.909,13.209,4.051,7.341,12.912,7.105,3.884,8.925,-0.047,0.876,-0.424,-1.099,-1.831,0.275,80.000,169383.000,1.000
-384.705,9.432,-0.929,3.968,8.753,2.899,-0.695,4.431,-0.049,0.873,-0.428,-1.129,-1.892,0.427,80.000,169384.000,1.000
-397.503,5.677,-5.606,1.556,5.711,-0.843,-4.185,1.855,-0.046,0.873,-0.426,-1.129,-1.770,0.427,80.000,169385.000,1.000
-440.849,2.927,-8.995,0.419,4.186,-3.289,-6.697,0.652,-0.045,0.872,-0.425,-1.068,-1.678,0.427,80.000,169386.000,1.000
-490.947,1.935,-10.410,0.571,4.183,-3.907,-8.335,0.235,-0.045,0.873,-0.424,-0.977,-1.740,0.458,80.000,169387.000,1.000
-524.936,2.790,-10.141,1.754,5.410,-2.759,-9.019,0.652,-0.044,0.873,-0.427,-0.946,-1.770,0.549,80.000,169388.000,1.000
-537.242,4.999,-8.687,3.636,7.475,-0.237,-8.204,2.411,-0.045,0.874,-0.424,-0.885,-1.770,0.549,80.000,169389.000,1.000
-537.449,7.704,-6.765,5.616,9.742,2.912,-5.785,5.268,-0.045,0.876,-0.425,-0.854,-1.678,0.549,80.000,169390.000,1.000
-532.528,9.998,-5.173,6.830,11.239,5.451,-2.895,7.672,-0.045,0.874,-0.423,-0.946,-1.678,0.580,80.000,169391.000,1.000
-514.594,11.409,-4.088,6.733,11.271,6.422,-0.919,8.041,-0.045,0.874,-0.427,-0.977,-1.648,0.641,80.000,169392.000,1.000
-468.176,12.067,-3.394,5.421,9.978,5.922,-0.451,6.035,-0.044,0.875,-0.426,-0.946,-1.648,0.763,80.000,169393.000,1.000
-387.858,12.324,-2.621,3.553,8.118,4.718,-1.069,2.600,-0.044,0.874,-0.425,-0.854,-1.617,0.763,80.000,169394.000,1.000
-285.401,12.405,-1.421,2.028,6.558,3.556,-1.923,-0.669,-0.046,0.876,-0.426,-0.854,-1.526,0.854,80.000,169395.000,1.000
-180.075,12.507,0.452,1.714,6.054,3.101,-1.991,-2.152,-0.045,0.875,-0.427,-0.763,-1.404,0.763,80.000,169396.000,1.000
-88.604,12.863,3.292,3.013,6.958,3.804,-0.459,-1.080,-0.044,0.877,-0.426,-0.793,-1.343,0.793,80.000,169397.000,1.000
-22.846,13.481,6.622,5.337,8.755,5.332,2.255,1.664,-0.046,0.877,-0.426,-0.793,-1.404,0.916,80.000,169398.000,1.000
14.814,14.081,9.621,7.383,10.213,6.545,4.729,4.107,-0.044,0.877,-0.424,-0.824,-1.343,0.946,80.000,169399.000,1.000
39.990,14.407,11.498,8.034,10.339,6.505,5.618,4.748,-0.043,0.878,-0.422,-0.793,-1.312,0.946,80.000,169400.000,1.000
81.410,14.462,11.948,7.155,9.169,5.450,4.811,3.631,-0.041,0.876,-0.425,-0.916,-1.282,0.977,80.000,169401.000,1.000
152.450,14.255,11.326,5.480,7.472,4.358,3.326,1.881,-0.041,0.875,-0.426,-0.824,-1.221,0.885,80.000,169402.000,1.000
230.434,13.520,9.875,3.777,5.865,3.636,1.836,0.407,-0.042,0.876,-0.423,-0.946,-1.190,0.916,80.000,169403.000,1.000
275.742,11.953,8.133,2.480,4.554,2.882,0.396,-0.589,-0.042,0.875,-0.427,-0.977,-1.099,0.854,80.000,169404.000,1.000
269.144,9.607,6.731,1.691,3.616,1.773,-1.073,-1.388,-0.043,0.875,-0.426,-0.977,-1.038,0.885,80.000,169405.000,1.000
229.617,6.882,6.136,1.298,3.074,0.382,-2.506,-2.347,-0.043,0.874,-0.427,-1.068,-0.977,0.916,80.000,169406.000,1.000
195.724,4.174,6.576,1.005,2.688,-1.284,-3.955,-3.871,-0.043,0.874,-0.425,-1.007,-0.977,0.916,80.000,169407.000,1.000
184.251,1.712,7.464,0.370,2.119,-3.263,-5.787,-6.343,-0.043,0.873,-0.425,-0.946,-0.946,0.885,80.000,169408.000,1.000
173.879,-0.221,8.262,-0.626,1.589,-5.030,-7.728,-9.250,-0.045,0.870,-0.428,-1.007,-0.946,0.824,80.000,169409.000,1.000
134.937,-1.237,8.777,-1.354,1.990,-5.575,-8.774,-10.862,-0.044,0.871,-0.428,-0.977,-0.824,0.763,80.000,169410.000,1.000
65.253,-1.114,9.169,-1.001,4.157,-4.266,-8.016,-9.339,-0.043,0.871,-0.426,-0.916,-0.824,0.732,80.000,169411.000,1.000
-6.486,-0.064,9.861,0.682,8.070,-1.332,-5.318,-4.367,-0.043,0.872,-0.429,-0.824,-0.854,0.732,80.000,169412.000,1.000
-43.080,1.300,10.689,3.043,12.767,2.424,-1.664,2.313,-0.044,0.872,-0.429,-0.793,-0.793,0.671,80.000,169413.000,1.000
-22.246,2.214,11.284,5.032,16.944,6.062,1.612,8.206,-0.044,0.873,-0.427,-0.763,-0.824,0.702,80.000,169414.000,1.000
50.489,1.910,11.013,5.699,19.506,8.523,3.303,11.502,-0.042,0.873,-0.425,-0.763,-0.946,0.793,80.000,169415.000,1.000
143.613,-0.123,9.292,4.573,19.855,8.671,2.537,11.585,-0.044,0.874,-0.426,-0.702,-0.854,0.702,80.000,169416.000,1.000
219.399,-3.763,6.318,1.900,18.012,5.958,-0.794,8.792,-0.043,0.874,-0.427,-0.732,-0.885,0.641,80.000,169417.000,1.000
259.168,-8.246,2.645,-1.511,14.532,1.086,-5.949,4.001,-0.042,0.874,-0.422,-0.763,-0.824,0.671,80.000,169418.000,1.000
269.795,-12.521,-0.805,-4.577,10.300,-4.223,-11.358,-1.425,-0.043,0.876,-0.423,-0.793,-0.946,0.732,80.000,169419.000,1.000
267.872,-15.710,-3.456,-6.522,6.185,-8.237,-15.555,-6.069,-0.044,0.877,-0.427,-0.793,-0.885,0.732,80.000,169420.000,1.000
264.475,-17.480,-5.367,-7.332,2.636,-10.222,-18.028,-9.317,-0.043,0.876,-0.426,-0.946,-0.824,0.732,80.000,169421.000,1.000
267.743,-18.096,-6.738,-7.588,-0.390,-10.732,-19.136,-11.580,-0.044,0.876,-0.428,-0.885,-0.763,0.702,80.000,169422.000,1.000
295.166,-18.066,-7.920,-7.965,-3.108,-11.034,-19.785,-13.727,-0.046,0.877,-0.427,-0.854,-0.854,0.763,80.000,169423.000,1.000
367.553,-17.715,-8.835,-8.762,-5.621,-12.160,-20.705,-16.328,-0.046,0.875,-0.426,-0.885,-0.946,0.763,80.000,169424.000,1.000
476.112,-17.166,-9.423,-9.914,-7.857,-14.237,-22.068,-19.230,-0.045,0.875,-0.425,-0.854,-1.007,0.732,80.000,169425.000,1.000
567.872,-16.504,-9.798,-11.110,-9.575,-16.504,-23.326,-21.521,-0.047,0.875,-0.426,-0.793,-1.068,0.763,80.000,169426.000,1.000
581.195,-15.841,-9.904,-11.926,-10.485,-17.948,-23.597,-22.193,-0.046,0.875,-0.425,-0.854,-1.038,0.793,80.000,169427.000,1.000
491.300,-15.240,-9.903,-12.069,-10.464,-17.989,-22.605,-20.961,-0.046,0.874,-0.427,-0.824,-1.129,0.702,80.000,169428.000,1.000
322.764,-14.707,-9.747,-11.425,-9.704,-16.831,-20.712,-18.361,-0.046,0.875,-0.425,-0.793,-1.282,0.763,80.000,169429.000,1.000
131.299,-14.404,-9.571,-10.258,-8.804,-15.395,-18.816,-15.586,-0.045,0.876,-0.427,-0.763,-1.251,0.732,80.000,169430.000,1.000
-26.684,-14.608,-9.741,-9.204,-8.492,-14.621,-17.747,-13.893,-0.046,0.875,-0.426,-0.854,-1.251,0.732,80.000,169431.000,1.000
-118.831,-15.260,-10.218,-8.795,-8.991,-14.528,-17.350,-13.633,-0.047,0.875,-0.426,-0.916,-1.343,0.763,80.000,169432.000,1.000
-143.799,-15.854,-10.895,-9.099,-9.829,-14.341,-16.830,-14.029,-0.045,0.875,-0.426,-0.824,-1.373,0.732,80.000,169433.000,1.000
-121.563,-16.077,-11.603,-9.892,-10.606,-13.904,-15.888,-14.236,-0.044,0.876,-0.425,-0.885,-1.495,0.793,80.000,169434.000,1.000
-78.256,-16.325,-12.684,-11.202,-11.688,-14.212,-15.537,-14.544,-0.046,0.874,-0.426,-0.885,-1.495,0.702,80.000,169435.000,1.000
-35.799,-17.161,-14.585,-13.084,-13.581,-15.947,-16.821,-15.693,-0.043,0.876,-0.426,-0.854,-1.587,0.702,80.000,169436.000,1.000
-6.855,-18.555,-16.891,-15.050,-15.997,-18.322,-19.238,-17.381,-0.045,0.877,-0.426,-1.038,-1.495,0.793,80.000,169437.000,1.000
8.570,-20.034,-18.877,-16.339,-18.112,-19.958,-21.480,-18.412,-0.044,0.875,-0.427,-0.946,-1.556,0.763,80.000,169438.000,1.000
20.731,-21.231,-19.814,-16.559,-19.423,-20.271,-22.647,-18.024,-0.045,0.873,-0.428,-0.977,-1.495,0.854,80.000,169439.000,1.000
39.385,-22.131,-19.722,-16.039,-20.031,-19.621,-22.716,-16.698,-0.044,0.873,-0.427,-1.007,-1.526,0.854,80.000,169440.000,1.000
65.534,-22.876,-19.290,-15.445,-20.257,-18.561,-21.922,-15.400,-0.044,0.874,-0.424,-0.916,-1.587,0.916,80.000,169441.000,1.000
92.808,-23.553,-19.121,-15.240,-20.369,-17.453,-20.340,-14.647,-0.045,0.872,-0.426,-0.916,-1.648,0.885,80.000,169442.000,1.000
112.680,-24.232,-19.899,-15.749,-20.766,-16.703,-18.563,-14.785,-0.045,0.873,-0.426,-0.824,-1.709,0.793,80.000,169443.000,1.000
119.054,-24.954,-21.721,-17.105,-21.890,-16.669,-17.402,-16.056,-0.043,0.874,-0.421,-0.824,-1.587,0.763,80.000,169444.000,1.000
111.179,-25.451,-24.028,-18.901,-23.557,-17.023,-16.977,-17.838,-0.042,0.874,-0.421,-0.824,-1.587,0.732,80.000,169445.000,1.000
91.534,-25.066,-25.713,-20.082,-24.722,-16.684,-16.495,-18.572,-0.042,0.875,-0.420,-0.854,-1.587,0.824,80.000,169446.000,1.000
60.883,-23.352,-25.620,-19.690,-24.435,-14.959,-15.326,-17.234,-0.044,0.875,-0.423,-0.854,-1.617,0.763,80.000,169447.000,1.000
19.177,-20.623,-23.719,-17.699,-22.680,-12.302,-13.871,-14.374,-0.043,0.874,-0.423,-0.885,-1.617,0.793,80.000,169448.000,1.000
-28.001,-17.549,-20.495,-14.696,-19.813,-9.187,-12.123,-10.921,-0.044,0.877,-0.424,-0.946,-1.617,0.702,80.000,169449.000,1.000
-67.339,-14.637,-16.757,-11.425,-15.954,-5.174,-9.062,-7.100,-0.043,0.878,-0.423,-1.007,-1.617,0.702,80.000,169450.000,1.000
-87.079,-12.466,-13.672,-8.829,-11.631,-0.361,-4.456,-3.255,-0.044,0.876,-0.426,-1.038,-1.617,0.610,80.000,169451.000,1.000
-92.760,-11.943,-12.347,-7.969,-8.375,3.090,-0.275,-0.698,-0.043,0.875,-0.427,-1.129,-1.587,0.610,80.000,169452.000,1.000
-108.769,-13.719,-13.631,-9.535,-7.845,2.507,0.595,-0.983,-0.043,0.876,-0.427,-1.251,-1.617,0.519,80.000,169453.000,1.000
-157.972,-17.450,-17.153,-13.313,-10.553,-2.653,-2.978,-4.687,-0.043,0.875,-0.427,-1.251,-1.740,0.519,80.000,169454.000,1.000
-240.583,-21.979,-21.763,-18.293,-15.606,-10.531,-9.850,-11.032,-0.044,0.874,-0.427,-1.251,-1.587,0.610,80.000,169455.000,1.000
-328.586,-25.944,-26.169,-23.000,-21.174,-18.285,-17.424,-17.936,-0.043,0.873,-0.428,-1.190,-1.495,0.610,80.000,169456.000,1.000
-379.234,-28.222,-29.153,-26.024,-25.242,-23.397,-22.737,-22.833,-0.041,0.874,-0.426,-1.129,-1.556,0.671,80.000,169457.000,1.000
-363.696,-28.289,-30.450,-26.777,-26.613,-24.711,-24.211,-24.300,-0.041,0.871,-0.421,-1.129,-1.556,0.641,80.000,169458.000,1.000
-289.433,-26.342,-30.307,-25.580,-25.396,-22.805,-22.182,-22.619,-0.042,0.871,-0.421,-1.099,-1.617,0.763,80.000,169459.000,1.000
-196.610,-23.048,-29.267,-23.275,-22.644,-19.266,-18.272,-19.123,-0.043,0.872,-0.423,-1.038,-1.526,0.641,80.000,169460.000,1.000
-130.480,-19.260,-27.903,-20.750,-19.681,-15.623,-14.258,-15.418,-0.044,0.873,-0.425,-0.854,-1.556,0.702,80.000,169461.000,1.000
-113.136,-15.878,-26.481,-18.390,-17.504,-12.684,-11.119,-12.717,-0.044,0.872,-0.423,-0.885,-1.465,0.702,80.000,169462.000,1.000
-137.467,-13.635,-25.342,-15.759,-16.374,-10.377,-8.920,-11.270,-0.045,0.873,-0.425,-0.977,-1.434,0.732,80.000,169463.000,1.000
-177.343,-12.782,-24.370,-12.061,-15.953,-8.317,-7.185,-10.528,-0.047,0.875,-0.423,-0.977,-1.526,0.610,80.000,169464.000,1.000
-198.980,-13.048,-23.358,-7.288,-15.807,-6.570,-5.841,-9.952,-0.047,0.877,-0.422,-0.916,-1.495,0.610,80.000,169465.000,1.000
-175.743,-13.913,-22.369,-2.515,-15.720,-5.651,-5.250,-9.352,-0.047,0.876,-0.420,-0.916,-1.526,0.549,80.000,169466.000,1.000
-104.705,-15.098,-21.693,0.604,-15.870,-6.018,-5.713,-9.058,-0.048,0.877,-0.419,-0.916,-1.678,0.397,80.000,169467.000,1.000
-9.031,-16.680,-22.030,0.607,-16.570,-7.428,-7.131,-9.632,-0.048,0.875,-0.421,-0.916,-1.709,0.305,80.000,169468.000,1.000
77.843,-18.512,-23.281,-2.566,-17.492,-8.551,-8.126,-10.555,-0.048,0.877,-0.424,-1.038,-1.678,0.275,80.000,169469.000,1.000
132.589,-20.108,-24.682,-7.427,-17.929,-8.246,-7.246,-10.588,-0.044,0.878,-0.426,-1.129,-1.801,0.244,80.000,169470.000,1.000
153.095,-21.310,-25.735,-12.265,-18.145,-7.592,-5.423,-10.102,-0.044,0.879,-0.423,-1.160,-1.831,0.275,80.000,169471.000,1.000
154.856,-22.437,-26.334,-16.176,-19.339,-9.075,-5.394,-11.160,-0.042,0.877,-0.424,-1.312,-1.770,0.397,80.000,169472.000,1.000
158.912,-23.537,-26.650,-18.824,-21.891,-13.420,-8.506,-14.610,-0.041,0.876,-0.423,-1.251,-1.678,0.427,80.000,169473.000,1.000
181.440,-24.186,-26.392,-19.999,-24.737,-18.683,-13.219,-18.887,-0.038,0.873,-0.424,-1.221,-1.556,0.458,80.000,169474.000,1.000
228.531,-24.126,-25.485,-19.906,-26.532,-22.176,-16.979,-21.939,-0.038,0.871,-0.425,-1.221,-1.434,0.519,80.000,169475.000,1.000
298.590,-23.416,-24.199,-19.053,-26.379,-21.949,-17.646,-22.357,-0.036,0.871,-0.424,-1.038,-1.282,0.702,80.000,169476.000,1.000
388.123,-22.051,-22.466,-17.716,-23.813,-17.297,-13.859,-19.226,-0.037,0.871,-0.426,-0.946,-1.282,0.824,80.000,169477.000,1.000
487.865,-20.041,-20.377,-16.060,-19.191,-9.576,-6.379,-12.919,-0.039,0.872,-0.427,-0.854,-1.068,0.946,80.000,169478.000,1.000
573.620,-17.812,-18.092,-14.430,-14.089,-2.369,1.557,-5.781,-0.040,0.875,-0.424,-0.732,-1.038,1.038,80.000,169479.000,1.000
611.260,-16.167,-16.122,-13.441,-10.636,0.630,5.990,-1.152,-0.041,0.876,-0.427,-0.671,-1.007,1.068,80.000,169480.000,1.000
575.312,-15.615,-14.984,-13.574,-10.059,-1.550,5.168,-1.033,-0.042,0.877,-0.425,-0.610,-1.099,1.190,80.000,169481.000,1.000
463.625,-15.759,-14.414,-14.601,-11.686,-6.522,0.979,-4.448,-0.045,0.876,-0.427,-0.610,-1.007,1.221,80.000,169482.000,1.000
300.468,-15.488,-13.823,-15.632,-13.389,-10.388,-2.634,-8.227,-0.046,0.878,-0.426,-0.580,-1.129,1.251,80.000,169483.000,1.000
127.786,-13.965,-12.510,-15.778,-13.317,-10.488,-2.609,-9.585,-0.047,0.878,-0.424,-0.610,-1.099,1.160,80.000,169484.000,1.000
-15.391,-11.499,-10.634,-15.000,-11.471,-7.158,0.641,-8.378,-0.049,0.878,-0.422,-0.549,-1.312,1.038,80.000,169485.000,1.000
-115.176,-9.280,-9.153,-13.958,-9.360,-2.918,4.012,-6.490,-0.050,0.879,-0.420,-0.641,-1.282,0.916,80.000,169486.000,1.000
-187.817,-8.280,-8.613,-13.110,-8.194,0.064,5.136,-5.252,-0.050,0.883,-0.420,-0.763,-1.312,0.824,80.000,169487.000,1.000
-260.987,-8.594,-9.027,-12.368,-7.914,1.398,4.087,-4.330,-0.053,0.883,-0.423,-0.916,-1.404,0.580,80.000,169488.000,1.000
-349.251,-9.745,-9.789,-11.496,-7.920,1.603,2.345,-3.034,-0.051,0.885,-0.423,-0.977,-1.526,0.305,80.000,169489.000,1.000
-445.121,-11.278,-10.558,-10.689,-8.045,0.914,0.696,-1.862,-0.049,0.885,-0.419,-1.190,-1.770,0.031,80.000,169490.000,1.000
-527.506,-12.772,-11.241,-10.231,-8.311,-0.537,-0.819,-1.659,-0.049,0.884,-0.422,-1.373,-1.801,0.000,80.000,169491.000,1.000
-574.244,-13.870,-11.471,-10.058,-8.544,-2.566,-2.071,-2.350,-0.049,0.885,-0.424,-1.526,-1.801,-0.122,80.000,169492.000,1.000
-565.345,-14.701,-11.372,-10.191,-8.846,-5.356,-3.326,-3.586,-0.048,0.883,-0.424,-1.587,-1.892,-0.183,80.000,169493.000,1.000
-483.541,-15.611,-11.029,-10.651,-9.372,-8.760,-4.614,-4.907,-0.046,0.882,-0.424,-1.617,-2.014,-0.183,80.000,169494.000,1.000
-330.421,-16.408,-10.173,-10.894,-9.474,-11.315,-4.807,-5.026,-0.043,0.881,-0.423,-1.648,-1.892,-0.061,80.000,169495.000,1.000
-145.014,-16.429,-8.397,-10.027,-8.081,-11.248,-2.438,-2.591,-0.042,0.879,-0.424,-1.617,-1.892,-0.153,80.000,169496.000,1.000
8.311,-15.372,-5.669,-7.806,-5.065,-8.389,2.473,2.041,-0.041,0.879,-0.423,-1.526,-1.862,-0.031,80.000,169497.000,1.000
80.190,-13.680,-3.033,-5.106,-1.602,-4.364,7.831,6.631,-0.039,0.878,-0.425,-1.617,-1.801,0.061,80.000,169498.000,1.000
65.705,-12.105,-1.477,-3.162,0.831,-1.177,11.189,8.863,-0.039,0.879,-0.427,-1.617,-1.770,0.122,80.000,169499.000,1.000
-2.143,-11.229,-1.546,-2.835,1.401,0.047,11.194,7.634,-0.039,0.879,-0.426,-1.495,-1.648,0.305,80.000,169500.000,1.000
-78.606,-11.242,-3.268,-4.318,0.182,-0.561,8.043,3.255,-0.042,0.879,-0.423,-1.373,-1.556,0.519,80.000,169501.000,1.000
-128.093,-11.917,-5.866,-7.104,-2.042,-2.069,3.180,-2.803,-0.044,0.877,-0.424,-1.434,-1.404,0.580,80.000,169502.000,1.000
-135.281,-12.755,-8.400,-10.345,-4.228,-3.562,-1.767,-8.637,-0.045,0.875,-0.422,-1.495,-1.190,0.671,80.000,169503.000,1.000
-104.188,-13.159,-9.723,-13.088,-5.396,-4.352,-5.167,-12.467,-0.047,0.875,-0.419,-1.465,-1.221,0.732,80.000,169504.000,1.000
-44.605,-12.654,-9.144,-14.527,-4.816,-3.772,-5.554,-13.056,-0.049,0.877,-0.419,-1.526,-1.251,0.763,80.000,169505.000,1.000
37.573,-11.116,-6.797,-14.247,-2.350,-1.528,-2.428,-10.262,-0.051,0.875,-0.418,-1.648,-1.312,0.732,80.000,169506.000,1.000
134.895,-8.799,-3.275,-12.350,1.358,1.770,3.037,-5.284,-0.049,0.874,-0.421,-1.617,-1.404,0.824,80.000,169507.000,1.000
230.179,-6.130,0.323,-9.399,5.223,4.924,8.375,-0.024,-0.049,0.872,-0.419,-1.648,-1.465,0.793,80.000,169508.000,1.000
300.452,-3.513,3.309,-6.015,8.292,6.823,11.632,4.167,-0.048,0.872,-0.424,-1.526,-1.434,0.824,80.000,169509.000,1.000
330.949,-1.278,5.356,-2.725,10.019,6.810,12.220,6.912,-0.048,0.870,-0.419,-1.556,-1.404,0.824,80.000,169510.000,1.000
323.882,0.384,6.363,0.007,10.283,5.068,10.759,8.361,-0.047,0.869,-0.417,-1.434,-1.373,0.885,80.000,169511.000,1.000
293.194,1.366,6.517,1.753,9.225,2.644,8.460,8.620,-0.044,0.867,-0.419,-1.404,-1.465,0.854,80.000,169512.000,1.000
255.074,1.530,5.653,2.115,7.075,0.670,6.088,7.570,-0.044,0.867,-0.419,-1.312,-1.465,0.763,80.000,169513.000,1.000
224.297,0.894,3.914,1.117,4.333,-0.299,4.202,5.633,-0.044,0.868,-0.417,-1.282,-1.343,0.824,80.000,169514.000,1.000
212.855,-0.075,1.799,-0.577,1.984,0.008,3.753,4.390,-0.043,0.868,-0.418,-1.160,-1.251,0.854,80.000,169515.000,1.000
226.775,-0.600,-0.091,-2.047,0.974,1.962,5.718,5.421,-0.043,0.868,-0.422,-1.038,-1.190,0.916,80.000,169516.000,1.000
264.328,-0.208,-1.314,-2.866,1.207,5.540,9.824,8.204,-0.044,0.868,-0.422,-1.007,-1.099,0.977,80.000,169517.000,1.000
317.453,0.904,-2.215,-3.285,1.573,9.865,14.080,10.319,-0.043,0.869,-0.422,-0.885,-1.038,0.946,80.000,169518.000,1.000
372.394,2.212,-3.024,-3.547,1.079,13.638,16.444,10.021,-0.041,0.870,-0.422,-0.793,-1.007,0.977,80.000,169519.000,1.000
411.316,3.255,-3.733,-3.611,-0.537,15.734,15.907,7.423,-0.043,0.870,-0.422,-0.671,-0.946,0.946,80.000,169520.000,1.000
420.553,3.861,-4.134,-3.272,-2.911,15.683,12.777,3.839,-0.043,0.872,-0.422,-0.702,-0.885,0.946,80.000,169521.000,1.000
398.923,4.159,-3.665,-2.328,-5.404,13.892,8.601,0.909,-0.041,0.873,-0.421,-0.610,-0.793,0.977,80.000,169522.000,1.000
357.059,4.209,-2.369,-1.006,-7.732,11.099,4.822,-0.464,-0.042,0.875,-0.424,-0.580,-0.763,1.038,80.000,169523.000,1.000
309.576,3.797,-0.737,0.016,-10.212,7.927,2.051,-0.647,-0.042,0.877,-0.422,-0.488,-0.732,1.038,80.000,169524.000,1.000
266.338,2.773,0.548,0.106,-13.161,5.098,0.345,-0.608,-0.041,0.876,-0.423,-0.641,-0.610,0.977,80.000,169525.000,1.000
230.532,1.419,1.234,-0.709,-16.242,3.310,-0.267,-0.768,-0.042,0.875,-0.423,-0.610,-0.488,1.007,80.000,169526.000,1.000
204.198,0.267,1.828,-1.760,-18.678,2.647,0.078,-0.926,-0.043,0.876,-0.422,-0.519,-0.458,1.007,80.000,169527.000,1.000
187.810,-0.426,2.536,-2.533,-20.096,2.352,0.374,-1.397,-0.042,0.878,-0.423,-0.549,-0.488,0.977,80.000,169528.000,1.000
170.885,-0.810,3.355,-3.017,-20.779,1.407,-0.579,-3.155,-0.044,0.879,-0.423,-0.580,-0.488,1.038,80.000,169529.000,1.000
134.303,-0.941,4.266,-3.255,-20.871,-0.248,-2.712,-6.278,-0.045,0.877,-0.419,-0.549,-0.488,0.977,80.000,169530.000,1.000
70.480,-0.406,5.569,-2.851,-19.792,-1.277,-4.161,-8.958,-0.043,0.877,-0.424,-0.641,-0.336,1.068,80.000,169531.000,1.000
-6.245,0.981,7.649,-1.506,-17.261,-0.830,-3.388,-9.406,-0.042,0.880,-0.423,-0.549,-0.244,0.977,80.000,169532.000,1.000
-74.666,2.399,9.783,0.193,-14.347,-0.290,-1.597,-8.030,-0.046,0.884,-0.420,-0.488,-0.397,1.007,80.000,169533.000,1.000
-124.217,2.745,11.095,1.399,-12.403,-1.558,-0.975,-6.297,-0.046,0.886,-0.420,-0.580,-0.580,0.885,80.000,169534.000,1.000
-152.700,1.739,11.268,1.805,-11.740,-4.710,-2.326,-5.088,-0.047,0.884,-0.417,-0.702,-0.549,0.793,80.000,169535.000,1.000
-156.004,-0.099,10.576,1.464,-11.946,-8.473,-5.210,-4.902,-0.047,0.884,-0.419,-0.702,-0.610,0.854,80.000,169536.000,1.000
-132.112,-1.942,9.862,0.616,-12.366,-11.445,-8.372,-5.696,-0.045,0.884,-0.421,-0.854,-0.671,0.854,80.000,169537.000,1.000
-90.794,-2.776,9.897,-0.112,-11.899,-12.187,-9.674,-6.048,-0.046,0.880,-0.423,-1.129,-0.702,0.916,80.000,169538.000,1.000
-45.247,-1.803,11.310,0.043,-9.614,-9.787,-7.088,-4.227,-0.045,0.879,-0.422,-1.068,-0.763,0.946,80.000,169539.000,1.000
1.225,0.613,13.545,0.897,-6.146,-5.354,-1.310,-0.786,-0.044,0.879,-0.421,-1.190,-0.671,0.946,80.000,169540.000,1.000
43.412,2.814,15.046,1.243,-3.569,-2.030,4.084,1.627,-0.044,0.881,-0.422,-1.038,-0.732,0.885,80.000,169541.000,1.000
53.243,3.255,15.000,0.235,-3.355,-2.381,6.031,1.411,-0.045,0.883,-0.423,-1.129,-0.702,0.824,80.000,169542.000,1.000
-8.805,1.908,13.624,-1.786,-5.031,-5.863,4.429,-0.538,-0.046,0.881,-0.423,-1.068,-0.671,0.854,80.000,169543.000,1.000
-157.685,0.071,12.063,-3.722,-6.952,-9.515,1.561,-2.340,-0.045,0.881,-0.422,-1.099,-0.641,0.854,80.000,169544.000,1.000
-368.683,-0.863,11.347,-4.603,-7.792,-10.805,-0.389,-2.895,-0.043,0.883,-0.421,-1.007,-0.671,1.038,80.000,169545.000,1.000
-591.766,-0.229,11.880,-3.987,-7.142,-9.171,-0.487,-2.060,-0.042,0.880,-0.421,-1.129,-0.671,1.038,80.000,169546.000,1.000
-772.652,1.829,13.525,-2.069,-5.354,-5.552,1.370,-0.216,-0.041,0.876,-0.421,-1.221,-0.763,1.160,80.000,169547.000,1.000
-872.665,4.616,15.290,0.351,-3.196,-1.477,4.565,1.866,-0.041,0.873,-0.421,-1.312,-0.641,1.190,80.000,169548.000,1.000
-885.976,7.435,16.562,2.556,-1.284,1.669,8.226,3.563,-0.041,0.870,-0.422,-1.129,-0.610,1.129,80.000,169549.000,1.000
-844.032,10.065,17.547,4.405,0.387,3.323,11.616,4.937,-0.043,0.868,-0.423,-0.854,-0.549,1.099,80.000,169550.000,1.000
-797.591,12.622,18.742,6.082,2.178,3.792,14.203,6.380,-0.047,0.870,-0.424,-0.824,-0.519,1.160,80.000,169551.000,1.000
-783.085,15.092,20.252,7.598,4.217,3.747,15.676,7.927,-0.050,0.872,-0.423,-0.610,-0.580,1.068,80.000,169552.000,1.000
-798.848,17.339,21.317,8.794,6.450,4.069,16.124,9.406,-0.050,0.872,-0.425,-0.580,-0.641,0.916,80.000,169553.000,1.000
-812.150,19.356,21.636,9.724,8.876,5.514,16.329,10.975,-0.050,0.874,-0.422,-0.427,-0.763,0.824,80.000,169554.000,1.000
-789.330,21.084,21.458,10.442,11.266,7.845,16.795,12.678,-0.047,0.875,-0.421,-0.458,-0.824,0.610,80.000,169555.000,1.000
-719.139,22.332,21.035,10.855,13.190,10.146,17.434,14.116,-0.047,0.876,-0.421,-0.366,-0.885,0.580,80.000,169556.000,1.000
-612.041,23.050,20.464,10.972,14.489,11.992,18.230,14.923,-0.049,0.875,-0.422,-0.488,-1.007,0.397,80.000,169557.000,1.000
-486.454,23.345,19.321,10.961,15.258,13.267,18.814,15.040,-0.048,0.876,-0.422,-0.366,-1.099,0.305,80.000,169558.000,1.000
-359.292,23.317,17.750,11.110,15.578,13.572,18.576,14.755,-0.045,0.876,-0.423,-0.427,-1.160,0.244,80.000,169559.000,1.000
-246.580,23.019,16.462,11.586,15.525,12.650,17.340,14.448,-0.044,0.874,-0.422,-0.366,-1.129,0.305,80.000,169560.000,1.000
-166.229,22.528,15.952,12.304,15.245,10.676,15.561,14.328,-0.043,0.873,-0.423,-0.397,-1.190,0.275,80.000,169561.000,1.000
-131.926,22.026,16.014,12.995,14.999,8.242,13.994,14.420,-0.042,0.871,-0.425,-0.244,-1.221,0.275,80.000,169562.000,1.000
-142.833,21.803,15.508,13.228,15.075,6.494,13.192,14.517,-0.043,0.870,-0.421,-0.183,-1.160,0.336,80.000,169563.000,1.000
-182.469,22.068,14.022,12.685,15.568,6.489,13.570,14.357,-0.042,0.870,-0.419,0.000,-1.282,0.305,80.000,169564.000,1.000
-227.061,22.797,12.404,11.519,16.436,8.314,15.308,14.124,-0.042,0.873,-0.418,0.092,-1.312,0.305,80.000,169565.000,1.000
-254.361,23.936,12.057,10.570,17.946,11.441,18.469,14.823,-0.042,0.874,-0.419,0.244,-1.282,0.336,80.000,169566.000,1.000
-249.596,25.412,13.716,10.770,20.484,15.210,22.518,17.197,-0.044,0.875,-0.421,0.275,-1.160,0.397,80.000,169567.000,1.000
-210.456,26.701,16.097,11.973,23.535,18.308,25.185,19.845,-0.046,0.876,-0.422,0.305,-1.190,0.549,80.000,169568.000,1.000
-149.387,26.920,17.529,13.088,25.692,19.082,23.974,19.988,-0.046,0.876,-0.421,0.427,-1.221,0.641,80.000,169569.000,1.000
-87.674,25.625,17.669,13.363,26.148,17.190,18.971,16.643,-0.049,0.878,-0.420,0.305,-1.373,0.641,80.000,169570.000,1.000
-43.297,23.257,17.447,13.120,25.539,14.044,13.158,11.975,-0.053,0.876,-0.423,0.275,-1.404,0.702,80.000,169571.000,1.000
-24.287,20.664,17.572,13.106,25.037,11.331,9.655,9.021,-0.052,0.875,-0.422,0.305,-1.526,0.702,80.000,169572.000,1.000
-31.461,18.453,17.309,13.558,25.203,9.809,9.184,8.961,-0.051,0.876,-0.421,0.275,-1.617,0.732,80.000,169573.000,1.000
-61.749,16.824,16.201,14.282,25.934,9.317,10.801,11.014,-0.051,0.875,-0.423,0.214,-1.648,0.732,80.000,169574.000,1.000
-108.076,15.481,14.723,14.825,26.676,8.960,12.916,13.345,-0.048,0.875,-0.424,0.183,-1.678,0.702,80.000,169575.000,1.000
-159.953,13.698,13.360,14.515,26.554,7.489,13.646,13.881,-0.046,0.876,-0.424,0.183,-1.709,0.702,80.000,169576.000,1.000
-205.639,11.016,12.093,13.022,25.133,4.495,11.942,11.802,-0.047,0.877,-0.423,0.214,-1.862,0.763,80.000,169577.000,1.000
-233.193,7.886,10.420,10.897,23.138,1.244,8.521,8.531,-0.047,0.875,-0.424,0.153,-1.923,0.763,80.000,169578.000,1.000
-231.482,5.379,8.725,9.419,21.951,-0.149,5.684,6.743,-0.045,0.875,-0.424,0.153,-1.831,0.854,80.000,169579.000,1.000
-194.689,4.224,7.917,9.512,22.308,1.528,5.342,8.010,-0.044,0.873,-0.425,0.092,-1.892,0.885,80.000,169580.000,1.000
-128.234,4.181,8.325,10.947,23.594,5.467,7.277,11.463,-0.046,0.875,-0.423,0.183,-1.984,0.916,80.000,169581.000,1.000
-47.981,4.342,9.495,12.662,24.476,9.516,9.682,14.851,-0.046,0.876,-0.421,0.122,-2.106,0.946,80.000,169582.000,1.000
28.714,4.011,10.332,13.692,24.176,12.153,11.076,16.724,-0.047,0.876,-0.421,0.092,-1.984,0.946,80.000,169583.000,1.000
89.348,3.145,10.405,13.754,22.732,13.355,11.433,17.013,-0.045,0.874,-0.423,0.092,-2.075,0.977,80.000,169584.000,1.000
125.897,1.911,9.692,12.785,20.113,13.395,10.792,15.511,-0.048,0.873,-0.424,0.061,-2.014,0.946,80.000,169585.000,1.000
138.475,0.342,8.185,10.712,15.986,11.870,8.547,11.579,-0.048,0.874,-0.423,0.092,-2.075,1.007,80.000,169586.000,1.000
141.611,-1.446,6.267,7.838,10.503,8.314,4.551,5.586,-0.047,0.874,-0.424,-0.031,-2.075,1.007,80.000,169587.000,1.000
155.484,-3.008,4.348,4.905,4.805,3.245,-0.403,-0.682,-0.045,0.875,-0.426,0.092,-2.136,0.916,80.000,169588.000,1.000
185.122,-3.651,3.177,2.861,0.552,-1.809,-4.807,-5.124,-0.043,0.874,-0.426,0.153,-2.197,0.916,80.000,169589.000,1.000
214.948,-2.931,3.164,2.245,-1.210,-5.515,-7.702,-6.904,-0.043,0.875,-0.428,0.183,-2.136,0.824,80.000,169590.000,1.000
227.119,-0.980,4.080,2.915,-0.638,-7.562,-9.175,-6.747,-0.045,0.876,-0.426,0.153,-2.228,0.793,80.000,169591.000,1.000
218.608,1.825,5.798,4.532,1.562,-8.039,-9.174,-5.500,-0.045,0.876,-0.427,0.214,-2.197,0.763,80.000,169592.000,1.000
199.117,5.163,8.050,6.838,4.785,-6.982,-7.194,-3.300,-0.045,0.875,-0.425,0.183,-2.228,0.732,80.000,169593.000,1.000
183.325,8.552,10.468,9.408,8.252,-5.190,-3.387,-0.372,-0.045,0.875,-0.424,0.122,-2.197,0.671,80.000,169594.000,1.000
189.287,11.212,12.149,11.425,10.818,-4.391,0.449,2.123,-0.046,0.878,-0.423,0.092,-2.136,0.702,80.000,169595.000,1.000
231.473,12.520,12.186,12.169,11.602,-5.906,2.000,2.743,-0.046,0.877,-0.423,-0.061,-2.319,0.641,80.000,169596.000,1.000
306.220,12.420,10.739,11.591,10.618,-9.708,0.325,1.020,-0.046,0.879,-0.425,-0.092,-2.319,0.580,80.000,169597.000,1.000
390.525,11.376,8.583,10.236,8.739,-14.689,-3.729,-2.115,-0.047,0.879,-0.426,-0.092,-2.289,0.580,80.000,169598.000,1.000
459.116,10.138,6.828,8.900,7.277,-19.172,-7.896,-4.827,-0.045,0.878,-0.426,-0.031,-2.319,0.549,80.000,169599.000,1.000
500.042,9.411,5.890,8.126,7.390,-21.514,-9.849,-5.358,-0.045,0.878,-0.424,-0.183,-2.411,0.549,80.000,169600.000,1.000
517.148,9.503,5.363,7.977,9.416,-21.026,-8.483,-2.842,-0.047,0.878,-0.421,-0.153,-2.472,0.519,80.000,169601.000,1.000
520.861,10.043,4.870,8.021,12.342,-18.734,-4.669,1.774,-0.049,0.879,-0.419,-0.244,-2.533,0.519,80.000,169602.000,1.000
515.793,10.024,3.881,7.367,14.077,-17.127,-1.372,5.429,-0.049,0.880,-0.422,-0.305,-2.533,0.366,80.000,169603.000,1.000
498.072,8.459,2.046,5.325,12.882,-18.639,-1.683,4.900,-0.051,0.878,-0.420,-0.397,-2.502,0.366,80.000,169604.000,1.000
462.884,5.199,-1.052,2.012,8.777,-23.844,-6.604,-0.500,-0.050,0.879,-0.424,-0.366,-2.625,0.275,80.000,169605.000,1.000
411.928,1.305,-5.274,-1.576,3.676,-30.694,-14.126,-8.159,-0.050,0.880,-0.422,-0.458,-2.625,0.275,80.000,169606.000,1.000
354.594,-1.508,-8.982,-4.056,0.102,-35.817,-20.404,-14.025,-0.052,0.879,-0.421,-0.641,-2.716,0.275,80.000,169607.000,1.000
303.862,-1.912,-10.282,-4.479,-0.421,-36.864,-22.671,-15.418,-0.055,0.880,-0.422,-0.610,-2.899,0.305,80.000,169608.000,1.000
272.969,0.390,-8.294,-2.763,1.992,-33.573,-20.727,-12.348,-0.054,0.879,-0.421,-0.671,-3.143,0.336,80.000,169609.000,1.000
273.285,4.558,-4.335,0.196,5.981,-27.192,-16.522,-7.006,-0.052,0.878,-0.423,-0.702,-3.235,0.397,80.000,169610.000,1.000
307.054,8.987,-0.994,2.992,9.808,-19.510,-12.338,-2.076,-0.051,0.879,-0.419,-0.763,-3.296,0.397,80.000,169611.000,1.000
361.858,12.038,0.314,4.554,12.179,-12.101,-9.036,0.921,-0.052,0.880,-0.419,-0.763,-3.357,0.427,80.000,169612.000,1.000
420.763,12.663,-0.350,4.520,12.577,-6.106,-6.428,1.942,-0.052,0.878,-0.419,-0.885,-3.510,0.580,80.000,169613.000,1.000
475.845,10.567,-2.331,3.045,10.997,-2.558,-4.665,1.552,-0.050,0.880,-0.422,-1.007,-3.693,0.610,80.000,169614.000,1.000
525.237,6.057,-6.023,0.239,7.578,-2.193,-5.055,-0.188,-0.051,0.880,-0.425,-0.977,-3.723,0.641,80.000,169615.000,1.000
566.403,-0.022,-12.183,-3.837,2.663,-4.543,-8.765,-3.725,-0.052,0.878,-0.422,-0.977,-3.784,0.732,80.000,169616.000,1.000
599.133,-6.506,-19.716,-8.696,-3.006,-8.013,-15.096,-9.039,-0.052,0.878,-0.424,-1.160,-3.937,0.732,80.000,169617.000,1.000
624.527,-12.360,-26.158,-13.376,-8.330,-11.037,-21.771,-14.907,-0.052,0.879,-0.424,-1.160,-4.028,0.763,80.000,169618.000,1.000
636.410,-16.864,-29.538,-16.771,-12.082,-12.549,-26.223,-19.258,-0.053,0.878,-0.422,-1.190,-4.089,0.854,80.000,169619.000,1.000
619.382,-19.635,-30.248,-18.277,-13.504,-11.953,-27.364,-20.691,-0.050,0.879,-0.422,-1.343,-4.181,0.885,80.000,169620.000,1.000
554.669,-20.530,-29.746,-17.858,-12.658,-9.174,-25.718,-19.171,-0.051,0.880,-0.421,-1.404,-4.272,0.946,80.000,169621.000,1.000
428.533,-19.527,-27.866,-15.607,-10.082,-4.419,-21.748,-15.230,-0.051,0.878,-0.421,-1.404,-4.333,1.038,80.000,169622.000,1.000
245.375,-17.037,-23.755,-11.961,-6.606,1.737,-15.668,-9.637,-0.051,0.878,-0.423,-1.648,-4.303,1.129,80.000,169623.000,1.000
38.342,-14.265,-18.162,-8.143,-3.556,7.776,-8.706,-3.935,-0.050,0.878,-0.422,-1.617,-4.395,1.068,80.000,169624.000,1.000
-138.256,-12.712,-14.422,-5.862,-2.429,11.560,-3.674,-0.408,-0.049,0.877,-0.423,-1.709,-4.486,1.099,80.000,169625.000,1.000
-233.365,-13.051,-15.446,-6.028,-3.848,11.784,-2.991,-0.594,-0.050,0.875,-0.423,-1.801,-4.486,1.068,80.000,169626.000,1.000
-223.366,-14.601,-19.973,-7.899,-7.011,9.039,-6.234,-4.022,-0.052,0.876,-0.423,-1.740,-4.547,1.038,80.000,169627.000,1.000
-123.983,-15.941,-23.723,-9.755,-10.272,5.478,-10.447,-8.519,-0.053,0.876,-0.423,-1.740,-4.486,1.038,80.000,169628.000,1.000
13.937,-15.967,-23.183,-10.194,-12.228,3.442,-12.399,-11.542,-0.052,0.876,-0.426,-1.678,-4.486,0.977,80.000,169629.000,1.000
127.053,-14.482,-18.835,-9.020,-12.437,4.201,-11.061,-11.800,-0.050,0.876,-0.424,-1.709,-4.486,0.885,80.000,169630.000,1.000
173.400,-11.952,-13.748,-6.805,-11.283,7.582,-7.661,-9.620,-0.049,0.876,-0.425,-1.648,-4.456,0.824,80.000,169631.000,1.000
153.730,-9.068,-9.712,-4.015,-9.535,12.137,-3.964,-6.211,-0.048,0.875,-0.423,-1.617,-4.456,0.824,80.000,169632.000,1.000
102.630,-6.594,-6.648,-1.006,-8.165,15.709,-1.416,-3.091,-0.048,0.877,-0.421,-1.556,-4.425,0.763,80.000,169633.000,1.000
59.056,-5.126,-3.896,1.775,-7.957,16.745,-0.530,-1.220,-0.048,0.876,-0.423,-1.465,-4.303,0.732,80.000,169634.000,1.000
43.032,-4.787,-1.905,3.733,-8.990,15.495,-0.911,-0.505,-0.047,0.872,-0.422,-1.434,-4.272,0.610,80.000,169635.000,1.000
55.648,-5.352,-1.762,4.181,-10.890,13.344,-2.132,-0.769,-0.049,0.873,-0.425,-1.495,-4.120,0.610,80.000,169636.000,1.000
91.323,-6.672,-3.503,2.610,-13.467,11.065,-4.396,-2.730,-0.048,0.871,-0.420,-1.373,-3.967,0.610,80.000,169637.000,1.000
142.995,-8.542,-6.102,-0.737,-16.412,8.783,-7.709,-6.756,-0.050,0.870,-0.418,-1.404,-3.876,0.610,80.000,169638.000,1.000
199.579,-10.119,-7.737,-4.410,-18.513,7.368,-10.380,-11.074,-0.047,0.868,-0.424,-1.343,-3.845,0.427,80.000,169639.000,1.000
243.979,-10.091,-7.152,-6.475,-18.051,8.469,-10.050,-12.591,-0.046,0.870,-0.425,-1.221,-3.723,0.397,80.000,169640.000,1.000
256.692,-7.608,-4.304,-5.708,-14.116,13.018,-5.698,-9.254,-0.046,0.871,-0.423,-1.251,-3.632,0.336,80.000,169641.000,1.000
225.682,-2.996,0.150,-2.230,-7.444,20.078,1.714,-1.446,-0.046,0.871,-0.421,-1.099,-3.479,0.244,80.000,169642.000,1.000
156.468,2.386,4.847,2.645,-0.034,27.245,9.758,8.335,-0.045,0.873,-0.422,-1.068,-3.387,0.244,80.000,169643.000,1.000
72.832,6.977,8.634,7.219,5.918,32.262,15.980,16.794,-0.046,0.875,-0.423,-0.854,-3.265,0.092,80.000,169644.000,1.000
3.375,9.790,10.714,10.090,8.908,34.339,18.723,21.096,-0.042,0.875,-0.421,-0.885,-3.082,0.244,80.000,169645.000,1.000
-37.165,10.761,10.834,10.758,8.627,34.037,17.672,20.297,-0.043,0.878,-0.423,-1.007,-2.869,0.275,80.000,169646.000,1.000
-55.824,10.505,9.527,9.793,5.857,32.113,13.796,15.827,-0.044,0.880,-0.421,-0.946,-2.655,0.427,80.000,169647.000,1.000
-74.337,9.759,7.296,8.233,1.872,28.969,8.279,10.153,-0.043,0.878,-0.422,-1.068,-2.411,0.397,80.000,169648.000,1.000
-114.634,9.042,4.960,7.016,-2.117,25.164,2.315,5.281,-0.043,0.880,-0.422,-1.099,-2.289,0.397,80.000,169649.000,1.000
-183.048,8.486,3.336,6.543,-5.378,21.642,-2.985,1.945,-0.045,0.880,-0.422,-1.068,-2.167,0.427,80.000,169650.000,1.000
-261.670,7.986,2.910,6.745,-7.624,19.501,-6.501,0.064,-0.046,0.880,-0.421,-1.038,-1.923,0.519,80.000,169651.000,1.000
-321.142,7.460,3.753,7.362,-8.773,19.606,-7.277,-0.593,-0.046,0.879,-0.424,-1.160,-1.801,0.427,80.000,169652.000,1.000
-347.656,6.641,4.773,7.804,-9.297,21.460,-6.025,-0.901,-0.047,0.881,-0.422,-1.190,-1.648,0.549,80.000,169653.000,1.000
-351.332,4.950,4.943,7.479,-10.306,22.463,-5.130,-2.189,-0.048,0.881,-0.419,-1.251,-1.617,0.610,80.000,169654.000,1.000
-347.393,2.058,4.298,6.404,-12.559,19.700,-6.575,-4.795,-0.048,0.881,-0.420,-1.282,-1.526,0.641,80.000,169655.000,1.000
-339.504,-1.403,3.888,5.284,-15.485,13.009,-10.024,-7.544,-0.047,0.882,-0.422,-1.312,-1.495,0.641,80.000,169656.000,1.000
-323.737,-4.070,4.866,4.825,-17.614,5.589,-13.299,-9.078,-0.048,0.883,-0.421,-1.404,-1.404,0.671,80.000,169657.000,1.000
-298.049,-5.000,7.109,5.037,-17.932,1.070,-14.738,-9.177,-0.048,0.883,-0.420,-1.495,-1.373,0.641,80.000,169658.000,1.000
-264.919,-4.391,10.144,5.538,-16.591,0.445,-14.083,-8.407,-0.049,0.883,-0.421,-1.617,-1.221,0.763,80.000,169659.000,1.000
-232.667,-3.226,13.786,6.099,-14.445,2.037,-11.802,-7.222,-0.051,0.881,-0.419,-1.556,-1.190,0.763,80.000,169660.000,1.000
-213.134,-2.497,17.943,6.777,-12.359,3.441,-8.337,-5.708,-0.051,0.880,-0.419,-1.587,-1.221,0.916,80.000,169661.000,1.000
-215.579,-2.652,22.208,7.670,-10.876,3.230,-4.129,-3.951,-0.051,0.877,-0.419,-1.617,-1.190,0.916,80.000,169662.000,1.000
-246.124,-3.237,25.560,8.856,-9.795,2.085,0.501,-1.958,-0.050,0.879,-0.419,-1.617,-1.099,0.946,80.000,169663.000,1.000
-307.065,-3.070,27.873,10.644,-8.107,2.254,6.088,0.857,-0.052,0.879,-0.418,-1.587,-1.129,1.099,80.000,169664.000,1.000
-391.456,-1.425,29.766,13.065,-5.261,4.750,12.634,4.761,-0.052,0.878,-0.420,-1.526,-1.068,1.129,80.000,169665.000,1.000
-483.666,1.051,31.443,15.425,-2.171,7.683,18.184,8.709,-0.052,0.880,-0.420,-1.617,-1.007,1.221,80.000,169666.000,1.000
-566.474,2.950,32.374,16.811,-0.321,8.309,20.381,11.189,-0.051,0.880,-0.419,-1.526,-1.099,1.221,80.000,169667.000,1.000
-625.760,3.442,31.465,16.799,-0.259,6.145,18.855,11.647,-0.050,0.882,-0.417,-1.526,-1.129,1.251,80.000,169668.000,1.000
-651.078,3.023,28.870,15.883,-1.064,3.661,16.142,11.043,-0.050,0.879,-0.418,-1.526,-1.129,1.312,80.000,169669.000,1.000
-634.593,2.997,26.100,15.029,-1.189,4.056,15.622,10.860,-0.051,0.880,-0.417,-1.526,-1.099,1.251,80.000,169670.000,1.000
-572.743,4.147,24.533,14.755,0.087,8.044,18.458,11.663,-0.051,0.879,-0.418,-1.526,-1.160,1.251,80.000,169671.000,1.000
-470.934,5.915,24.083,14.699,2.009,12.735,22.614,12.765,-0.050,0.878,-0.418,-1.587,-1.038,1.343,80.000,169672.000,1.000
-341.940,6.966,22.840,13.986,3.214,14.404,24.793,13.053,-0.051,0.880,-0.419,-1.526,-1.068,1.251,80.000,169673.000,1.000
-199.277,6.516,19.476,12.272,3.163,12.247,23.874,12.267,-0.052,0.879,-0.418,-1.526,-1.007,1.190,80.000,169674.000,1.000
-58.737,4.837,14.503,10.205,2.529,8.637,21.604,11.423,-0.052,0.879,-0.421,-1.526,-1.007,1.251,80.000,169675.000,1.000
55.972,2.715,9.532,8.811,2.310,6.227,20.380,11.854,-0.049,0.878,-0.417,-1.587,-1.160,1.190,80.000,169676.000,1.000
121.887,0.666,5.675,8.267,2.565,5.401,20.489,13.274,-0.051,0.878,-0.416,-1.526,-1.160,1.221,80.000,169677.000,1.000
140.318,-1.329,2.155,7.379,2.114,4.312,19.208,13.030,-0.050,0.876,-0.415,-1.495,-1.160,1.190,80.000,169678.000,1.000
140.942,-3.309,-1.921,4.871,-0.139,1.146,13.842,8.615,-0.050,0.873,-0.417,-1.373,-1.068,1.190,80.000,169679.000,1.000
145.567,-4.794,-6.043,0.893,-3.737,-4.047,4.895,0.674,-0.049,0.871,-0.417,-1.251,-1.038,1.221,80.000,169680.000,1.000
139.992,-4.900,-8.610,-2.901,-6.639,-9.331,-3.812,-6.918,-0.048,0.870,-0.416,-1.160,-0.916,1.190,80.000,169681.000,1.000
96.012,-2.993,-8.543,-4.669,-6.650,-12.204,-7.824,-9.929,-0.048,0.869,-0.417,-1.099,-0.885,1.251,80.000,169682.000,1.000
5.803,0.618,-6.939,-3.927,-3.298,-11.772,-5.815,-7.280,-0.047,0.870,-0.419,-0.946,-0.854,1.190,80.000,169683.000,1.000
-111.934,4.671,-5.464,-1.638,1.655,-9.989,-0.375,-1.612,-0.049,0.871,-0.422,-0.854,-0.793,1.282,80.000,169684.000,1.000
-224.799,7.721,-4.713,0.861,5.714,-10.072,4.568,3.461,-0.051,0.869,-0.421,-0.580,-0.824,1.129,80.000,169685.000,1.000
-301.497,8.938,-4.357,2.635,7.336,-13.938,6.471,5.751,-0.050,0.872,-0.418,-0.458,-0.793,0.946,80.000,169686.000,1.000
-324.956,8.239,-4.533,2.990,6.232,-21.386,4.632,4.560,-0.052,0.874,-0.419,-0.244,-0.793,0.946,80.000,169687.000,1.000
-301.751,6.225,-6.653,1.465,3.172,-30.527,-0.272,0.518,-0.050,0.877,-0.418,-0.244,-0.824,0.946,80.000,169688.000,1.000
-259.057,4.116,-10.985,-1.412,-0.183,-38.685,-5.823,-4.067,-0.048,0.879,-0.415,-0.244,-0.763,0.916,80.000,169689.000,1.000
-223.279,3.098,-15.716,-4.262,-2.199,-43.877,-9.108,-6.536,-0.048,0.880,-0.417,-0.183,-0.793,0.885,80.000,169690.000,1.000
-199.214,3.568,-18.630,-5.926,-2.334,-45.642,-8.755,-5.880,-0.045,0.883,-0.416,-0.275,-0.702,0.977,80.000,169691.000,1.000
-174.583,5.090,-19.092,-6.102,-1.113,-44.551,-5.510,-2.934,-0.044,0.883,-0.415,-0.305,-0.641,1.007,80.000,169692.000,1.000
-140.148,6.945,-18.607,-5.164,0.672,-41.403,-1.447,0.902,-0.042,0.882,-0.418,-0.305,-0.519,1.099,80.000,169693.000,1.000
-97.924,8.531,-18.314,-3.657,2.409,-37.015,1.746,4.537,-0.039,0.882,-0.419,-0.519,-0.366,1.129,80.000,169694.000,1.000
-49.577,9.279,-17.996,-2.298,3.453,-32.548,3.262,6.901,-0.038,0.880,-0.417,-0.610,-0.183,1.282,80.000,169695.000,1.000
19.402,8.700,-17.170,-1.885,3.160,-29.398,2.781,6.976,-0.036,0.879,-0.417,-0.610,0.061,1.495,80.000,169696.000,1.000
133.864,6.811,-16.311,-2.833,1.425,-28.136,0.361,4.575,-0.037,0.875,-0.419,-0.702,0.305,1.526,80.000,169697.000,1.000
302.058,4.401,-17.080,-4.885,-0.960,-27.589,-3.313,0.815,-0.037,0.874,-0.419,-0.702,0.458,1.709,80.000,169698.000,1.000
500.702,2.623,-19.812,-7.094,-2.798,-25.732,-6.541,-2.420,-0.037,0.872,-0.422,-0.580,0.641,1.831,80.000,169699.000,1.000
684.630,2.147,-22.754,-8.446,-3.467,-21.762,-7.823,-3.891,-0.037,0.873,-0.424,-0.488,0.793,1.953,80.000,169700.000,1.000
807.018,2.873,-23.760,-8.395,-3.044,-16.474,-6.901,-3.400,-0.038,0.874,-0.420,-0.336,1.068,2.167,80.000,169701.000,1.000
839.443,4.191,-22.434,-7.127,-1.916,-10.971,-4.683,-1.503,-0.039,0.876,-0.420,-0.275,1.068,2.228,80.000,169702.000,1.000
778.853,5.129,-21.041,-5.730,-0.935,-6.285,-3.325,0.205,-0.037,0.876,-0.416,-0.183,1.129,2.350,80.000,169703.000,1.000
638.048,4.725,-21.653,-5.456,-1.228,-3.542,-4.913,-0.237,-0.039,0.873,-0.418,-0.336,1.343,2.563,80.000,169704.000,1.000
440.233,2.679,-24.180,-6.831,-3.295,-3.206,-9.611,-3.627,-0.039,0.873,-0.417,-0.244,1.343,2.686,80.000,169705.000,1.000
220.915,-0.352,-27.125,-9.443,-6.428,-4.326,-15.350,-8.823,-0.040,0.870,-0.415,-0.092,1.404,2.686,80.000,169706.000,1.000
20.228,-3.037,-29.249,-12.230,-9.012,-4.863,-19.273,-13.258,-0.043,0.870,-0.415,-0.092,1.556,2.594,80.000,169707.000,1.000
-126.976,-4.084,-30.620,-14.048,-9.396,-2.732,-19.447,-14.427,-0.047,0.869,-0.415,0.031,1.465,2.533,80.000,169708.000,1.000
-198.790,-3.092,-31.313,-14.257,-7.031,2.799,-15.467,-11.554,-0.049,0.872,-0.414,0.031,1.495,2.533,80.000,169709.000,1.000
-200.967,-1.074,-31.353,-13.319,-3.251,10.029,-9.153,-6.572,-0.049,0.875,-0.414,0.061,1.312,2.411,80.000,169710.000,1.000
-169.570,0.151,-31.319,-12.493,-0.619,15.682,-4.019,-2.955,-0.050,0.879,-0.411,0.031,1.190,2.228,80.000,169711.000,1.000
-148.486,-0.625,-31.948,-12.676,-1.019,17.369,-2.902,-3.031,-0.052,0.881,-0.411,-0.031,1.068,2.075,80.000,169712.000,1.000
-161.252,-3.189,-33.714,-13.756,-4.322,15.151,-6.188,-6.366,-0.049,0.883,-0.411,-0.183,1.007,1.984,80.000,169713.000,1.000
-192.906,-6.306,-35.863,-14.931,-8.731,11.115,-11.673,-10.462,-0.050,0.887,-0.409,-0.336,0.763,1.801,80.000,169714.000,1.000
-197.398,-8.704,-37.472,-15.680,-12.200,7.932,-16.474,-13.052,-0.047,0.888,-0.411,-0.549,0.641,1.648,80.000,169715.000,1.000
-138.084,-9.742,-38.477,-16.073,-13.548,7.355,-18.766,-13.354,-0.048,0.889,-0.414,-0.671,0.397,1.587,80.000,169716.000,1.000
-22.114,-9.587,-39.017,-16.361,-12.827,9.207,-18.217,-11.855,-0.046,0.889,-0.412,-0.763,0.244,1.556,80.000,169717.000,1.000
113.771,-8.970,-39.106,-16.765,-11.033,11.879,-15.831,-9.813,-0.044,0.891,-0.413,-1.068,0.153,1.495,80.000,169718.000,1.000
239.585,-8.542,-38.129,-17.276,-9.222,14.068,-12.795,-8.348,-0.044,0.890,-0.415,-1.221,0.183,1.465,80.000,169719.000,1.000
343.671,-8.541,-35.905,-17.859,-8.041,15.512,-10.201,-8.099,-0.043,0.888,-0.413,-1.343,0.061,1.495,80.000,169720.000,1.000
425.988,-8.936,-33.127,-18.630,-7.837,16.482,-9.028,-9.357,-0.044,0.888,-0.413,-1.465,-0.031,1.526,80.000,169721.000,1.000
489.283,-9.475,-30.073,-19.381,-8.345,17.592,-8.985,-11.338,-0.043,0.887,-0.414,-1.617,-0.122,1.556,80.000,169722.000,1.000
521.302,-9.754,-26.419,-19.336,-8.513,19.565,-8.385,-11.912,-0.043,0.887,-0.413,-1.678,-0.214,1.587,80.000,169723.000,1.000
486.032,-9.522,-21.670,-17.710,-7.340,22.406,-5.725,-9.236,-0.043,0.887,-0.411,-1.862,-0.305,1.526,80.000,169724.000,1.000
351.617,-8.834,-16.522,-14.612,-4.753,25.312,-1.305,-3.598,-0.043,0.886,-0.413,-1.953,-0.427,1.587,80.000,169725.000,1.000
129.821,-7.778,-12.333,-10.970,-1.393,27.678,3.599,3.069,-0.043,0.887,-0.413,-2.136,-0.519,1.617,80.000,169726.000,1.000
-121.844,-6.342,-9.184,-7.807,1.931,29.530,8.292,8.688,-0.044,0.886,-0.411,-2.228,-0.549,1.526,80.000,169727.000,1.000
-335.418,-4.688,-6.210,-5.883,4.357,30.938,12.303,11.570,-0.047,0.887,-0.411,-2.228,-0.580,1.648,80.000,169728.000,1.000
-459.168,-3.218,-2.730,-5.412,5.247,31.772,15.053,11.047,-0.046,0.886,-0.413,-2.441,-0.671,1.709,80.000,169729.000,1.000
-457.466,-2.315,0.422,-6.017,4.646,32.015,15.930,8.043,-0.047,0.882,-0.413,-2.625,-0.732,1.678,80.000,169730.000,1.000
-323.144,-2.028,1.989,-6.906,3.282,31.948,14.873,4.593,-0.046,0.881,-0.411,-2.563,-0.946,1.740,80.000,169731.000,1.000
-107.980,-2.077,2.669,-7.208,1.969,31.759,12.811,2.471,-0.045,0.877,-0.413,-2.502,-0.946,1.678,80.000,169732.000,1.000
90.431,-2.201,4.387,-6.551,0.937,30.861,10.626,1.934,-0.046,0.875,-0.413,-2.533,-0.977,1.587,80.000,169733.000,1.000
190.361,-2.229,8.301,-5.107,0.031,28.339,8.609,2.190,-0.046,0.871,-0.415,-2.289,-1.099,1.556,80.000,169734.000,1.000
165.673,-1.862,13.122,-3.290,-0.594,24.442,6.799,2.644,-0.047,0.869,-0.415,-2.106,-1.221,1.526,80.000,169735.000,1.000
42.883,-0.798,16.576,-1.447,-0.551,20.800,5.375,3.098,-0.046,0.868,-0.416,-1.953,-1.312,1.404,80.000,169736.000,1.000
-113.659,0.908,18.457,0.358,0.141,18.771,4.577,3.320,-0.047,0.867,-0.418,-1.587,-1.373,1.190,80.000,169737.000,1.000
-229.132,2.776,20.385,2.235,1.001,18.133,4.284,3.162,-0.048,0.867,-0.423,-1.312,-1.404,1.068,80.000,169738.000,1.000
-263.257,4.277,23.630,4.258,1.665,17.739,4.217,2.946,-0.047,0.869,-0.419,-1.099,-1.373,0.916,80.000,169739.000,1.000
-232.036,5.173,26.953,6.135,2.148,16.963,3.774,3.019,-0.045,0.869,-0.416,-0.885,-1.465,0.824,80.000,169740.000,1.000
-175.458,5.526,28.096,7.394,2.533,15.912,2.281,3.218,-0.045,0.873,-0.416,-0.549,-1.648,0.671,80.000,169741.000,1.000
-113.158,5.525,27.151,7.969,2.714,14.653,-0.015,3.201,-0.045,0.873,-0.417,-0.488,-1.709,0.519,80.000,169742.000,1.000
-44.147,5.407,26.234,8.217,2.630,13.149,-1.881,3.004,-0.045,0.872,-0.415,-0.275,-1.709,0.397,80.000,169743.000,1.000
26.087,5.482,26.962,8.494,2.537,11.829,-1.993,3.020,-0.043,0.874,-0.417,-0.031,-1.648,0.366,80.000,169744.000,1.000
80.591,5.999,28.298,8.772,2.825,11.391,-0.406,3.359,-0.044,0.873,-0.417,0.244,-1.678,0.244,80.000,169745.000,1.000
110.230,6.980,28.144,8.919,3.663,11.996,1.556,3.686,-0.045,0.873,-0.415,0.366,-1.556,0.183,80.000,169746.000,1.000
125.764,8.138,26.429,9.137,4.845,12.984,2.846,3.670,-0.044,0.871,-0.420,0.549,-1.587,0.153,80.000,169747.000,1.000
147.701,8.914,24.662,9.697,5.841,13.238,3.242,3.301,-0.042,0.870,-0.421,0.732,-1.465,-0.031,80.000,169748.000,1.000
186.114,8.835,24.132,10.611,6.145,11.895,3.039,2.983,-0.043,0.869,-0.417,0.946,-1.434,0.000,80.000,169749.000,1.000
225.266,7.889,24.316,11.485,5.614,8.963,2.237,3.060,-0.043,0.867,-0.423,1.190,-1.343,0.000,80.000,169750.000,1.000
223.151,6.429,23.772,11.733,4.401,5.225,0.510,3.260,-0.043,0.867,-0.424,1.587,-1.343,-0.061,80.000,169751.000,1.000
139.571,4.816,22.240,10.976,2.765,1.733,-1.912,2.896,-0.041,0.867,-0.425,1.801,-1.434,0.000,80.000,169752.000,1.000
-20.510,3.320,20.468,9.314,1.129,-0.538,-4.081,1.727,-0.042,0.868,-0.425,1.984,-1.282,0.000,80.000,169753.000,1.000
-197.810,2.093,19.293,7.299,-0.095,-1.271,-5.108,0.228,-0.043,0.869,-0.422,2.197,-1.282,0.000,80.000,169754.000,1.000
-322.279,1.034,18.293,5.350,-0.908,-1.112,-5.288,-1.178,-0.042,0.872,-0.421,2.441,-1.251,0.000,80.000,169755.000,1.000
-363.821,0.081,16.511,3.730,-1.334,-0.739,-5.161,-1.941,-0.044,0.874,-0.423,2.625,-1.129,0.061,80.000,169756.000,1.000
-341.405,-0.561,14.172,2.853,-0.985,-0.154,-4.127,-0.950,-0.047,0.876,-0.420,2.625,-1.160,0.000,80.000,169757.000,1.000
-293.117,-0.906,11.801,2.722,0.119,0.423,-1.954,1.888,-0.047,0.877,-0.423,2.625,-1.099,0.031,80.000,169758.000,1.000
-247.331,-1.587,9.370,2.458,0.781,-0.142,-0.180,4.354,-0.047,0.878,-0.421,2.625,-1.099,-0.031,80.000,169759.000,1.000
-219.498,-3.310,6.072,0.939,-0.389,-2.902,-0.884,3.725,-0.046,0.878,-0.422,2.472,-1.129,0.031,80.000,169760.000,1.000
-216.937,-5.919,1.614,-1.885,-3.280,-7.544,-4.165,-0.138,-0.046,0.877,-0.421,2.441,-1.190,0.061,80.000,169761.000,1.000
-230.221,-8.254,-2.669,-4.681,-6.124,-12.611,-7.632,-4.447,-0.045,0.877,-0.425,2.502,-1.312,0.000,80.000,169762.000,1.000
-223.129,-9.002,-5.160,-5.857,-6.906,-16.779,-8.553,-5.984,-0.042,0.877,-0.422,2.563,-1.251,0.092,80.000,169763.000,1.000
-150.858,-7.621,-4.946,-4.645,-4.791,-19.832,-5.745,-3.409,-0.042,0.880,-0.421,2.594,-1.221,0.153,80.000,169764.000,1.000
-4.821,-4.863,-2.869,-1.769,-0.872,-23.105,-0.879,1.587,-0.042,0.882,-0.423,2.502,-1.251,0.275,80.000,169765.000,1.000
163.472,-2.378,-1.121,0.901,2.397,-28.811,2.242,5.255,-0.043,0.882,-0.423,2.472,-1.190,0.458,80.000,169766.000,1.000
270.677,-1.415,-1.194,1.883,3.239,-37.801,1.060,5.077,-0.042,0.881,-0.422,2.258,-1.343,0.549,80.000,169767.000,1.000
254.976,-1.839,-3.066,1.209,2.063,-48.074,-3.494,1.932,-0.043,0.877,-0.419,2.075,-1.221,0.702,80.000,169768.000,1.000
110.663,-2.534,-5.254,0.093,0.683,-56.298,-8.142,-1.260,-0.042,0.871,-0.420,2.075,-1.251,0.732,80.000,169769.000,1.000
-112.576,-2.682,-6.650,-0.428,0.440,-60.573,-10.502,-2.457,-0.045,0.872,-0.417,2.045,-1.190,0.824,80.000,169770.000,1.000
-339.494,-2.344,-7.328,-0.151,1.486,-61.213,-10.294,-1.496,-0.047,0.872,-0.420,2.075,-1.221,0.793,80.000,169771.000,1.000
-510.336,-2.002,-7.423,0.649,3.276,-59.547,-8.146,0.734,-0.050,0.870,-0.421,2.106,-1.251,0.763,80.000,169772.000,1.000
-605.832,-2.047,-6.807,1.546,5.046,-56.915,-4.924,3.037,-0.052,0.873,-0.422,2.075,-1.404,0.732,80.000,169773.000,1.000
-642.396,-2.643,-4.874,2.211,6.097,-54.451,-1.414,4.483,-0.055,0.875,-0.421,2.167,-1.495,0.702,80.000,169774.000,1.000
-648.751,-3.784,-1.568,2.455,6.069,-53.082,1.691,4.755,-0.054,0.877,-0.419,2.014,-1.709,0.488,80.000,169775.000,1.000
-643.175,-5.279,2.250,2.300,5.116,-53.489,3.842,4.162,-0.054,0.878,-0.420,1.923,-1.862,0.397,80.000,169776.000,1.000
-629.598,-6.762,5.658,1.969,3.727,-56.085,4.648,3.189,-0.052,0.881,-0.421,1.709,-2.045,0.244,80.000,169777.000,1.000
-612.673,-7.801,7.909,1.723,2.456,-60.718,3.832,2.192,-0.051,0.884,-0.420,1.556,-2.167,0.153,80.000,169778.000,1.000
-606.684,-7.974,9.290,1.890,1.820,-66.250,1.973,1.735,-0.050,0.883,-0.419,1.343,-2.167,0.214,80.000,169779.000,1.000
-624.424,-7.058,10.585,2.614,2.042,-70.784,0.111,2.226,-0.047,0.884,-0.420,1.007,-2.228,0.183,80.000,169780.000,1.000
-662.573,-5.217,12.254,3.634,2.800,-72.479,-1.244,3.263,-0.044,0.883,-0.425,0.824,-2.258,0.153,80.000,169781.000,1.000
-702.885,-2.948,14.271,4.469,3.426,-70.134,-2.145,3.758,-0.042,0.883,-0.423,0.641,-2.380,0.153,80.000,169782.000,1.000
-726.785,-0.869,15.717,4.670,3.378,-63.587,-2.907,2.712,-0.043,0.882,-0.423,0.488,-2.289,0.183,80.000,169783.000,1.000
-726.083,0.640,16.066,4.337,2.769,-53.821,-3.274,0.474,-0.042,0.884,-0.423,0.366,-2.319,0.183,80.000,169784.000,1.000
-700.071,1.652,15.689,4.233,2.492,-42.276,-2.180,-0.909,-0.042,0.884,-0.422,0.183,-2.289,0.214,80.000,169785.000,1.000
-651.183,2.419,15.305,5.067,3.446,-30.177,1.353,0.683,-0.042,0.884,-0.421,0.092,-2.319,0.275,80.000,169786.000,1.000
-592.469,2.731,15.117,6.489,5.222,-19.341,6.499,4.954,-0.042,0.883,-0.424,-0.153,-2.319,0.214,80.000,169787.000,1.000
-549.954,1.867,14.029,7.051,6.027,-13.009,10.189,9.005,-0.042,0.880,-0.423,-0.153,-2.258,0.336,80.000,169788.000,1.000
-541.084,-0.461,11.383,5.717,4.472,-14.223,10.062,10.249,-0.042,0.880,-0.424,-0.153,-2.228,0.519,80.000,169789.000,1.000
-550.704,-3.553,7.777,2.779,0.879,-23.482,6.532,8.301,-0.043,0.878,-0.422,-0.366,-2.258,0.488,80.000,169790.000,1.000
-537.133,-6.254,4.411,-0.647,-3.268,-38.589,1.770,4.252,-0.043,0.876,-0.424,-0.397,-2.289,0.458,80.000,169791.000,1.000
-467.111,-7.695,2.291,-3.452,-6.416,-55.923,-2.012,-0.295,-0.042,0.877,-0.421,-0.427,-2.228,0.458,80.000,169792.000,1.000
-345.793,-7.585,1.434,-4.976,-7.520,-71.487,-3.529,-3.644,-0.044,0.876,-0.419,-0.458,-2.167,0.580,80.000,169793.000,1.000
-211.858,-6.124,1.772,-5.011,-6.336,-81.819,-2.333,-4.553,-0.043,0.875,-0.421,-0.427,-2.075,0.519,80.000,169794.000,1.000
-105.265,-3.754,3.300,-3.767,-3.428,-84.779,1.214,-2.848,-0.042,0.877,-0.425,-0.427,-2.014,0.519,80.000,169795.000,1.000
-42.055,-0.854,5.833,-1.638,0.345,-79.818,6.327,0.812,-0.042,0.877,-0.423,-0.366,-1.984,0.519,80.000,169796.000,1.000
-14.934,2.167,8.808,0.831,4.105,-68.156,11.926,5.246,-0.042,0.880,-0.423,-0.549,-1.953,0.397,80.000,169797.000,1.000
-4.260,4.427,10.646,2.613,6.676,-52.812,15.899,8.497,-0.044,0.879,-0.423,-0.610,-1.862,0.305,80.000,169798.000,1.000
15.331,4.829,10.233,2.637,6.880,-37.480,16.066,8.637,-0.042,0.879,-0.422,-0.763,-1.740,0.336,80.000,169799.000,1.000
64.584,3.049,7.884,0.704,4.607,-24.520,12.182,5.530,-0.042,0.878,-0.423,-0.885,-1.709,0.244,80.000,169800.000,1.000
146.914,0.067,5.021,-2.142,1.222,-14.080,6.500,1.320,-0.042,0.880,-0.422,-0.885,-1.648,0.244,80.000,169801.000,1.000
249.029,-2.564,3.059,-4.409,-1.533,-5.368,1.858,-1.532,-0.042,0.879,-0.423,-0.916,-1.556,0.122,80.000,169802.000,1.000
353.067,-3.878,2.005,-5.324,-2.847,1.850,-0.663,-2.400,-0.039,0.875,-0.423,-1.007,-1.495,0.092,80.000,169803.000,1.000
443.423,-3.813,1.553,-4.864,-2.841,7.428,-1.219,-2.049,-0.042,0.875,-0.425,-1.099,-1.465,0.061,80.000,169804.000,1.000
503.587,-2.853,1.697,-3.308,-1.870,11.477,-0.031,-1.142,-0.041,0.874,-0.424,-1.007,-1.404,-0.092,80.000,169805.000,1.000
517.780,-1.577,2.516,-1.009,-0.183,14.205,2.776,0.297,-0.041,0.875,-0.423,-0.977,-1.282,-0.183,80.000,169806.000,1.000
485.530,-0.352,4.042,1.669,2.042,15.923,6.882,2.492,-0.042,0.875,-0.421,-0.977,-1.221,-0.244,80.000,169807.000,1.000
429.159,0.643,5.600,4.241,4.481,17.337,11.201,5.156,-0.044,0.873,-0.418,-1.007,-1.068,-0.275,80.000,169808.000,1.000
376.767,1.180,6.569,6.166,6.441,19.138,14.129,7.260,-0.043,0.874,-0.416,-1.007,-0.977,-0.244,80.000,169809.000,1.000
341.168,0.990,6.673,7.025,7.137,21.597,14.396,7.713,-0.044,0.874,-0.421,-0.946,-0.916,-0.275,80.000,169810.000,1.000
322.000,0.152,6.100,6.854,6.466,25.059,12.424,6.577,-0.046,0.873,-0.421,-1.068,-1.007,-0.305,80.000,169811.000,1.000
319.612,-0.833,5.477,6.115,5.146,30.062,10.189,5.062,-0.047,0.875,-0.424,-0.977,-0.946,-0.427,80.000,169812.000,1.000
335.908,-1.529,4.796,5.031,3.794,36.495,8.758,3.813,-0.047,0.876,-0.422,-0.977,-0.916,-0.458,80.000,169813.000,1.000
365.783,-1.903,3.889,3.461,2.378,43.312,7.502,2.282,-0.047,0.877,-0.418,-0.885,-0.885,-0.488,80.000,169814.000,1.000
395.910,-2.255,2.689,1.303,0.630,49.201,5.393,-0.149,-0.046,0.875,-0.420,-0.916,-1.007,-0.549,80.000,169815.000,1.000
412.561,-2.973,1.292,-1.167,-1.418,53.343,2.272,-3.160,-0.049,0.873,-0.418,-0.916,-0.977,-0.519,80.000,169816.000,1.000
410.215,-4.242,0.023,-3.385,-3.371,55.966,-0.990,-5.756,-0.051,0.874,-0.420,-0.885,-1.068,-0.580,80.000,169817.000,1.000
397.256,-5.824,-1.134,-4.892,-4.680,58.468,-3.125,-7.072,-0.052,0.874,-0.423,-0.885,-1.221,-0.488,80.000,169818.000,1.000
396.868,-6.980,-1.761,-5.366,-4.822,62.639,-2.695,-6.602,-0.052,0.875,-0.421,-0.763,-1.221,-0.641,80.000,169819.000,1.000
440.760,-6.965,-1.301,-4.788,-3.688,69.060,0.877,-4.440,-0.052,0.878,-0.425,-0.671,-1.343,-0.519,80.000,169820.000,1.000
553.937,-5.795,0.135,-3.739,-2.028,75.975,6.101,-1.716,-0.055,0.875,-0.423,-0.488,-1.404,-0.519,80.000,169821.000,1.000
730.974,-4.302,1.813,-3.147,-1.044,80.516,10.182,-0.049,-0.055,0.876,-0.425,-0.458,-1.495,-0.488,80.000,169822.000,1.000
926.428,-3.203,2.680,-3.446,-1.101,81.615,11.528,0.125,-0.057,0.874,-0.423,-0.488,-1.617,-0.488,80.000,169823.000,1.000
1085.719,-2.388,2.798,-3.959,-1.221,81.002,11.419,0.250,-0.055,0.874,-0.422,-0.458,-1.801,-0.366,80.000,169824.000,1.000
1189.907,-1.480,2.928,-3.777,-0.402,80.934,11.797,1.568,-0.053,0.875,-0.420,-0.366,-1.923,-0.458,80.000,169825.000,1.000
1261.038,-0.599,3.528,-2.832,1.065,81.898,12.622,3.200,-0.053,0.874,-0.424,-0.214,-1.984,-0.336,80.000,169826.000,1.000
1327.390,-0.184,4.674,-1.726,2.039,82.895,12.406,3.207,-0.053,0.874,-0.424,-0.183,-2.106,-0.153,80.000,169827.000,1.000
1392.086,-0.471,5.661,-1.102,1.745,82.931,10.058,0.639,-0.052,0.872,-0.427,0.000,-2.167,-0.092,80.000,169828.000,1.000
1426.923,-1.313,5.887,-1.182,0.268,81.720,6.189,-3.665,-0.050,0.873,-0.426,0.031,-2.197,-0.031,80.000,169829.000,1.000
1389.576,-2.241,5.278,-1.677,-1.565,79.785,2.674,-7.611,-0.050,0.874,-0.426,0.183,-2.350,0.061,80.000,169830.000,1.000
1257.702,-2.553,4.351,-1.898,-2.581,78.362,1.458,-8.961,-0.050,0.871,-0.425,0.305,-2.411,0.183,80.000,169831.000,1.000
1050.524,-1.679,3.991,-1.257,-2.032,78.627,3.341,-6.822,-0.052,0.872,-0.421,0.427,-2.502,0.153,80.000,169832.000,1.000
812.467,0.412,4.468,0.215,-0.142,80.760,7.239,-2.451,-0.052,0.874,-0.421,0.488,-2.655,0.244,80.000,169833.000,1.000
580.212,3.296,6.008,2.142,2.308,83.855,11.238,1.870,-0.052,0.874,-0.422,0.580,-2.594,0.397,80.000,169834.000,1.000
367.687,6.401,8.612,4.081,4.636,86.564,13.793,4.415,-0.050,0.872,-0.423,0.641,-2.563,0.366,80.000,169835.000,1.000
175.689,9.298,11.793,5.730,6.666,88.075,14.604,5.019,-0.046,0.873,-0.426,0.763,-2.594,0.519,80.000,169836.000,1.000
11.176,11.905,15.081,7.206,8.811,88.649,14.824,5.132,-0.047,0.873,-0.424,0.946,-2.533,0.549,80.000,169837.000,1.000
-103.955,14.413,17.950,8.911,11.608,89.002,15.654,6.484,-0.047,0.874,-0.427,1.099,-2.533,0.549,80.000,169838.000,1.000
-145.166,17.024,20.494,11.198,15.178,89.569,17.521,9.762,-0.047,0.874,-0.427,1.190,-2.472,0.641,80.000,169839.000,1.000
-110.328,19.666,22.940,13.954,18.998,90.291,19.983,14.250,-0.049,0.875,-0.425,1.343,-2.289,0.671,80.000,169840.000,1.000
-32.880,21.881,24.989,16.481,21.927,90.476,21.791,18.210,-0.045,0.874,-0.425,1.312,-2.289,0.763,80.000,169841.000,1.000
37.115,22.980,26.019,17.796,22.594,88.954,21.422,19.641,-0.045,0.875,-0.426,1.373,-2.228,0.763,80.000,169842.000,1.000
69.945,22.536,25.313,17.249,20.407,85.129,18.276,17.605,-0.048,0.875,-0.426,1.312,-2.228,0.732,80.000,169843.000,1.000
73.794,20.951,23.377,15.308,16.445,79.934,13.993,13.486,-0.047,0.873,-0.425,1.373,-2.197,0.763,80.000,169844.000,1.000
79.480,19.206,21.419,13.227,12.849,75.285,11.245,9.970,-0.046,0.872,-0.428,1.465,-2.228,0.824,80.000,169845.000,1.000
110.565,18.010,20.057,11.927,11.144,72.475,11.295,8.666,-0.047,0.871,-0.429,1.434,-2.075,0.854,80.000,169846.000,1.000
162.124,17.443,19.234,11.560,11.490,71.428,13.471,9.507,-0.045,0.873,-0.428,1.526,-1.923,0.702,80.000,169847.000,1.000
206.082,17.303,18.343,11.841,13.323,71.404,16.415,11.947,-0.042,0.872,-0.428,1.526,-1.892,0.641,80.000,169848.000,1.000
217.484,17.329,17.191,12.357,15.790,71.590,19.121,15.242,-0.041,0.874,-0.427,1.648,-1.801,0.671,80.000,169849.000,1.000
191.927,17.078,15.639,12.399,17.625,70.984,20.382,17.659,-0.042,0.876,-0.427,1.740,-1.617,0.732,80.000,169850.000,1.000
145.395,16.191,13.521,11.425,17.744,68.795,19.092,17.407,-0.040,0.875,-0.425,1.678,-1.465,0.793,80.000,169851.000,1.000
109.296,14.801,11.277,9.648,16.041,64.964,15.279,14.173,-0.042,0.876,-0.423,1.587,-1.312,0.793,80.000,169852.000,1.000
116.876,13.362,9.307,7.685,13.224,59.886,9.789,9.005,-0.042,0.875,-0.426,1.526,-1.068,0.732,80.000,169853.000,1.000
176.734,12.269,8.014,6.117,10.297,54.152,4.081,3.683,-0.043,0.873,-0.427,1.556,-1.068,0.732,80.000,169854.000,1.000
259.674,11.587,7.342,5.087,8.108,48.680,-0.215,-0.186,-0.042,0.874,-0.429,1.526,-1.007,0.671,80.000,169855.000,1.000
324.316,11.059,6.680,4.240,7.035,44.506,-1.952,-1.963,-0.042,0.874,-0.427,1.373,-0.885,0.671,80.000,169856.000,1.000
356.875,10.405,5.596,3.227,7.014,42.084,-0.832,-1.814,-0.041,0.874,-0.430,1.526,-0.732,0.641,80.000,169857.000,1.000
378.376,9.465,3.713,1.991,7.650,40.830,2.241,-0.275,-0.041,0.874,-0.430,1.434,-0.610,0.580,80.000,169858.000,1.000
414.226,8.090,1.135,0.642,8.257,39.356,5.558,1.730,-0.043,0.874,-0.429,1.312,-0.519,0.519,80.000,169859.000,1.000
465.492,6.142,-1.916,-0.827,8.077,36.213,7.152,2.815,-0.041,0.874,-0.430,1.373,-0.458,0.519,80.000,169860.000,1.000
514.539,3.808,-5.152,-2.327,6.929,30.977,6.027,2.155,-0.043,0.875,-0.430,1.312,-0.336,0.488,80.000,169861.000,1.000
549.240,1.715,-7.818,-3.358,5.564,24.809,3.171,0.584,-0.046,0.875,-0.428,1.160,-0.183,0.488,80.000,169862.000,1.000
572.218,0.478,-9.411,-3.429,4.960,19.363,0.359,-0.224,-0.044,0.875,-0.428,1.099,-0.214,0.458,80.000,169863.000,1.000
594.446,0.242,-9.558,-2.518,5.365,15.308,-1.340,0.562,-0.046,0.876,-0.427,1.068,-0.183,0.397,80.000,169864.000,1.000
625.586,0.734,-8.335,-1.110,6.298,12.425,-1.942,2.368,-0.047,0.875,-0.427,1.007,-0.122,0.336,80.000,169865.000,1.000
660.123,1.608,-6.216,0.249,7.231,10.471,-1.910,4.117,-0.047,0.876,-0.427,0.854,-0.031,0.336,80.000,169866.000,1.000
667.271,2.498,-3.612,1.235,7.882,9.137,-1.750,5.061,-0.048,0.877,-0.427,0.763,-0.061,0.305,80.000,169867.000,1.000
606.563,3.045,-1.266,1.696,8.312,8.043,-1.779,5.157,-0.049,0.878,-0.427,0.549,-0.031,0.275,80.000,169868.000,1.000
465.637,3.239,0.518,1.884,9.125,7.383,-1.247,5.401,-0.049,0.878,-0.429,0.427,0.031,0.305,80.000,169869.000,1.000
282.396,3.302,1.642,2.152,10.778,7.313,0.389,6.550,-0.048,0.876,-0.428,0.458,-0.153,0.275,80.000,169870.000,1.000
124.753,3.079,1.756,2.320,12.562,6.609,1.750,7.603,-0.050,0.877,-0.427,0.244,-0.153,0.244,80.000,169871.000,1.000
42.625,2.049,0.676,1.815,13.093,3.443,0.831,6.857,-0.052,0.876,-0.427,0.031,-0.275,0.305,80.000,169872.000,1.000
36.096,-0.089,-1.766,0.209,11.572,-2.579,-3.020,3.689,-0.052,0.875,-0.429,0.153,-0.336,0.214,80.000,169873.000,1.000
66.308,-3.072,-5.240,-2.431,8.134,-9.986,-8.752,-1.296,-0.053,0.875,-0.429,0.214,-0.397,0.183,80.000,169874.000,1.000
88.911,-6.255,-9.274,-5.700,3.479,-16.681,-14.693,-6.898,-0.055,0.874,-0.429,0.183,-0.427,0.244,80.000,169875.000,1.000
77.244,-8.889,-13.385,-8.986,-1.375,-21.154,-19.164,-11.512,-0.056,0.873,-0.429,0.214,-0.610,0.244,80.000,169876.000,1.000
27.208,-10.319,-16.688,-11.571,-5.287,-22.916,-20.704,-13.654,-0.057,0.872,-0.428,0.153,-0.549,0.336,80.000,169877.000,1.000
-46.517,-10.262,-18.546,-12.977,-7.463,-22.562,-19.031,-12.997,-0.056,0.874,-0.426,0.061,-0.763,0.305,80.000,169878.000,1.000
-117.936,-9.004,-18.561,-13.117,-7.914,-21.487,-15.292,-10.604,-0.054,0.875,-0.427,0.031,-0.824,0.244,80.000,169879.000,1.000
-163.779,-7.265,-17.062,-12.303,-7.401,-20.983,-11.429,-8.132,-0.056,0.875,-0.429,0.061,-1.007,0.183,80.000,169880.000,1.000
-181.349,-5.688,-14.919,-10.880,-6.690,-21.282,-8.696,-6.382,-0.055,0.875,-0.428,-0.122,-1.099,0.122,80.000,169881.000,1.000
-198.104,-4.566,-12.751,-9.016,-6.067,-21.732,-6.909,-4.946,-0.055,0.874,-0.430,-0.153,-1.221,0.122,80.000,169882.000,1.000
-257.379,-4.231,-11.431,-7.222,-5.844,-22.162,-5.891,-3.808,-0.056,0.873,-0.429,-0.214,-1.343,0.275,80.000,169883.000,1.000
-385.043,-5.210,-11.620,-6.305,-6.602,-23.586,-6.147,-3.823,-0.054,0.872,-0.430,-0.183,-1.495,0.275,80.000,169884.000,1.000
-571.841,-7.712,-13.463,-6.634,-8.515,-27.169,-8.136,-5.312,-0.053,0.873,-0.429,-0.214,-1.587,0.366,80.000,169885.000,1.000
-784.465,-11.220,-16.389,-7.810,-11.048,-33.114,-11.713,-7.622,-0.053,0.870,-0.428,-0.153,-1.740,0.397,80.000,169886.000,1.000
-981.623,-14.730,-19.148,-9.161,-13.477,-40.507,-16.188,-10.162,-0.052,0.869,-0.427,-0.122,-1.770,0.427,80.000,169887.000,1.000
-1123.046,-17.243,-20.904,-10.257,-15.252,-47.627,-20.516,-12.746,-0.054,0.867,-0.428,-0.122,-1.801,0.488,80.000,169888.000,1.000
-1180.795,-18.285,-21.277,-10.938,-16.147,-52.873,-23.514,-15.137,-0.053,0.867,-0.429,-0.122,-1.831,0.488,80.000,169889.000,1.000
-1156.757,-18.231,-20.740,-11.375,-16.400,-55.867,-24.916,-17.099,-0.052,0.865,-0.430,-0.061,-1.953,0.580,80.000,169890.000,1.000
-1087.100,-17.807,-20.161,-11.753,-16.298,-57.207,-25.228,-18.261,-0.052,0.867,-0.431,0.000,-1.953,0.641,80.000,169891.000,1.000
-1019.690,-17.357,-19.709,-11.891,-15.705,-57.416,-24.576,-18.012,-0.051,0.868,-0.429,0.183,-1.831,0.793,80.000,169892.000,1.000
-990.017,-16.767,-19.369,-11.530,-14.313,-56.667,-22.927,-16.195,-0.052,0.867,-0.430,0.275,-1.801,0.793,80.000,169893.000,1.000
-1015.065,-15.775,-18.913,-10.572,-12.071,-55.153,-20.440,-13.362,-0.051,0.870,-0.428,0.183,-1.984,0.763,80.000,169894.000,1.000
