EEG 1,EEG 2,EEG 3,EEG 4,EEG 5,EEG 6,EEG 7,EEG 8,Accelerometer X,Accelerometer Y,Accelerometer Z,Gyroscope X,Gyroscope Y,Gyroscope Z,Battery Level,Counter,Validation Indicator
4.081,0.273,-2.812,-4.308,0.530,3.479,-3.146,0.123,-0.048,0.919,-0.335,-0.671,-1.038,0.366,80.000,160353.000,1.000
3.534,-0.079,-2.418,-5.193,1.740,6.568,2.031,3.154,-0.049,0.921,-0.332,-0.671,-1.129,0.397,80.000,160354.000,1.000
2.865,-0.621,-2.138,-5.389,2.909,8.269,6.750,6.979,-0.049,0.919,-0.335,-0.763,-1.068,0.488,80.000,160355.000,1.000
2.095,-1.113,-2.084,-5.072,3.558,8.498,9.667,10.187,-0.051,0.919,-0.337,-0.824,-1.068,0.488,80.000,160356.000,1.000
1.013,-1.731,-2.734,-5.237,2.588,6.957,8.508,10.002,-0.050,0.920,-0.335,-0.793,-1.190,0.519,80.000,160357.000,1.000
-0.631,-2.848,-4.458,-6.828,-0.797,3.093,1.952,4.536,-0.048,0.919,-0.334,-0.763,-1.251,0.580,80.000,160358.000,1.000
-2.742,-4.392,-7.018,-9.614,-5.817,-2.856,-8.333,-4.708,-0.051,0.917,-0.336,-0.732,-1.221,0.519,80.000,160359.000,1.000
-4.723,-5.540,-9.141,-11.959,-10.016,-8.814,-17.592,-13.111,-0.050,0.918,-0.334,-0.641,-1.282,0.549,80.000,160360.000,1.000
-5.806,-5.286,-9.403,-11.949,-10.790,-11.676,-20.896,-16.020,-0.050,0.917,-0.332,-0.671,-1.404,0.580,80.000,160361.000,1.000
-5.654,-3.486,-7.411,-9.000,-7.490,-9.954,-16.837,-12.141,-0.052,0.919,-0.332,-0.671,-1.373,0.702,80.000,160362.000,1.000
-4.688,-1.207,-4.185,-4.472,-2.145,-5.376,-8.525,-4.505,-0.052,0.919,-0.337,-0.671,-1.343,0.610,80.000,160363.000,1.000
-3.783,0.087,-1.525,-0.580,2.132,-1.299,-1.020,1.993,-0.052,0.919,-0.333,-0.641,-1.434,0.702,80.000,160364.000,1.000
-3.734,-0.458,-0.750,1.129,3.294,-0.019,2.148,4.060,-0.051,0.919,-0.333,-0.702,-1.404,0.641,80.000,160365.000,1.000
-4.934,-2.782,-2.389,0.339,1.204,-1.677,0.418,1.495,-0.051,0.920,-0.335,-0.610,-1.465,0.641,80.000,160366.000,1.000
-7.069,-5.948,-5.857,-2.028,-2.590,-4.554,-3.969,-3.323,-0.052,0.918,-0.335,-0.702,-1.465,0.671,80.000,160367.000,1.000
-9.007,-8.527,-9.479,-4.313,-5.793,-6.210,-7.513,-7.070,-0.050,0.921,-0.335,-0.702,-1.465,0.641,80.000,160368.000,1.000
-9.391,-9.530,-11.683,-5.258,-6.883,-5.453,-8.051,-7.610,-0.052,0.920,-0.334,-0.641,-1.556,0.610,80.000,160369.000,1.000
-7.495,-8.935,-11.792,-4.728,-5.941,-3.162,-5.859,-5.105,-0.050,0.919,-0.334,-0.610,-1.495,0.671,80.000,160370.000,1.000
-3.547,-7.259,-10.176,-3.388,-4.042,-0.960,-2.649,-1.294,-0.051,0.919,-0.331,-0.671,-1.617,0.580,80.000,160371.000,1.000
1.472,-5.092,-7.638,-1.935,-2.231,0.118,-0.026,2.147,-0.050,0.918,-0.332,-0.610,-1.587,0.641,80.000,160372.000,1.000
6.165,-3.064,-4.947,-0.787,-1.101,-0.283,1.233,4.513,-0.049,0.917,-0.335,-0.610,-1.587,0.610,80.000,160373.000,1.000
9.205,-1.726,-2.804,-0.219,-0.846,-1.982,1.127,5.728,-0.048,0.918,-0.336,-0.519,-1.617,0.641,80.000,160374.000,1.000
9.946,-1.243,-1.399,-0.412,-1.393,-4.303,0.160,5.765,-0.050,0.915,-0.335,-0.519,-1.648,0.549,80.000,160375.000,1.000
8.807,-1.281,-0.495,-1.277,-2.354,-6.173,-0.956,4.726,-0.050,0.913,-0.335,-0.427,-1.678,0.671,80.000,160376.000,1.000
7.032,-1.225,0.411,-2.298,-2.990,-6.354,-1.235,3.241,-0.050,0.916,-0.333,-0.275,-1.709,0.610,80.000,160377.000,1.000
5.888,-0.648,1.767,-2.804,-2.692,-4.335,0.050,2.129,-0.051,0.918,-0.333,-0.427,-1.556,0.641,80.000,160378.000,1.000
5.899,0.360,3.410,-2.488,-1.558,-1.212,2.299,1.714,-0.050,0.917,-0.332,-0.427,-1.556,0.549,80.000,160379.000,1.000
6.690,1.319,4.850,-1.555,-0.350,0.854,3.729,1.700,-0.051,0.917,-0.336,-0.458,-1.617,0.549,80.000,160380.000,1.000
7.425,1.821,5.562,-0.448,0.245,0.408,2.871,1.627,-0.051,0.915,-0.335,-0.366,-1.617,0.488,80.000,160381.000,1.000
7.516,1.962,5.516,0.697,0.438,-1.837,0.404,1.714,-0.051,0.919,-0.332,-0.427,-1.587,0.519,80.000,160382.000,1.000
6.964,2.272,5.239,2.171,1.223,-3.380,-1.013,2.940,-0.050,0.918,-0.335,-0.336,-1.556,0.519,80.000,160383.000,1.000
6.128,3.156,5.073,4.140,3.274,-2.054,0.654,5.858,-0.050,0.918,-0.334,-0.366,-1.556,0.549,80.000,160384.000,1.000
5.363,4.491,5.091,6.275,6.155,2.132,4.969,9.736,-0.052,0.919,-0.334,-0.244,-1.678,0.519,80.000,160385.000,1.000
4.867,5.759,5.113,7.967,8.712,7.022,9.629,13.123,-0.050,0.920,-0.334,-0.275,-1.526,0.519,80.000,160386.000,1.000
4.676,6.493,4.989,8.758,10.019,10.021,12.484,14.965,-0.049,0.920,-0.335,-0.305,-1.587,0.488,80.000,160387.000,1.000
4.580,6.525,4.637,8.394,9.784,9.937,12.591,14.756,-0.050,0.919,-0.337,-0.397,-1.740,0.488,80.000,160388.000,1.000
4.150,5.902,3.789,6.717,8.183,7.423,9.984,12.214,-0.051,0.919,-0.334,-0.458,-1.678,0.427,80.000,160389.000,1.000
3.089,4.789,2.460,3.948,5.770,4.055,5.687,7.771,-0.052,0.920,-0.335,-0.366,-1.678,0.397,80.000,160390.000,1.000
1.529,3.423,0.967,0.825,3.396,1.200,1.365,2.927,-0.051,0.918,-0.335,-0.458,-1.648,0.366,80.000,160391.000,1.000
-0.100,2.064,-0.283,-1.770,1.859,-0.414,-1.371,-0.421,-0.049,0.920,-0.335,-0.519,-1.709,0.458,80.000,160392.000,1.000
-1.415,0.941,-0.975,-3.301,1.554,-0.534,-1.530,-1.036,-0.050,0.920,-0.338,-0.519,-1.648,0.519,80.000,160393.000,1.000
-2.270,0.140,-1.167,-3.774,2.267,0.502,0.646,0.889,-0.050,0.919,-0.338,-0.519,-1.556,0.488,80.000,160394.000,1.000
-2.704,-0.511,-1.038,-3.574,3.223,1.604,3.705,3.745,-0.049,0.921,-0.337,-0.458,-1.587,0.519,80.000,160395.000,1.000
-2.755,-1.211,-0.889,-3.205,3.639,1.808,5.970,5.492,-0.048,0.920,-0.337,-0.519,-1.526,0.519,80.000,160396.000,1.000
-2.329,-1.796,-0.823,-2.993,3.384,1.371,6.850,5.107,-0.051,0.920,-0.338,-0.519,-1.556,0.549,80.000,160397.000,1.000
-1.382,-1.884,-0.580,-2.975,2.861,1.210,6.807,3.076,-0.050,0.921,-0.336,-0.671,-1.495,0.549,80.000,160398.000,1.000
-0.154,-1.436,-0.112,-3.062,2.310,1.373,6.073,0.577,-0.050,0.922,-0.335,-0.641,-1.526,0.641,80.000,160399.000,1.000
0.949,-0.888,0.378,-3.134,1.587,0.848,4.430,-1.386,-0.049,0.919,-0.334,-0.763,-1.404,0.641,80.000,160400.000,1.000
1.614,-0.695,0.484,-3.054,0.554,-1.185,1.992,-2.260,-0.050,0.918,-0.337,-0.641,-1.404,0.641,80.000,160401.000,1.000
1.789,-0.901,0.039,-2.640,-0.607,-4.415,-0.574,-1.940,-0.051,0.920,-0.335,-0.671,-1.312,0.580,80.000,160402.000,1.000
1.698,-1.154,-0.645,-1.788,-1.473,-7.412,-2.548,-0.818,-0.051,0.917,-0.335,-0.671,-1.282,0.519,80.000,160403.000,1.000
1.721,-0.903,-1.071,-0.549,-1.459,-8.170,-3.132,0.550,-0.049,0.917,-0.338,-0.732,-1.282,0.580,80.000,160404.000,1.000
2.234,0.305,-0.541,1.022,-0.077,-5.415,-1.379,2.041,-0.052,0.918,-0.335,-0.702,-1.129,0.671,80.000,160405.000,1.000
3.405,2.448,1.270,2.852,2.530,0.038,2.559,3.875,-0.053,0.920,-0.334,-0.763,-1.190,0.610,80.000,160406.000,1.000
5.089,5.079,4.157,4.867,5.638,5.833,7.206,6.296,-0.052,0.918,-0.335,-0.702,-1.221,0.549,80.000,160407.000,1.000
6.863,7.716,7.621,6.984,8.515,10.100,11.112,9.352,-0.052,0.917,-0.336,-0.641,-1.221,0.671,80.000,160408.000,1.000
8.031,9.812,10.615,8.770,10.468,12.153,13.367,12.358,-0.052,0.920,-0.337,-0.580,-1.251,0.763,80.000,160409.000,1.000
7.862,10.656,11.987,9.433,10.763,11.810,13.527,14.035,-0.052,0.919,-0.337,-0.671,-1.251,0.580,80.000,160410.000,1.000
6.091,9.874,11.116,8.414,9.159,9.386,11.867,13.523,-0.053,0.919,-0.336,-0.610,-1.160,0.641,80.000,160411.000,1.000
3.212,7.874,8.432,5.885,6.241,5.933,9.393,10.938,-0.051,0.920,-0.335,-0.580,-1.282,0.671,80.000,160412.000,1.000
0.251,5.594,5.221,2.680,3.042,2.597,7.106,7.162,-0.051,0.919,-0.335,-0.671,-1.343,0.702,80.000,160413.000,1.000
-1.744,4.027,2.805,-0.086,0.616,0.120,5.502,3.515,-0.052,0.918,-0.333,-0.610,-1.221,0.671,80.000,160414.000,1.000
-2.149,3.907,2.225,-1.492,-0.298,-0.901,4.811,1.221,-0.049,0.919,-0.335,-0.610,-1.221,0.702,80.000,160415.000,1.000
-0.987,5.458,3.621,-1.290,0.434,0.058,4.971,0.727,-0.050,0.918,-0.338,-0.519,-1.190,0.641,80.000,160416.000,1.000
1.186,8.229,6.150,0.060,2.286,2.814,5.626,1.639,-0.048,0.918,-0.338,-0.549,-1.190,0.610,80.000,160417.000,1.000
3.553,11.220,8.554,1.684,4.318,6.130,6.326,2.996,-0.050,0.918,-0.339,-0.580,-1.160,0.610,80.000,160418.000,1.000
5.425,13.517,9.801,2.834,5.860,8.734,6.990,3.935,-0.050,0.917,-0.337,-0.671,-1.129,0.641,80.000,160419.000,1.000
6.459,14.816,9.906,3.352,6.941,10.456,8.324,4.356,-0.049,0.917,-0.336,-0.580,-1.038,0.641,80.000,160420.000,1.000
6.362,15.031,9.268,3.274,7.621,11.572,10.546,4.327,-0.047,0.917,-0.339,-0.427,-1.099,0.702,80.000,160421.000,1.000
4.653,13.784,7.827,2.339,7.262,11.539,12.152,3.316,-0.048,0.917,-0.337,-0.519,-1.068,0.732,80.000,160422.000,1.000
1.119,10.799,5.282,0.316,5.061,9.319,10.927,0.674,-0.051,0.916,-0.338,-0.488,-0.946,0.824,80.000,160423.000,1.000
-3.642,6.594,1.609,-2.479,1.116,4.784,6.012,-3.388,-0.050,0.916,-0.338,-0.366,-0.916,0.854,80.000,160424.000,1.000
-8.430,2.359,-2.410,-5.236,-3.395,-0.777,-1.094,-7.623,-0.048,0.916,-0.336,-0.366,-0.916,0.702,80.000,160425.000,1.000
-12.228,-0.870,-5.770,-7.206,-7.007,-5.463,-7.575,-10.519,-0.050,0.917,-0.341,-0.244,-0.854,0.732,80.000,160426.000,1.000
-14.615,-2.707,-7.731,-7.934,-8.642,-7.704,-10.726,-10.922,-0.051,0.917,-0.338,-0.183,-0.824,0.793,80.000,160427.000,1.000
-15.616,-3.330,-7.960,-7.224,-7.861,-6.923,-9.047,-8.303,-0.051,0.918,-0.334,-0.183,-0.702,0.763,80.000,160428.000,1.000
-15.538,-3.291,-6.931,-5.345,-5.173,-4.106,-3.361,-3.262,-0.051,0.919,-0.333,-0.214,-0.702,0.885,80.000,160429.000,1.000
-14.933,-3.336,-5.582,-3.116,-2.117,-1.554,3.233,2.245,-0.050,0.919,-0.335,-0.092,-0.641,0.916,80.000,160430.000,1.000
-14.405,-3.995,-4.922,-1.586,-0.497,-1.303,7.080,5.750,-0.050,0.919,-0.336,-0.214,-0.641,0.885,80.000,160431.000,1.000
-14.299,-5.280,-5.380,-1.479,-1.256,-3.701,6.394,5.874,-0.051,0.919,-0.339,-0.061,-0.641,0.885,80.000,160432.000,1.000
-14.541,-6.787,-6.542,-2.868,-3.982,-7.452,2.257,3.183,-0.050,0.921,-0.340,-0.092,-0.641,0.946,80.000,160433.000,1.000
-14.744,-7.990,-7.741,-5.192,-7.219,-10.517,-2.409,-0.337,-0.050,0.921,-0.339,-0.244,-0.732,0.854,80.000,160434.000,1.000
-14.458,-8.440,-8.256,-7.452,-9.240,-11.014,-4.511,-2.486,-0.053,0.920,-0.338,-0.214,-0.641,0.885,80.000,160435.000,1.000
-13.464,-7.984,-7.821,-8.711,-9.017,-8.259,-2.784,-2.204,-0.052,0.920,-0.337,-0.153,-0.580,0.854,80.000,160436.000,1.000
-11.888,-6.875,-6.674,-8.528,-6.799,-3.466,1.426,-0.103,-0.051,0.920,-0.338,-0.244,-0.580,0.916,80.000,160437.000,1.000
-10.134,-5.586,-5.239,-7.094,-3.752,0.969,5.468,2.302,-0.052,0.921,-0.337,-0.244,-0.549,0.885,80.000,160438.000,1.000
-8.669,-4.455,-4.127,-5.095,-1.052,3.294,7.429,3.806,-0.049,0.921,-0.336,-0.305,-0.519,0.885,80.000,160439.000,1.000
-7.782,-3.526,-3.626,-3.299,0.677,3.554,7.229,4.048,-0.052,0.921,-0.339,-0.397,-0.519,0.854,80.000,160440.000,1.000
-7.581,-2.826,-3.813,-2.301,1.204,2.826,5.598,2.991,-0.052,0.920,-0.338,-0.366,-0.580,0.977,80.000,160441.000,1.000
-7.978,-2.520,-4.591,-2.304,0.489,1.811,2.990,0.670,-0.049,0.919,-0.337,-0.397,-0.549,1.068,80.000,160442.000,1.000
-8.518,-2.504,-5.374,-2.871,-0.984,0.917,0.110,-2.239,-0.049,0.920,-0.340,-0.458,-0.519,0.946,80.000,160443.000,1.000
-8.540,-2.144,-5.329,-3.092,-2.115,1.030,-1.740,-4.314,-0.050,0.920,-0.338,-0.549,-0.549,0.916,80.000,160444.000,1.000
-7.624,-0.724,-3.647,-2.129,-1.849,3.040,-1.387,-4.071,-0.051,0.919,-0.339,-0.488,-0.610,1.007,80.000,160445.000,1.000
-5.836,1.869,-0.344,0.163,0.028,6.662,1.191,-0.927,-0.052,0.919,-0.334,-0.549,-0.549,1.129,80.000,160446.000,1.000
-3.684,4.886,3.527,2.990,2.585,10.290,4.745,3.999,-0.051,0.918,-0.336,-0.610,-0.610,1.129,80.000,160447.000,1.000
-1.936,7.112,6.504,5.002,4.217,12.255,7.566,8.012,-0.050,0.917,-0.334,-0.641,-0.610,1.129,80.000,160448.000,1.000
-1.191,7.701,7.468,5.280,3.848,12.231,8.720,8.698,-0.049,0.917,-0.335,-0.580,-0.610,1.129,80.000,160449.000,1.000
-1.524,6.666,6.530,4.103,1.731,11.202,8.682,5.942,-0.051,0.916,-0.337,-0.519,-0.641,1.099,80.000,160450.000,1.000
-2.704,4.488,4.434,2.397,-1.167,9.996,8.038,1.478,-0.049,0.916,-0.335,-0.610,-0.641,1.099,80.000,160451.000,1.000
-4.514,1.581,1.769,0.756,-4.231,8.281,6.422,-3.028,-0.049,0.916,-0.335,-0.610,-0.641,1.129,80.000,160452.000,1.000
-6.767,-1.792,-1.140,-0.826,-7.452,5.006,3.022,-6.974,-0.050,0.916,-0.337,-0.549,-0.702,1.068,80.000,160453.000,1.000
-9.241,-5.417,-4.298,-2.681,-11.035,-0.551,-2.631,-10.598,-0.049,0.913,-0.335,-0.488,-0.671,1.038,80.000,160454.000,1.000
-11.516,-8.892,-7.370,-4.934,-14.762,-7.815,-9.728,-14.119,-0.047,0.915,-0.335,-0.488,-0.702,1.068,80.000,160455.000,1.000
-12.858,-11.304,-9.543,-7.111,-17.546,-14.538,-15.889,-17.010,-0.047,0.914,-0.337,-0.305,-0.641,1.068,80.000,160456.000,1.000
-12.606,-11.544,-9.904,-8.246,-17.896,-17.947,-18.415,-18.022,-0.048,0.913,-0.337,-0.305,-0.671,1.099,80.000,160457.000,1.000
-10.927,-9.430,-8.276,-7.713,-15.283,-16.851,-16.463,-16.305,-0.047,0.913,-0.337,-0.336,-0.610,1.007,80.000,160458.000,1.000
-8.961,-6.262,-5.878,-5.962,-10.908,-12.611,-11.978,-12.556,-0.047,0.916,-0.340,-0.305,-0.549,0.946,80.000,160459.000,1.000
-7.936,-3.933,-4.225,-4.099,-6.857,-8.036,-8.038,-8.609,-0.046,0.916,-0.339,-0.244,-0.549,1.038,80.000,160460.000,1.000
-8.319,-3.585,-4.204,-3.019,-4.575,-5.282,-6.566,-5.988,-0.047,0.918,-0.337,-0.244,-0.580,0.977,80.000,160461.000,1.000
-9.734,-5.078,-5.714,-2.909,-4.096,-4.556,-7.277,-4.917,-0.046,0.919,-0.335,-0.305,-0.519,0.946,80.000,160462.000,1.000
-11.462,-7.503,-7.906,-3.435,-4.598,-4.854,-8.726,-4.743,-0.047,0.918,-0.333,-0.427,-0.610,0.946,80.000,160463.000,1.000
-13.023,-10.137,-10.152,-4.328,-5.500,-5.630,-10.096,-5.065,-0.047,0.919,-0.336,-0.427,-0.610,0.854,80.000,160464.000,1.000
-14.330,-12.848,-12.163,-5.558,-6.812,-7.213,-11.327,-5.968,-0.049,0.919,-0.339,-0.458,-0.549,0.763,80.000,160465.000,1.000
-15.462,-15.735,-14.005,-7.051,-8.642,-9.920,-12.557,-7.589,-0.048,0.920,-0.337,-0.488,-0.519,0.610,80.000,160466.000,1.000
-16.443,-18.602,-15.786,-8.420,-10.655,-13.227,-13.752,-9.668,-0.049,0.922,-0.340,-0.610,-0.580,0.732,80.000,160467.000,1.000
-17.127,-20.807,-17.234,-9.042,-12.062,-15.765,-14.543,-11.414,-0.047,0.922,-0.341,-0.671,-0.671,0.763,80.000,160468.000,1.000
-17.233,-21.607,-17.980,-8.503,-12.148,-16.288,-14.526,-11.948,-0.046,0.924,-0.339,-0.824,-0.610,0.763,80.000,160469.000,1.000
-16.643,-20.832,-17.779,-6.980,-10.955,-15.005,-13.610,-10.987,-0.046,0.922,-0.334,-0.916,-0.488,0.824,80.000,160470.000,1.000
-15.733,-19.183,-17.104,-5.324,-9.422,-13.694,-12.414,-9.223,-0.045,0.919,-0.332,-1.007,-0.427,0.854,80.000,160471.000,1.000
-15.157,-17.657,-16.799,-4.525,-8.641,-13.981,-11.804,-7.762,-0.048,0.917,-0.334,-1.099,-0.366,0.946,80.000,160472.000,1.000
-15.238,-16.728,-17.122,-4.974,-8.956,-15.768,-11.892,-7.212,-0.048,0.915,-0.336,-1.007,-0.336,1.068,80.000,160473.000,1.000
-15.687,-16.186,-17.767,-6.302,-9.810,-17.592,-11.961,-7.430,-0.049,0.913,-0.336,-1.038,-0.458,1.099,80.000,160474.000,1.000
-15.851,-15.532,-18.018,-7.692,-10.331,-17.938,-11.222,-7.900,-0.049,0.913,-0.340,-0.977,-0.397,1.129,80.000,160475.000,1.000
-15.182,-14.451,-17.416,-8.463,-9.994,-16.093,-9.650,-8.369,-0.050,0.914,-0.339,-0.854,-0.519,1.129,80.000,160476.000,1.000
-13.505,-13.031,-15.927,-8.404,-8.822,-12.436,-7.764,-8.999,-0.049,0.917,-0.340,-0.916,-0.610,1.099,80.000,160477.000,1.000
-11.021,-11.635,-13.656,-7.675,-7.201,-8.347,-6.144,-9.892,-0.048,0.921,-0.338,-0.793,-0.641,1.099,80.000,160478.000,1.000
-8.122,-10.453,-10.858,-6.495,-5.505,-5.400,-5.324,-10.629,-0.048,0.923,-0.341,-0.763,-0.793,1.190,80.000,160479.000,1.000
-5.148,-9.131,-7.408,-4.859,-3.678,-4.038,-5.012,-10.217,-0.047,0.924,-0.339,-0.763,-0.793,1.312,80.000,160480.000,1.000
-2.287,-7.017,-3.105,-2.701,-1.294,-3.341,-4.018,-7.782,-0.046,0.923,-0.340,-0.854,-0.732,1.343,80.000,160481.000,1.000
0.446,-3.857,1.838,-0.228,1.813,-2.291,-1.421,-3.520,-0.046,0.920,-0.342,-0.854,-0.732,1.251,80.000,160482.000,1.000
3.115,-0.218,6.723,1.988,5.020,-0.949,2.128,0.891,-0.046,0.919,-0.343,-0.854,-0.671,1.343,80.000,160483.000,1.000
5.637,2.864,10.450,3.314,7.269,-0.244,4.457,3.189,-0.046,0.918,-0.339,-0.885,-0.671,1.282,80.000,160484.000,1.000
7.773,4.702,12.432,3.650,8.056,-0.696,3.957,2.420,-0.048,0.917,-0.338,-0.793,-0.824,1.221,80.000,160485.000,1.000
9.262,5.326,12.732,3.450,7.824,-1.701,0.962,-0.328,-0.054,0.918,-0.338,-0.824,-0.885,1.129,80.000,160486.000,1.000
9.950,5.252,11.960,3.293,7.493,-1.933,-2.609,-2.815,-0.055,0.921,-0.338,-0.885,-0.885,0.946,80.000,160487.000,1.000
9.867,5.085,11.151,3.616,7.867,-0.150,-4.396,-3.035,-0.054,0.922,-0.338,-0.885,-0.885,0.793,80.000,160488.000,1.000
9.192,5.132,10.910,4.601,9.141,3.759,-3.229,-0.273,-0.053,0.923,-0.338,-1.007,-1.038,0.549,80.000,160489.000,1.000
8.169,5.169,11.195,6.174,10.670,8.093,-0.033,4.621,-0.053,0.927,-0.337,-1.038,-1.129,0.427,80.000,160490.000,1.000
7.048,4.674,11.292,7.987,11.361,10.552,2.896,9.672,-0.052,0.927,-0.341,-1.129,-1.160,0.366,80.000,160491.000,1.000
6.059,3.367,10.503,9.604,10.547,10.429,4.007,12.947,-0.050,0.926,-0.340,-1.251,-1.221,0.275,80.000,160492.000,1.000
5.349,1.365,8.795,10.698,8.329,8.764,3.359,13.550,-0.050,0.925,-0.339,-1.282,-1.343,0.061,80.000,160493.000,1.000
4.862,-1.133,6.345,10.974,5.114,6.541,1.363,11.481,-0.050,0.924,-0.339,-1.343,-1.495,0.061,80.000,160494.000,1.000
4.419,-3.927,3.507,10.243,1.317,3.986,-1.614,7.246,-0.048,0.922,-0.340,-1.495,-1.373,0.031,80.000,160495.000,1.000
3.872,-6.574,0.580,8.648,-2.445,1.387,-4.728,1.824,-0.047,0.920,-0.335,-1.556,-1.343,-0.031,80.000,160496.000,1.000
3.170,-8.423,-2.236,6.713,-5.407,-0.630,-6.848,-3.338,-0.049,0.919,-0.337,-1.556,-1.343,-0.122,80.000,160497.000,1.000
2.392,-8.975,-4.729,5.065,-7.055,-1.690,-7.464,-6.807,-0.047,0.918,-0.335,-1.556,-1.282,-0.031,80.000,160498.000,1.000
1.760,-8.092,-6.809,4.108,-7.209,-1.667,-6.796,-7.716,-0.048,0.915,-0.333,-1.495,-1.312,0.000,80.000,160499.000,1.000
1.547,-5.977,-8.112,3.954,-5.879,-0.195,-4.855,-6.004,-0.049,0.917,-0.336,-1.404,-1.221,0.031,80.000,160500.000,1.000
1.838,-3.294,-8.499,4.213,-3.588,2.779,-1.948,-2.963,-0.049,0.917,-0.334,-1.343,-1.160,0.153,80.000,160501.000,1.000
2.514,-1.043,-8.292,4.109,-1.557,5.948,0.487,-0.972,-0.050,0.918,-0.334,-1.190,-1.251,0.275,80.000,160502.000,1.000
3.500,0.169,-7.644,3.234,-0.774,7.357,1.139,-1.563,-0.052,0.916,-0.335,-1.160,-1.282,0.244,80.000,160503.000,1.000
4.872,0.703,-6.424,2.016,-0.917,6.430,0.467,-3.923,-0.052,0.918,-0.333,-1.251,-1.251,0.275,80.000,160504.000,1.000
6.747,1.542,-4.210,1.389,-0.669,4.392,0.222,-5.703,-0.052,0.917,-0.328,-1.190,-1.373,0.275,80.000,160505.000,1.000
9.033,3.393,-0.973,1.982,0.966,2.851,1.416,-5.145,-0.053,0.915,-0.332,-1.221,-1.526,0.214,80.000,160506.000,1.000
11.325,6.235,2.738,3.733,3.968,2.959,3.918,-2.196,-0.054,0.914,-0.332,-1.251,-1.587,0.214,80.000,160507.000,1.000
12.994,9.429,6.201,6.024,7.526,5.377,7.384,1.748,-0.052,0.912,-0.333,-1.190,-1.678,0.275,80.000,160508.000,1.000
13.411,11.904,8.517,7.867,10.333,9.391,10.872,4.481,-0.052,0.912,-0.334,-1.190,-1.648,0.366,80.000,160509.000,1.000
12.230,12.474,9.104,8.317,10.909,12.238,12.280,3.970,-0.049,0.912,-0.335,-1.129,-1.587,0.458,80.000,160510.000,1.000
9.585,10.574,7.833,7.023,8.496,10.857,9.462,-0.341,-0.050,0.909,-0.336,-1.038,-1.648,0.519,80.000,160511.000,1.000
6.102,6.833,5.236,4.622,3.917,4.614,2.481,-6.679,-0.048,0.907,-0.336,-0.854,-1.648,0.458,80.000,160512.000,1.000
2.701,2.842,2.507,2.485,-0.681,-3.940,-5.620,-11.707,-0.047,0.907,-0.335,-0.732,-1.617,0.488,80.000,160513.000,1.000
0.290,0.304,0.739,1.884,-3.097,-10.560,-10.580,-12.656,-0.048,0.911,-0.336,-0.549,-1.526,0.519,80.000,160514.000,1.000
-0.535,0.127,0.684,3.237,-2.360,-11.958,-9.606,-8.989,-0.049,0.911,-0.334,-0.427,-1.434,0.641,80.000,160515.000,1.000
0.191,1.897,2.185,5.766,0.699,-7.983,-3.473,-2.677,-0.046,0.914,-0.336,-0.336,-1.465,0.702,80.000,160516.000,1.000
1.831,4.218,4.265,8.008,4.085,-1.514,4.149,3.095,-0.045,0.915,-0.334,-0.305,-1.373,0.763,80.000,160517.000,1.000
3.558,5.698,5.898,8.827,6.040,3.814,9.647,5.954,-0.048,0.917,-0.334,-0.214,-1.312,0.793,80.000,160518.000,1.000
4.745,5.718,6.293,7.944,5.993,5.933,11.479,5.440,-0.047,0.917,-0.333,-0.275,-1.282,0.885,80.000,160519.000,1.000
5.141,4.560,5.485,5.870,4.530,5.125,10.390,2.803,-0.048,0.918,-0.335,-0.183,-1.312,0.946,80.000,160520.000,1.000
4.821,3.027,4.136,3.475,2.793,3.152,8.226,0.043,-0.045,0.917,-0.336,-0.183,-1.221,1.038,80.000,160521.000,1.000
4.011,1.833,2.983,1.481,1.676,1.527,6.487,-1.288,-0.047,0.916,-0.335,-0.153,-1.068,1.099,80.000,160522.000,1.000
2.925,1.097,2.349,0.015,1.152,0.303,5.281,-1.209,-0.045,0.918,-0.333,-0.214,-1.068,1.160,80.000,160523.000,1.000
1.717,0.487,1.781,-1.351,0.462,-1.452,3.501,-1.244,-0.045,0.918,-0.335,-0.244,-0.946,1.099,80.000,160524.000,1.000
0.644,-0.087,1.024,-2.818,-0.845,-4.071,0.697,-2.756,-0.044,0.918,-0.339,-0.183,-0.854,1.099,80.000,160525.000,1.000
0.141,-0.144,0.380,-3.898,-2.221,-6.531,-1.916,-5.469,-0.045,0.918,-0.339,-0.122,-0.854,1.221,80.000,160526.000,1.000
0.615,0.971,0.459,-3.717,-2.501,-7.288,-2.387,-7.606,-0.046,0.920,-0.337,-0.244,-0.732,1.221,80.000,160527.000,1.000
2.065,3.413,1.694,-1.814,-1.027,-5.667,0.039,-7.717,-0.045,0.921,-0.339,-0.214,-0.732,1.099,80.000,160528.000,1.000
3.920,6.525,3.651,1.316,1.641,-2.399,3.798,-6.179,-0.047,0.922,-0.339,-0.366,-0.641,1.160,80.000,160529.000,1.000
5.431,9.230,5.633,4.677,4.293,0.980,6.497,-4.269,-0.046,0.923,-0.342,-0.397,-0.488,1.251,80.000,160530.000,1.000
6.134,10.582,7.011,7.376,5.920,2.851,6.701,-2.788,-0.046,0.924,-0.339,-0.427,-0.488,1.221,80.000,160531.000,1.000
5.918,10.040,7.311,8.754,5.930,2.114,4.212,-2.238,-0.045,0.924,-0.335,-0.519,-0.488,1.160,80.000,160532.000,1.000
4.881,7.720,6.490,8.481,4.282,-0.840,-0.049,-3.116,-0.045,0.925,-0.335,-0.610,-0.427,1.221,80.000,160533.000,1.000
3.272,4.545,4.842,6.759,1.774,-3.822,-4.093,-5.216,-0.047,0.926,-0.336,-0.671,-0.397,1.190,80.000,160534.000,1.000
1.519,1.748,3.062,4.263,-0.428,-4.713,-5.848,-7.405,-0.046,0.925,-0.335,-0.824,-0.427,1.129,80.000,160535.000,1.000
0.084,-0.040,1.500,1.571,-1.825,-3.879,-5.165,-8.838,-0.047,0.927,-0.333,-0.916,-0.275,1.129,80.000,160536.000,1.000
-0.700,-1.026,0.046,-1.042,-2.789,-3.731,-3.771,-9.580,-0.047,0.927,-0.335,-0.977,-0.305,1.160,80.000,160537.000,1.000
-0.647,-1.586,-1.221,-3.207,-3.642,-5.796,-2.903,-9.668,-0.047,0.927,-0.334,-1.099,-0.275,1.007,80.000,160538.000,1.000
0.270,-1.706,-2.097,-4.394,-4.057,-8.980,-2.038,-8.528,-0.050,0.926,-0.334,-1.160,-0.183,0.946,80.000,160539.000,1.000
1.790,-1.240,-2.364,-4.419,-3.690,-10.844,-0.097,-5.962,-0.047,0.923,-0.334,-1.343,-0.183,0.946,80.000,160540.000,1.000
3.337,-0.417,-2.382,-3.885,-2.976,-9.928,2.462,-3.247,-0.046,0.919,-0.332,-1.617,-0.244,0.916,80.000,160541.000,1.000
4.426,0.354,-2.714,-3.632,-2.704,-6.571,3.988,-2.087,-0.045,0.915,-0.331,-1.678,-0.244,0.916,80.000,160542.000,1.000
4.938,0.805,-3.347,-4.051,-3.252,-2.574,3.318,-2.922,-0.045,0.915,-0.337,-1.587,-0.214,0.885,80.000,160543.000,1.000
4.874,0.632,-4.247,-5.270,-4.713,-0.471,0.141,-5.128,-0.044,0.912,-0.339,-1.373,-0.305,0.763,80.000,160544.000,1.000
4.176,-0.548,-5.446,-7.314,-7.078,-1.787,-4.674,-7.930,-0.044,0.914,-0.340,-1.373,-0.275,0.732,80.000,160545.000,1.000
2.840,-2.736,-6.933,-9.875,-9.893,-5.637,-9.084,-10.551,-0.044,0.916,-0.340,-1.251,-0.092,0.732,80.000,160546.000,1.000
1.129,-5.265,-8.285,-12.145,-12.188,-9.667,-11.131,-12.058,-0.046,0.917,-0.338,-1.068,-0.183,0.854,80.000,160547.000,1.000
-0.395,-7.172,-8.626,-13.154,-13.031,-12.118,-10.306,-11.692,-0.047,0.916,-0.337,-0.977,-0.183,0.793,80.000,160548.000,1.000
-1.161,-7.712,-7.424,-12.291,-11.983,-12.423,-7.399,-9.298,-0.046,0.914,-0.336,-0.916,-0.153,0.854,80.000,160549.000,1.000
-0.885,-6.390,-4.455,-9.361,-8.955,-10.252,-2.971,-5.180,-0.046,0.909,-0.336,-0.885,-0.214,0.946,80.000,160550.000,1.000
0.248,-3.005,-0.083,-4.712,-4.206,-5.323,2.724,-0.008,-0.046,0.909,-0.338,-0.854,-0.214,0.916,80.000,160551.000,1.000
1.576,1.823,4.590,0.505,1.172,1.287,8.444,4.955,-0.047,0.909,-0.337,-0.641,-0.244,0.824,80.000,160552.000,1.000
2.244,6.478,8.280,4.644,5.320,6.633,11.756,8.100,-0.050,0.914,-0.337,-0.427,-0.214,0.916,80.000,160553.000,1.000
1.794,9.281,10.087,6.522,6.802,7.869,10.711,8.460,-0.055,0.916,-0.336,-0.305,-0.427,0.885,80.000,160554.000,1.000
0.558,9.664,10.306,6.195,5.712,4.624,5.866,6.527,-0.055,0.917,-0.339,-0.275,-0.519,0.641,80.000,160555.000,1.000
-0.657,8.299,9.840,4.642,3.442,-0.872,-0.030,3.792,-0.058,0.919,-0.334,-0.244,-0.732,0.610,80.000,160556.000,1.000
-1.205,6.365,9.392,2.993,1.636,-5.556,-3.804,1.892,-0.058,0.920,-0.333,-0.214,-0.916,0.488,80.000,160557.000,1.000
-0.865,4.903,9.380,2.062,1.390,-7.183,-3.322,2.120,-0.057,0.920,-0.331,-0.305,-0.977,0.336,80.000,160558.000,1.000
0.171,4.406,9.619,1.989,2.745,-5.333,1.155,4.585,-0.054,0.921,-0.333,-0.366,-1.221,0.366,80.000,160559.000,1.000
1.336,4.526,9.565,2.109,4.442,-1.747,6.638,7.443,-0.053,0.920,-0.334,-0.397,-1.373,0.427,80.000,160560.000,1.000
1.902,4.370,8.487,1.409,4.728,0.962,9.274,7.942,-0.052,0.919,-0.338,-0.397,-1.434,0.427,80.000,160561.000,1.000
1.511,3.428,6.177,-0.416,2.956,1.532,7.650,5.103,-0.050,0.918,-0.338,-0.458,-1.678,0.488,80.000,160562.000,1.000
0.435,1.984,3.345,-2.580,0.111,0.651,3.745,0.770,-0.050,0.916,-0.338,-0.519,-1.709,0.427,80.000,160563.000,1.000
-0.698,0.716,0.781,-3.951,-2.109,-0.164,0.746,-2.065,-0.049,0.917,-0.335,-0.427,-1.678,0.397,80.000,160564.000,1.000
-1.279,0.202,-0.828,-3.873,-2.435,0.355,0.914,-1.525,-0.048,0.918,-0.337,-0.458,-1.709,0.366,80.000,160565.000,1.000
-0.985,0.614,-1.241,-2.541,-0.679,2.644,4.501,2.058,-0.048,0.917,-0.339,-0.519,-1.678,0.519,80.000,160566.000,1.000
0.091,1.571,-0.797,-0.817,2.227,5.993,9.963,6.810,-0.045,0.918,-0.338,-0.458,-1.709,0.580,80.000,160567.000,1.000
1.353,2.172,-0.214,0.141,4.572,8.497,14.601,10.367,-0.048,0.920,-0.336,-0.519,-1.740,0.549,80.000,160568.000,1.000
1.893,1.450,-0.553,-0.664,4.698,8.003,15.473,10.701,-0.046,0.920,-0.337,-0.336,-1.862,0.702,80.000,160569.000,1.000
1.179,-0.748,-2.080,-3.213,2.355,4.040,11.791,7.571,-0.047,0.920,-0.336,-0.458,-1.892,0.763,80.000,160570.000,1.000
-0.491,-3.382,-3.986,-6.290,-0.820,-1.256,5.976,3.063,-0.048,0.921,-0.336,-0.458,-1.892,0.793,80.000,160571.000,1.000
-2.238,-4.846,-5.043,-8.381,-2.498,-4.398,1.697,-0.039,-0.049,0.923,-0.337,-0.580,-1.892,0.885,80.000,160572.000,1.000
-3.264,-4.060,-4.491,-8.689,-1.382,-2.953,1.081,-0.408,-0.049,0.921,-0.332,-0.732,-1.862,1.038,80.000,160573.000,1.000
-3.477,-1.227,-2.830,-7.423,2.078,2.635,3.564,1.391,-0.048,0.921,-0.337,-0.580,-1.862,0.916,80.000,160574.000,1.000
-3.407,2.386,-0.917,-5.185,6.389,9.387,7.224,4.351,-0.049,0.921,-0.337,-0.671,-1.953,0.854,80.000,160575.000,1.000
-3.507,5.358,0.730,-2.447,10.147,14.127,10.481,8.027,-0.047,0.922,-0.335,-0.641,-1.953,0.885,80.000,160576.000,1.000
-3.669,6.948,2.041,0.519,12.613,15.674,12.843,12.224,-0.046,0.920,-0.339,-0.671,-1.953,0.977,80.000,160577.000,1.000
-3.455,7.273,3.219,3.463,13.639,15.000,14.449,16.382,-0.047,0.918,-0.336,-0.702,-1.923,0.854,80.000,160578.000,1.000
-2.699,6.789,4.109,5.906,13.273,13.599,14.934,19.404,-0.046,0.919,-0.337,-0.671,-1.923,0.885,80.000,160579.000,1.000
-1.761,5.738,4.482,7.218,11.540,12.008,13.432,20.086,-0.046,0.917,-0.337,-0.702,-1.831,0.793,80.000,160580.000,1.000
-1.184,4.121,4.137,6.972,8.636,9.771,9.459,17.891,-0.045,0.917,-0.337,-0.793,-1.801,0.793,80.000,160581.000,1.000
-1.067,2.233,3.267,5.469,5.371,6.659,4.022,13.685,-0.046,0.916,-0.334,-0.641,-1.740,0.671,80.000,160582.000,1.000
-0.817,0.967,2.764,3.774,3.062,3.700,-0.437,9.381,-0.045,0.916,-0.336,-0.549,-1.617,0.641,80.000,160583.000,1.000
0.445,1.214,3.277,2.905,2.601,2.480,-2.014,6.548,-0.046,0.917,-0.334,-0.610,-1.648,0.580,80.000,160584.000,1.000
3.238,3.033,4.862,3.111,3.739,3.589,-0.636,5.747,-0.045,0.915,-0.339,-0.610,-1.740,0.488,80.000,160585.000,1.000
7.305,5.595,6.873,3.854,5.480,6.368,2.519,6.733,-0.047,0.914,-0.336,-0.458,-1.617,0.488,80.000,160586.000,1.000
11.661,7.847,8.463,4.368,6.958,9.805,6.266,8.708,-0.047,0.916,-0.335,-0.549,-1.587,0.458,80.000,160587.000,1.000
15.054,9.035,9.195,4.132,7.766,12.816,9.704,10.496,-0.047,0.915,-0.334,-0.427,-1.556,0.427,80.000,160588.000,1.000
16.545,8.857,8.831,2.954,7.754,14.054,11.805,11.016,-0.048,0.915,-0.334,-0.336,-1.556,0.336,80.000,160589.000,1.000
15.958,7.509,7.658,1.067,6.904,12.465,11.761,9.907,-0.045,0.914,-0.333,-0.305,-1.373,0.366,80.000,160590.000,1.000
13.800,5.585,6.171,-1.023,5.321,8.229,9.335,7.383,-0.046,0.915,-0.331,-0.244,-1.373,0.183,80.000,160591.000,1.000
10.888,3.790,4.744,-2.790,3.307,2.858,5.136,3.851,-0.046,0.915,-0.334,-0.275,-1.343,0.244,80.000,160592.000,1.000
8.109,2.623,3.741,-3.808,1.437,-1.695,0.734,0.052,-0.047,0.915,-0.333,-0.214,-1.343,0.214,80.000,160593.000,1.000
6.210,2.269,3.288,-3.835,0.426,-4.024,-2.066,-2.856,-0.048,0.916,-0.335,-0.214,-1.312,0.244,80.000,160594.000,1.000
5.546,2.708,3.635,-2.802,0.710,-3.811,-2.098,-3.754,-0.050,0.915,-0.331,-0.305,-1.343,0.244,80.000,160595.000,1.000
5.866,3.690,4.765,-0.996,1.966,-1.983,0.181,-2.485,-0.050,0.917,-0.332,-0.366,-1.251,0.275,80.000,160596.000,1.000
6.479,4.656,6.049,0.836,3.148,-0.202,2.613,-0.180,-0.050,0.918,-0.335,-0.336,-1.282,0.244,80.000,160597.000,1.000
6.883,5.066,6.766,1.889,3.281,0.409,3.000,1.548,-0.052,0.919,-0.335,-0.366,-1.282,0.244,80.000,160598.000,1.000
7.202,4.847,6.485,1.880,2.250,0.069,0.903,1.708,-0.051,0.918,-0.339,-0.336,-1.282,0.214,80.000,160599.000,1.000
7.919,4.292,5.495,1.218,0.660,-0.507,-2.314,0.453,-0.051,0.920,-0.334,-0.458,-1.251,0.214,80.000,160600.000,1.000
9.187,3.594,4.127,0.456,-0.898,-1.270,-5.176,-1.387,-0.053,0.921,-0.335,-0.519,-1.373,0.214,80.000,160601.000,1.000
10.580,2.756,2.482,-0.142,-2.159,-2.547,-6.905,-3.108,-0.053,0.920,-0.335,-0.580,-1.343,0.214,80.000,160602.000,1.000
11.427,1.718,0.779,-0.629,-3.133,-4.344,-7.357,-4.571,-0.051,0.920,-0.335,-0.549,-1.343,0.305,80.000,160603.000,1.000
11.360,0.480,-0.868,-1.196,-3.921,-6.173,-7.059,-5.945,-0.052,0.920,-0.336,-0.671,-1.434,0.305,80.000,160604.000,1.000
10.728,-0.666,-1.999,-1.728,-4.333,-7.047,-6.380,-6.873,-0.053,0.920,-0.335,-0.824,-1.526,0.366,80.000,160605.000,1.000
10.363,-1.249,-2.098,-1.809,-3.952,-6.136,-5.205,-6.486,-0.053,0.921,-0.334,-0.885,-1.617,0.397,80.000,160606.000,1.000
10.783,-1.161,-1.171,-1.184,-2.721,-3.801,-3.505,-4.277,-0.053,0.921,-0.335,-0.977,-1.709,0.458,80.000,160607.000,1.000
11.695,-0.922,0.221,-0.071,-1.263,-1.481,-1.754,-0.784,-0.054,0.920,-0.335,-1.007,-1.617,0.488,80.000,160608.000,1.000
12.249,-1.337,0.976,0.887,-0.573,-0.578,-0.959,2.418,-0.053,0.919,-0.336,-1.038,-1.740,0.549,80.000,160609.000,1.000
11.681,-2.904,0.327,1.032,-1.397,-1.628,-1.948,3.676,-0.052,0.921,-0.337,-1.068,-1.801,0.610,80.000,160610.000,1.000
9.800,-5.467,-1.840,0.048,-3.721,-4.128,-4.751,2.318,-0.050,0.921,-0.338,-1.099,-1.740,0.763,80.000,160611.000,1.000
7.183,-8.196,-4.811,-1.778,-6.678,-6.808,-8.384,-0.976,-0.048,0.919,-0.336,-1.129,-1.770,0.732,80.000,160612.000,1.000
4.885,-9.998,-7.178,-3.638,-9.054,-8.427,-11.303,-4.758,-0.050,0.918,-0.337,-1.190,-1.740,0.793,80.000,160613.000,1.000
3.734,-10.158,-7.955,-4.744,-9.984,-8.446,-12.342,-7.664,-0.050,0.919,-0.336,-1.129,-1.831,0.854,80.000,160614.000,1.000
3.879,-8.649,-6.839,-4.673,-9.199,-6.961,-10.894,-8.765,-0.048,0.921,-0.340,-1.221,-1.678,0.824,80.000,160615.000,1.000
4.779,-6.093,-4.424,-3.558,-7.008,-4.391,-7.176,-7.867,-0.047,0.919,-0.339,-1.160,-1.556,0.916,80.000,160616.000,1.000
5.514,-3.487,-1.924,-2.036,-4.256,-1.478,-2.497,-5.713,-0.047,0.917,-0.338,-1.068,-1.526,0.916,80.000,160617.000,1.000
5.254,-1.783,-0.412,-0.912,-2.129,0.547,1.059,-3.690,-0.048,0.919,-0.334,-1.099,-1.495,0.916,80.000,160618.000,1.000
3.780,-1.361,-0.526,-0.708,-1.489,0.547,1.765,-2.963,-0.046,0.919,-0.336,-1.160,-1.495,0.977,80.000,160619.000,1.000
1.733,-1.694,-1.733,-1.224,-2.127,-1.228,0.051,-3.464,-0.046,0.921,-0.335,-1.068,-1.495,0.885,80.000,160620.000,1.000
0.113,-1.815,-2.883,-1.819,-3.012,-3.251,-1.922,-4.174,-0.045,0.918,-0.338,-1.038,-1.434,0.916,80.000,160621.000,1.000
-0.530,-1.172,-3.182,-2.013,-3.295,-4.355,-2.617,-4.310,-0.045,0.921,-0.337,-0.885,-1.404,1.007,80.000,160622.000,1.000
-0.422,0.117,-2.389,-1.675,-2.759,-4.359,-2.019,-3.789,-0.045,0.919,-0.333,-0.916,-1.312,0.977,80.000,160623.000,1.000
-0.183,1.675,-0.958,-0.936,-1.529,-3.277,-0.710,-2.933,-0.046,0.916,-0.333,-0.824,-1.251,0.977,80.000,160624.000,1.000
-0.171,3.260,0.622,-0.027,0.133,-1.011,1.040,-2.129,-0.048,0.917,-0.334,-0.824,-1.190,0.977,80.000,160625.000,1.000
-0.246,4.782,1.959,0.836,1.854,2.181,3.005,-1.560,-0.045,0.917,-0.334,-0.793,-1.099,0.946,80.000,160626.000,1.000
0.020,6.248,2.945,1.696,3.463,5.754,5.157,-0.680,-0.045,0.917,-0.339,-0.763,-1.099,0.977,80.000,160627.000,1.000
0.959,7.677,3.942,2.858,5.163,9.438,8.092,1.625,-0.045,0.917,-0.339,-0.824,-0.946,0.977,80.000,160628.000,1.000
2.472,8.825,4.919,4.232,6.909,12.897,11.746,5.411,-0.046,0.918,-0.335,-0.793,-0.946,0.854,80.000,160629.000,1.000
4.048,9.083,5.420,5.041,7.844,14.918,14.224,8.750,-0.046,0.917,-0.339,-0.702,-0.763,0.854,80.000,160630.000,1.000
5.031,7.876,4.822,4.459,6.960,13.985,13.009,9.287,-0.046,0.915,-0.338,-0.671,-0.763,0.854,80.000,160631.000,1.000
4.993,5.299,2.971,2.488,4.282,10.018,7.723,6.549,-0.046,0.917,-0.338,-0.641,-0.702,0.885,80.000,160632.000,1.000
4.001,2.242,0.602,0.028,1.002,4.936,0.887,2.177,-0.045,0.916,-0.339,-0.580,-0.702,0.793,80.000,160633.000,1.000
2.506,-0.144,-1.353,-1.814,-1.408,1.273,-4.242,-1.492,-0.047,0.916,-0.337,-0.458,-0.702,0.793,80.000,160634.000,1.000
0.994,-1.084,-1.996,-2.249,-1.998,0.465,-5.669,-2.612,-0.046,0.917,-0.337,-0.580,-0.580,0.824,80.000,160635.000,1.000
-0.327,-0.477,-1.061,-1.164,-0.721,2.354,-3.361,-0.781,-0.047,0.917,-0.340,-0.397,-0.488,0.885,80.000,160636.000,1.000
-1.535,1.204,0.907,0.848,1.629,5.728,1.179,2.647,-0.049,0.917,-0.337,-0.427,-0.458,0.763,80.000,160637.000,1.000
-2.709,3.219,3.135,2.919,3.929,9.000,5.809,5.597,-0.050,0.918,-0.337,-0.458,-0.488,0.854,80.000,160638.000,1.000
-3.690,4.908,4.864,4.437,5.461,10.806,8.626,6.890,-0.050,0.919,-0.336,-0.427,-0.458,0.732,80.000,160639.000,1.000
-4.130,6.009,6.007,5.409,6.266,10.603,8.896,6.852,-0.050,0.919,-0.334,-0.397,-0.427,0.671,80.000,160640.000,1.000
-3.843,6.643,6.795,6.126,6.707,8.815,6.854,6.296,-0.048,0.920,-0.337,-0.336,-0.397,0.763,80.000,160641.000,1.000
-2.957,7.021,7.322,6.699,6.894,6.440,3.288,5.609,-0.049,0.919,-0.337,-0.397,-0.427,0.793,80.000,160642.000,1.000
-1.711,7.338,7.746,7.118,6.874,4.675,-0.196,5.163,-0.048,0.918,-0.335,-0.458,-0.488,0.824,80.000,160643.000,1.000
-0.333,7.822,8.125,7.438,7.022,4.582,-1.723,5.620,-0.048,0.918,-0.336,-0.397,-0.458,0.793,80.000,160644.000,1.000
0.830,8.551,8.548,7.624,7.624,6.386,-0.543,7.101,-0.049,0.919,-0.335,-0.458,-0.336,0.793,80.000,160645.000,1.000
1.224,9.123,8.620,7.206,8.212,9.163,2.102,8.397,-0.048,0.919,-0.337,-0.427,-0.580,0.763,80.000,160646.000,1.000
0.475,8.877,7.635,5.660,7.925,11.554,4.213,7.914,-0.048,0.920,-0.336,-0.366,-0.580,0.885,80.000,160647.000,1.000
-1.218,7.417,5.492,3.090,6.350,12.563,4.731,5.182,-0.051,0.920,-0.337,-0.427,-0.610,0.854,80.000,160648.000,1.000
-3.286,4.794,2.495,0.165,3.721,11.901,3.527,1.034,-0.052,0.920,-0.335,-0.519,-0.671,0.854,80.000,160649.000,1.000
-5.211,1.491,-0.678,-2.254,0.753,10.206,1.270,-2.940,-0.049,0.919,-0.339,-0.488,-0.641,0.916,80.000,160650.000,1.000
-6.704,-1.742,-3.369,-3.495,-1.559,8.699,-0.744,-5.056,-0.048,0.919,-0.335,-0.549,-0.671,0.977,80.000,160651.000,1.000
-7.638,-4.226,-5.145,-3.351,-2.418,8.111,-1.333,-4.250,-0.048,0.920,-0.334,-0.549,-0.702,0.946,80.000,160652.000,1.000
-7.962,-5.646,-5.790,-2.142,-1.742,8.096,-0.137,-0.654,-0.049,0.918,-0.337,-0.580,-0.763,0.977,80.000,160653.000,1.000
-7.790,-6.133,-5.741,-0.617,-0.176,7.852,2.274,4.282,-0.050,0.919,-0.337,-0.549,-0.854,1.007,80.000,160654.000,1.000
-7.427,-6.157,-5.575,0.430,1.362,7.008,5.029,8.566,-0.051,0.920,-0.339,-0.702,-0.916,0.916,80.000,160655.000,1.000
-7.233,-6.322,-5.786,0.475,2.095,5.664,7.080,10.590,-0.050,0.920,-0.339,-0.732,-0.885,0.946,80.000,160656.000,1.000
-7.380,-7.005,-6.540,-0.477,1.678,4.023,7.434,9.761,-0.049,0.919,-0.337,-0.793,-0.977,0.946,80.000,160657.000,1.000
-7.759,-8.032,-7.343,-1.796,0.455,2.509,5.921,6.771,-0.049,0.919,-0.335,-0.854,-0.977,1.007,80.000,160658.000,1.000
-8.198,-8.779,-7.652,-2.657,-0.699,1.823,3.227,3.197,-0.047,0.920,-0.335,-0.824,-1.099,0.916,80.000,160659.000,1.000
-8.687,-8.725,-7.056,-2.587,-1.083,2.302,0.318,0.591,-0.046,0.920,-0.335,-0.793,-1.068,0.916,80.000,160660.000,1.000
-9.347,-7.876,-5.735,-1.760,-0.691,3.479,-2.252,-0.375,-0.048,0.919,-0.337,-0.854,-1.160,0.824,80.000,160661.000,1.000
-10.067,-6.457,-4.207,-0.644,0.129,4.729,-4.112,0.151,-0.048,0.918,-0.338,-0.885,-1.251,0.854,80.000,160662.000,1.000
-10.383,-4.451,-2.563,0.496,1.249,6.067,-4.637,1.768,-0.046,0.918,-0.337,-0.916,-1.160,0.854,80.000,160663.000,1.000
-9.858,-1.825,-0.850,1.511,2.663,7.766,-3.531,3.974,-0.048,0.917,-0.339,-0.854,-1.221,0.824,80.000,160664.000,1.000
-8.368,1.044,0.973,2.331,4.219,9.529,-1.077,6.343,-0.049,0.916,-0.337,-0.946,-1.190,0.854,80.000,160665.000,1.000
-6.055,3.480,2.836,3.067,5.710,10.661,2.068,8.663,-0.050,0.917,-0.337,-1.007,-1.221,0.793,80.000,160666.000,1.000
-3.320,4.880,4.375,3.843,6.847,10.730,4.950,10.514,-0.050,0.917,-0.335,-0.824,-1.434,0.732,80.000,160667.000,1.000
-0.970,4.820,5.037,4.358,6.970,9.331,6.061,10.801,-0.046,0.918,-0.336,-0.885,-1.312,0.763,80.000,160668.000,1.000
-0.040,3.136,4.080,3.926,5.303,5.824,3.738,8.392,-0.047,0.915,-0.334,-0.885,-1.373,0.671,80.000,160669.000,1.000
-1.064,0.293,1.596,2.294,1.883,0.347,-1.948,3.545,-0.050,0.916,-0.335,-0.977,-1.373,0.732,80.000,160670.000,1.000
-3.488,-2.505,-1.436,0.047,-1.995,-5.275,-8.494,-1.842,-0.047,0.915,-0.336,-0.885,-1.373,0.671,80.000,160671.000,1.000
-5.919,-3.934,-3.849,-1.800,-4.518,-8.510,-12.579,-5.352,-0.050,0.916,-0.338,-0.854,-1.404,0.671,80.000,160672.000,1.000
-7.065,-3.502,-4.927,-2.568,-4.708,-8.083,-12.344,-5.576,-0.048,0.917,-0.337,-0.732,-1.465,0.793,80.000,160673.000,1.000
-6.539,-1.895,-5.125,-2.422,-3.115,-4.744,-8.423,-3.086,-0.048,0.918,-0.334,-0.732,-1.495,0.732,80.000,160674.000,1.000
-4.811,-0.374,-5.332,-2.036,-1.285,-0.566,-3.009,0.036,-0.049,0.918,-0.334,-0.763,-1.587,0.763,80.000,160675.000,1.000
-2.652,0.078,-6.174,-1.964,-0.640,2.061,1.232,1.655,-0.050,0.917,-0.334,-0.854,-1.434,0.702,80.000,160676.000,1.000
-0.639,-0.739,-7.506,-2.185,-1.532,1.584,2.401,1.140,-0.047,0.919,-0.333,-0.824,-1.404,0.671,80.000,160677.000,1.000
0.947,-2.254,-8.399,-2.145,-3.085,-1.608,0.583,-0.284,-0.046,0.920,-0.337,-0.977,-1.556,0.702,80.000,160678.000,1.000
1.985,-3.628,-8.219,-1.365,-3.998,-5.358,-2.434,-0.971,-0.047,0.921,-0.334,-1.007,-1.465,0.671,80.000,160679.000,1.000
2.490,-4.240,-6.794,0.120,-3.523,-7.233,-4.384,-0.368,-0.046,0.920,-0.335,-1.007,-1.465,0.671,80.000,160680.000,1.000
2.578,-3.951,-4.558,1.735,-1.851,-6.100,-4.151,0.722,-0.048,0.921,-0.335,-1.129,-1.465,0.641,80.000,160681.000,1.000
2.300,-3.135,-2.387,2.663,0.051,-2.879,-2.575,0.919,-0.047,0.921,-0.335,-1.099,-1.495,0.702,80.000,160682.000,1.000
1.579,-2.413,-0.969,2.247,0.963,0.074,-1.655,-0.876,-0.046,0.919,-0.336,-1.160,-1.526,0.732,80.000,160683.000,1.000
0.387,-2.090,-0.617,0.372,0.306,0.699,-2.907,-4.619,-0.047,0.919,-0.337,-1.190,-1.404,0.671,80.000,160684.000,1.000
-0.954,-1.702,-0.652,-2.133,-1.190,-1.347,-5.815,-8.456,-0.047,0.920,-0.338,-1.190,-1.312,0.641,80.000,160685.000,1.000
-1.794,-0.285,0.042,-3.913,-1.942,-4.638,-8.286,-9.801,-0.048,0.918,-0.335,-1.160,-1.343,0.671,80.000,160686.000,1.000
-1.582,2.749,2.058,-4.075,-0.810,-7.008,-8.487,-7.526,-0.047,0.920,-0.334,-1.221,-1.282,0.641,80.000,160687.000,1.000
-0.343,6.952,5.151,-2.746,1.994,-6.890,-6.051,-2.864,-0.048,0.919,-0.335,-1.221,-1.312,0.549,80.000,160688.000,1.000
1.337,11.076,8.137,-0.748,5.261,-3.927,-1.865,1.770,-0.048,0.918,-0.336,-1.312,-1.282,0.671,80.000,160689.000,1.000
2.814,13.971,10.038,1.300,7.894,1.368,3.171,4.702,-0.048,0.918,-0.336,-1.343,-1.312,0.580,80.000,160690.000,1.000
3.680,15.114,10.461,3.233,9.454,7.841,8.210,5.685,-0.050,0.918,-0.336,-1.343,-1.312,0.610,80.000,160691.000,1.000
3.678,14.420,9.379,4.949,9.852,13.441,11.825,5.377,-0.048,0.918,-0.339,-1.373,-1.373,0.610,80.000,160692.000,1.000
2.705,11.936,7.106,6.150,8.975,15.632,12.483,4.523,-0.050,0.920,-0.336,-1.373,-1.312,0.549,80.000,160693.000,1.000
0.959,7.938,3.970,6.515,6.848,12.952,9.740,3.524,-0.052,0.917,-0.333,-1.434,-1.343,0.519,80.000,160694.000,1.000
-1.054,3.136,0.607,6.076,3.846,6.094,4.774,2.583,-0.050,0.917,-0.336,-1.404,-1.404,0.427,80.000,160695.000,1.000
-2.875,-1.510,-2.468,5.001,0.467,-2.564,-0.741,1.591,-0.050,0.916,-0.336,-1.434,-1.404,0.488,80.000,160696.000,1.000
-4.303,-5.054,-5.029,3.353,-2.800,-10.027,-5.461,0.158,-0.051,0.916,-0.336,-1.373,-1.465,0.458,80.000,160697.000,1.000
-5.202,-6.606,-6.540,1.406,-5.203,-13.672,-8.092,-1.634,-0.051,0.917,-0.334,-1.373,-1.434,0.519,80.000,160698.000,1.000
-5.327,-5.609,-6.443,-0.233,-5.829,-12.289,-7.649,-2.944,-0.049,0.918,-0.333,-1.282,-1.404,0.519,80.000,160699.000,1.000
-4.516,-2.423,-4.478,-1.060,-4.417,-6.891,-4.307,-2.964,-0.051,0.917,-0.336,-1.251,-1.404,0.549,80.000,160700.000,1.000
-3.082,1.419,-1.440,-1.278,-1.973,-0.576,-0.192,-1.947,-0.053,0.915,-0.335,-1.190,-1.373,0.610,80.000,160701.000,1.000
-1.798,3.958,1.066,-1.622,-0.202,3.071,1.718,-0.984,-0.052,0.916,-0.334,-1.160,-1.434,0.610,80.000,160702.000,1.000
-1.369,4.032,1.892,-2.591,-0.213,2.260,0.003,-0.932,-0.049,0.916,-0.337,-1.190,-1.434,0.671,80.000,160703.000,1.000
-2.019,1.857,0.729,-4.060,-1.873,-1.891,-4.396,-2.020,-0.048,0.918,-0.336,-1.007,-1.404,0.641,80.000,160704.000,1.000
-3.398,-1.291,-1.506,-5.337,-4.081,-6.201,-8.858,-3.944,-0.049,0.918,-0.332,-1.038,-1.404,0.641,80.000,160705.000,1.000
-4.851,-3.947,-3.378,-5.647,-5.507,-7.644,-10.683,-6.007,-0.049,0.918,-0.338,-1.007,-1.495,0.793,80.000,160706.000,1.000
-5.796,-5.357,-3.917,-4.724,-5.455,-5.669,-8.971,-7.458,-0.048,0.919,-0.336,-0.885,-1.404,0.824,80.000,160707.000,1.000
-5.854,-5.676,-2.873,-2.916,-4.228,-2.426,-5.308,-7.910,-0.049,0.919,-0.333,-0.793,-1.343,0.763,80.000,160708.000,1.000
-4.806,-5.332,-0.760,-0.844,-2.548,-0.539,-2.449,-7.380,-0.049,0.919,-0.333,-0.793,-1.282,0.824,80.000,160709.000,1.000
-2.717,-4.415,1.967,1.074,-0.810,-0.900,-1.741,-5.919,-0.048,0.918,-0.330,-0.824,-1.282,0.854,80.000,160710.000,1.000
-0.205,-2.736,4.903,2.630,1.048,-2.229,-2.050,-3.618,-0.046,0.920,-0.332,-0.854,-1.221,0.854,80.000,160711.000,1.000
1.741,-0.265,7.510,3.707,3.099,-2.449,-1.210,-0.932,-0.047,0.918,-0.332,-0.854,-1.190,0.824,80.000,160712.000,1.000
2.278,2.553,9.274,4.188,4.934,-0.722,1.472,1.166,-0.047,0.918,-0.335,-0.763,-1.221,0.793,80.000,160713.000,1.000
1.146,4.893,9.524,3.802,5.754,1.994,4.394,1.584,-0.047,0.919,-0.337,-0.793,-1.190,0.916,80.000,160714.000,1.000
-1.080,6.018,8.192,2.372,4.990,4.030,5.493,-0.001,-0.045,0.921,-0.336,-0.763,-1.160,0.885,80.000,160715.000,1.000
-3.202,5.628,5.843,0.118,2.632,4.012,3.763,-2.882,-0.047,0.920,-0.332,-0.763,-1.160,0.946,80.000,160716.000,1.000
-4.097,4.007,3.261,-2.312,-0.799,1.622,-0.219,-5.819,-0.048,0.919,-0.331,-0.702,-1.160,0.885,80.000,160717.000,1.000
-3.395,1.942,1.243,-4.110,-4.319,-1.743,-4.236,-7.680,-0.048,0.920,-0.333,-0.824,-1.129,0.854,80.000,160718.000,1.000
-1.610,0.265,-0.034,-4.757,-6.834,-3.760,-5.734,-7.851,-0.048,0.919,-0.333,-0.763,-1.068,0.854,80.000,160719.000,1.000
0.331,-0.753,-0.799,-4.281,-7.913,-3.529,-4.017,-6.439,-0.049,0.918,-0.329,-0.702,-1.038,0.732,80.000,160720.000,1.000
1.581,-1.642,-1.684,-3.372,-8.294,-2.805,-1.541,-4.532,-0.049,0.919,-0.333,-0.641,-1.038,0.824,80.000,160721.000,1.000
1.761,-3.174,-3.268,-2.949,-9.187,-4.079,-1.730,-3.595,-0.049,0.921,-0.334,-0.732,-1.007,0.824,80.000,160722.000,1.000
1.161,-5.582,-5.270,-3.438,-11.037,-7.783,-5.509,-4.227,-0.050,0.921,-0.334,-0.702,-1.068,0.854,80.000,160723.000,1.000
0.443,-8.459,-7.028,-4.673,-13.283,-12.089,-11.029,-5.917,-0.049,0.918,-0.335,-0.793,-1.038,0.793,80.000,160724.000,1.000
0.147,-11.174,-7.867,-6.158,-14.982,-14.845,-15.515,-7.623,-0.051,0.919,-0.335,-0.763,-1.068,0.885,80.000,160725.000,1.000
0.454,-13.156,-7.681,-7.367,-15.366,-15.002,-16.983,-8.312,-0.050,0.918,-0.333,-0.702,-1.007,0.763,80.000,160726.000,1.000
1.237,-13.939,-6.907,-7.910,-14.062,-12.662,-14.881,-7.373,-0.050,0.920,-0.331,-0.763,-1.007,0.793,80.000,160727.000,1.000
2.132,-13.347,-5.966,-7.668,-11.308,-8.791,-10.274,-5.131,-0.050,0.919,-0.333,-0.793,-1.068,0.793,80.000,160728.000,1.000
2.559,-11.790,-5.426,-6.935,-8.045,-5.047,-5.811,-2.963,-0.051,0.921,-0.332,-0.610,-1.190,0.763,80.000,160729.000,1.000
1.990,-10.061,-5.482,-6.082,-5.359,-2.866,-4.003,-2.279,-0.049,0.920,-0.335,-0.610,-1.068,0.854,80.000,160730.000,1.000
0.339,-8.668,-5.856,-5.118,-3.520,-2.051,-4.976,-3.274,-0.049,0.920,-0.334,-0.702,-1.129,0.977,80.000,160731.000,1.000
-1.832,-7.351,-5.849,-3.521,-1.575,-0.569,-5.959,-4.440,-0.048,0.920,-0.334,-0.763,-1.038,0.946,80.000,160732.000,1.000
-3.523,-5.415,-4.512,-0.607,1.735,3.353,-3.839,-3.592,-0.048,0.920,-0.335,-0.732,-1.099,0.824,80.000,160733.000,1.000
-3.975,-2.706,-1.819,3.626,6.329,8.556,1.138,-0.037,-0.046,0.919,-0.332,-0.671,-1.068,0.946,80.000,160734.000,1.000
-3.225,-0.012,1.305,8.140,10.356,11.319,5.354,4.439,-0.047,0.921,-0.334,-0.732,-1.068,0.916,80.000,160735.000,1.000
-2.008,1.538,3.492,11.364,11.618,8.845,5.238,6.744,-0.049,0.921,-0.334,-0.702,-1.007,0.977,80.000,160736.000,1.000
-1.047,1.365,3.851,12.290,9.313,1.714,0.142,4.870,-0.048,0.920,-0.335,-0.732,-0.977,0.946,80.000,160737.000,1.000
-0.408,-0.156,2.743,11.242,4.614,-6.753,-7.322,-0.446,-0.048,0.918,-0.335,-0.824,-0.916,0.916,80.000,160738.000,1.000
0.490,-1.816,1.260,9.660,0.027,-12.427,-12.825,-6.064,-0.048,0.920,-0.333,-0.824,-0.885,0.946,80.000,160739.000,1.000
2.252,-2.275,0.774,9.178,-2.046,-12.580,-12.750,-8.402,-0.048,0.919,-0.332,-0.763,-0.916,0.916,80.000,160740.000,1.000
4.720,-1.114,1.801,10.423,-0.897,-7.806,-7.019,-5.867,-0.049,0.918,-0.331,-0.732,-0.916,0.916,80.000,160741.000,1.000
6.843,0.835,3.524,12.579,2.129,-1.507,0.981,0.267,-0.049,0.918,-0.332,-0.732,-0.946,0.916,80.000,160742.000,1.000
7.421,2.242,4.697,14.098,4.840,2.929,7.553,7.030,-0.049,0.917,-0.334,-0.702,-0.977,0.977,80.000,160743.000,1.000
5.834,2.136,4.231,13.648,5.585,4.168,10.769,11.409,-0.049,0.915,-0.333,-0.732,-1.007,0.946,80.000,160744.000,1.000
2.267,0.320,1.896,10.761,3.907,2.844,10.630,11.644,-0.052,0.915,-0.336,-0.702,-0.946,0.916,80.000,160745.000,1.000
-2.452,-2.622,-1.838,5.952,0.560,0.478,8.185,7.902,-0.050,0.916,-0.334,-0.610,-1.007,0.854,80.000,160746.000,1.000
-7.156,-5.660,-6.037,0.440,-3.032,-1.571,4.572,1.997,-0.051,0.916,-0.334,-0.641,-0.977,0.854,80.000,160747.000,1.000
-10.760,-7.882,-9.405,-4.415,-5.611,-2.814,0.489,-3.766,-0.050,0.916,-0.335,-0.488,-1.068,0.824,80.000,160748.000,1.000
-12.574,-8.794,-11.043,-7.568,-6.482,-3.499,-3.646,-7.521,-0.049,0.915,-0.336,-0.458,-1.068,0.824,80.000,160749.000,1.000
-12.294,-8.205,-10.366,-8.321,-5.366,-3.661,-6.848,-8.172,-0.048,0.913,-0.335,-0.397,-1.099,0.885,80.000,160750.000,1.000
-10.043,-6.252,-7.398,-6.551,-2.424,-2.858,-7.943,-5.849,-0.050,0.912,-0.336,-0.397,-1.099,0.824,80.000,160751.000,1.000
-6.374,-3.489,-2.879,-2.793,1.644,-1.050,-6.563,-1.671,-0.049,0.915,-0.336,-0.275,-1.160,0.916,80.000,160752.000,1.000
-2.060,-0.697,2.254,2.048,5.797,0.810,-3.600,3.020,-0.048,0.918,-0.335,-0.183,-1.099,0.793,80.000,160753.000,1.000
2.071,1.452,6.798,6.878,8.978,1.512,-0.951,6.824,-0.049,0.919,-0.337,-0.153,-1.099,0.824,80.000,160754.000,1.000
5.367,2.745,9.986,10.807,10.664,1.017,0.229,8.714,-0.050,0.920,-0.334,-0.244,-1.190,0.854,80.000,160755.000,1.000
7.525,3.458,11.729,13.539,11.146,0.554,0.507,8.674,-0.049,0.921,-0.334,-0.275,-1.221,0.854,80.000,160756.000,1.000
8.527,3.946,12.433,15.348,11.080,0.983,1.100,7.668,-0.049,0.920,-0.334,-0.153,-1.221,0.885,80.000,160757.000,1.000
8.330,4.208,12.743,16.636,10.912,1.841,2.479,6.965,-0.048,0.921,-0.335,-0.214,-1.251,0.885,80.000,160758.000,1.000
6.688,3.837,12.754,17.410,10.651,2.012,3.796,7.292,-0.048,0.921,-0.336,-0.244,-1.129,0.793,80.000,160759.000,1.000
3.515,2.384,12.298,17.329,10.030,0.701,3.780,8.543,-0.046,0.921,-0.333,-0.397,-1.190,0.671,80.000,160760.000,1.000
-0.761,-0.220,11.045,16.036,8.788,-1.982,1.932,9.938,-0.044,0.921,-0.334,-0.366,-1.129,0.732,80.000,160761.000,1.000
-5.364,-3.551,8.635,13.433,6.870,-4.854,-0.844,10.474,-0.045,0.924,-0.333,-0.580,-1.068,0.824,80.000,160762.000,1.000
-9.527,-6.894,5.196,9.869,4.533,-6.255,-2.553,9.632,-0.043,0.923,-0.334,-0.671,-1.038,0.854,80.000,160763.000,1.000
-12.674,-9.602,1.111,5.987,2.172,-5.413,-1.737,7.624,-0.043,0.922,-0.335,-0.763,-0.946,0.854,80.000,160764.000,1.000
-14.423,-11.304,-2.860,2.470,0.004,-3.196,1.294,5.054,-0.043,0.920,-0.335,-0.854,-0.854,0.946,80.000,160765.000,1.000
-14.502,-11.810,-5.918,-0.179,-1.860,-1.090,4.879,2.620,-0.043,0.918,-0.333,-0.946,-0.793,0.977,80.000,160766.000,1.000
-12.622,-10.890,-7.414,-1.553,-3.019,0.282,7.777,1.206,-0.044,0.914,-0.331,-1.038,-0.732,0.977,80.000,160767.000,1.000
-8.622,-8.346,-6.769,-1.316,-2.881,1.321,10.129,1.640,-0.044,0.916,-0.334,-0.916,-0.671,1.068,80.000,160768.000,1.000
-2.924,-4.315,-4.079,0.448,-1.206,2.755,12.496,4.003,-0.044,0.914,-0.335,-0.763,-0.641,1.068,80.000,160769.000,1.000
3.282,0.536,0.069,3.070,1.534,4.902,14.836,7.394,-0.045,0.918,-0.334,-0.702,-0.641,1.129,80.000,160770.000,1.000
8.357,4.942,4.455,5.331,4.126,6.962,15.976,10.129,-0.046,0.918,-0.334,-0.671,-0.641,1.190,80.000,160771.000,1.000
11.004,7.481,7.470,5.949,5.139,7.227,14.273,10.526,-0.045,0.923,-0.337,-0.580,-0.671,1.190,80.000,160772.000,1.000
10.988,7.491,8.129,4.322,3.878,4.596,9.229,7.942,-0.047,0.921,-0.337,-0.671,-0.702,1.282,80.000,160773.000,1.000
9.134,5.557,6.313,0.805,0.930,-0.209,2.204,3.073,-0.046,0.921,-0.338,-0.824,-0.610,1.343,80.000,160774.000,1.000
6.785,3.157,3.115,-3.401,-2.127,-5.085,-4.249,-2.336,-0.047,0.920,-0.340,-0.946,-0.610,1.373,80.000,160775.000,1.000
5.127,1.796,0.236,-6.781,-3.662,-8.137,-8.274,-6.212,-0.047,0.918,-0.339,-0.885,-0.610,1.251,80.000,160776.000,1.000
4.762,2.337,-0.882,-8.196,-2.816,-8.599,-9.603,-7.076,-0.047,0.919,-0.337,-0.793,-0.732,1.312,80.000,160777.000,1.000
5.623,4.873,0.527,-7.296,0.361,-6.360,-8.525,-4.588,-0.050,0.919,-0.337,-0.824,-0.702,1.129,80.000,160778.000,1.000
7.212,8.891,4.015,-4.514,5.226,-1.578,-5.125,0.521,-0.050,0.920,-0.336,-0.854,-0.702,1.038,80.000,160779.000,1.000
8.942,13.424,8.487,-0.759,10.678,4.733,0.356,6.865,-0.051,0.923,-0.336,-0.793,-0.854,0.916,80.000,160780.000,1.000
10.154,17.183,12.455,2.696,15.161,10.406,6.590,12.557,-0.051,0.924,-0.335,-0.916,-0.854,0.702,80.000,160781.000,1.000
10.190,19.099,14.582,4.707,17.277,13.252,11.459,15.864,-0.053,0.929,-0.335,-1.038,-0.977,0.610,80.000,160782.000,1.000
8.921,19.025,14.656,4.999,16.691,12.577,13.434,16.252,-0.052,0.930,-0.333,-1.099,-1.129,0.458,80.000,160783.000,1.000
6.978,17.726,13.236,4.130,14.232,9.528,12.381,14.506,-0.051,0.930,-0.335,-1.251,-1.221,0.336,80.000,160784.000,1.000
5.401,16.322,11.345,3.026,11.370,6.516,10.135,12.240,-0.052,0.929,-0.337,-1.404,-1.312,0.244,80.000,160785.000,1.000
4.987,15.681,9.803,2.515,9.542,5.950,9.608,11.170,-0.047,0.931,-0.338,-1.556,-1.343,0.214,80.000,160786.000,1.000
5.822,15.901,8.765,2.931,9.314,8.458,12.276,12.019,-0.047,0.927,-0.337,-1.770,-1.373,0.214,80.000,160787.000,1.000
7.241,16.203,7.871,3.868,9.860,12.059,16.545,13.793,-0.047,0.925,-0.334,-1.709,-1.434,0.214,80.000,160788.000,1.000
8.122,15.330,6.194,4.246,9.425,13.282,18.670,14.357,-0.045,0.923,-0.334,-1.831,-1.495,0.305,80.000,160789.000,1.000
7.469,12.384,3.145,3.070,6.621,9.668,15.825,12.054,-0.044,0.919,-0.331,-1.923,-1.373,0.244,80.000,160790.000,1.000
5.132,7.713,-1.034,0.296,1.716,2.146,8.538,6.962,-0.046,0.918,-0.330,-1.862,-1.282,0.366,80.000,160791.000,1.000
2.051,2.982,-5.314,-2.987,-3.312,-5.187,0.560,1.081,-0.044,0.916,-0.333,-1.740,-1.312,0.366,80.000,160792.000,1.000
-0.449,-0.032,-8.401,-5.425,-6.350,-8.483,-4.070,-2.993,-0.046,0.915,-0.331,-1.617,-1.312,0.397,80.000,160793.000,1.000
-1.559,-0.665,-9.863,-6.415,-6.694,-7.001,-4.093,-3.962,-0.048,0.915,-0.330,-1.617,-1.343,0.458,80.000,160794.000,1.000
-1.109,0.672,-9.741,-5.994,-4.948,-2.627,-0.773,-2.114,-0.049,0.915,-0.333,-1.587,-1.343,0.458,80.000,160795.000,1.000
0.722,3.175,-8.189,-4.385,-2.095,2.148,3.840,1.481,-0.047,0.916,-0.331,-1.526,-1.312,0.549,80.000,160796.000,1.000
3.596,6.085,-5.449,-1.946,1.006,5.502,7.931,5.516,-0.050,0.917,-0.330,-1.343,-1.343,0.519,80.000,160797.000,1.000
7.060,8.810,-1.769,0.735,3.694,6.764,10.438,8.622,-0.050,0.916,-0.329,-1.312,-1.312,0.610,80.000,160798.000,1.000
10.512,10.938,2.174,2.906,5.573,6.532,11.217,9.625,-0.052,0.916,-0.329,-1.282,-1.312,0.580,80.000,160799.000,1.000
13.307,12.319,5.746,4.095,6.646,6.195,11.016,8.257,-0.051,0.917,-0.331,-1.160,-1.343,0.641,80.000,160800.000,1.000
14.875,13.013,8.403,4.238,7.150,6.675,10.576,5.314,-0.053,0.916,-0.331,-1.282,-1.434,0.610,80.000,160801.000,1.000
14.852,13.163,9.694,3.503,7.196,7.498,9.808,1.917,-0.051,0.913,-0.333,-1.190,-1.526,0.671,80.000,160802.000,1.000
13.266,12.990,9.688,2.275,6.754,7.383,8.157,-1.010,-0.050,0.915,-0.332,-1.099,-1.495,0.580,80.000,160803.000,1.000
10.622,12.781,8.746,1.129,5.935,5.530,5.462,-2.658,-0.050,0.913,-0.328,-0.946,-1.556,0.549,80.000,160804.000,1.000
7.718,12.788,7.614,0.676,5.085,2.342,2.598,-2.352,-0.048,0.910,-0.330,-0.763,-1.495,0.549,80.000,160805.000,1.000
5.235,13.067,6.881,1.170,4.605,-0.568,1.026,-0.122,-0.049,0.911,-0.331,-0.671,-1.556,0.519,80.000,160806.000,1.000
3.468,13.462,6.612,2.346,4.803,-1.060,2.008,3.099,-0.048,0.911,-0.333,-0.549,-1.495,0.580,80.000,160807.000,1.000
2.312,13.654,6.621,3.637,5.732,2.047,6.007,6.075,-0.048,0.910,-0.333,-0.336,-1.404,0.580,80.000,160808.000,1.000
1.416,13.185,6.313,4.398,7.010,7.753,12.003,7.944,-0.045,0.911,-0.331,-0.305,-1.465,0.610,80.000,160809.000,1.000
0.535,11.665,5.240,4.234,7.859,13.322,17.780,8.439,-0.045,0.913,-0.330,-0.153,-1.282,0.702,80.000,160810.000,1.000
-0.337,9.007,3.211,3.102,7.401,15.952,20.818,7.507,-0.045,0.915,-0.331,-0.061,-1.312,0.824,80.000,160811.000,1.000
-1.199,5.433,0.251,1.178,5.019,14.167,19.353,5.069,-0.045,0.915,-0.331,0.153,-1.251,0.793,80.000,160812.000,1.000
-2.164,1.351,-3.173,-1.252,0.720,8.469,13.431,1.263,-0.044,0.917,-0.328,0.061,-1.190,0.793,80.000,160813.000,1.000
-3.253,-2.622,-6.497,-3.777,-4.507,1.310,5.311,-3.167,-0.046,0.918,-0.330,0.061,-1.099,0.793,80.000,160814.000,1.000
-4.190,-5.738,-8.916,-5.760,-8.977,-4.383,-1.528,-6.872,-0.046,0.917,-0.333,0.153,-1.007,0.854,80.000,160815.000,1.000
-4.681,-7.729,-10.071,-6.897,-11.624,-7.643,-5.345,-9.099,-0.046,0.919,-0.333,0.000,-1.068,0.916,80.000,160816.000,1.000
-4.735,-9.083,-10.540,-7.642,-12.735,-9.822,-7.306,-10.370,-0.045,0.919,-0.334,0.031,-0.977,0.916,80.000,160817.000,1.000
-4.546,-10.383,-11.007,-8.568,-13.062,-12.163,-9.089,-11.367,-0.046,0.920,-0.335,0.122,-1.038,0.977,80.000,160818.000,1.000
-4.304,-11.659,-11.825,-9.671,-12.906,-14.230,-11.020,-12.058,-0.045,0.920,-0.332,0.061,-0.916,0.977,80.000,160819.000,1.000
-4.165,-12.522,-12.680,-10.465,-12.305,-14.918,-12.490,-12.155,-0.044,0.923,-0.333,0.122,-0.854,1.068,80.000,160820.000,1.000
-4.278,-12.686,-13.127,-10.610,-11.492,-13.883,-13.194,-11.867,-0.043,0.922,-0.334,0.000,-0.702,1.129,80.000,160821.000,1.000
-4.681,-12.204,-12.981,-10.195,-10.809,-11.554,-13.279,-11.813,-0.045,0.923,-0.333,0.000,-0.763,1.221,80.000,160822.000,1.000
-5.282,-11.386,-12.170,-9.564,-10.439,-8.408,-12.698,-12.388,-0.044,0.924,-0.331,-0.031,-0.671,1.190,80.000,160823.000,1.000
-6.069,-10.698,-11.144,-9.193,-10.533,-5.005,-11.562,-13.704,-0.042,0.924,-0.332,-0.305,-0.610,1.251,80.000,160824.000,1.000
-7.225,-10.657,-10.523,-9.569,-11.473,-2.521,-10.675,-15.895,-0.044,0.924,-0.332,-0.397,-0.580,1.221,80.000,160825.000,1.000
-8.902,-11.457,-10.782,-10.955,-13.490,-2.121,-10.826,-18.796,-0.043,0.926,-0.334,-0.549,-0.610,1.190,80.000,160826.000,1.000
-10.811,-12.523,-11.764,-12.920,-15.911,-3.506,-11.340,-21.244,-0.044,0.927,-0.334,-0.671,-0.519,1.282,80.000,160827.000,1.000
-12.166,-12.759,-12.384,-14.332,-17.343,-5.048,-10.389,-21.481,-0.044,0.927,-0.333,-0.824,-0.366,1.190,80.000,160828.000,1.000
-12.226,-11.513,-11.717,-14.215,-16.850,-5.564,-7.210,-18.684,-0.045,0.927,-0.335,-0.916,-0.275,1.160,80.000,160829.000,1.000
-10.927,-9.247,-9.627,-12.548,-14.872,-5.322,-3.211,-14.000,-0.047,0.927,-0.333,-0.854,-0.244,1.190,80.000,160830.000,1.000
-8.999,-7.270,-7.120,-10.346,-12.994,-5.434,-1.207,-10.144,-0.048,0.927,-0.333,-0.946,-0.275,1.129,80.000,160831.000,1.000
-7.424,-6.791,-5.717,-8.877,-12.785,-6.794,-3.281,-9.563,-0.050,0.927,-0.333,-0.946,-0.305,0.977,80.000,160832.000,1.000
-6.852,-8.160,-6.187,-8.785,-14.778,-9.592,-9.099,-12.804,-0.050,0.923,-0.333,-1.160,-0.275,0.977,80.000,160833.000,1.000
-7.358,-10.788,-8.432,-9.865,-18.193,-13.368,-16.288,-18.175,-0.050,0.920,-0.333,-1.312,-0.336,0.885,80.000,160834.000,1.000
-8.434,-13.543,-11.463,-11.271,-21.392,-17.237,-21.857,-22.524,-0.046,0.917,-0.333,-1.434,-0.458,0.854,80.000,160835.000,1.000
-9.450,-15.576,-14.334,-12.354,-23.130,-20.403,-24.279,-23.636,-0.045,0.913,-0.334,-1.312,-0.366,0.854,80.000,160836.000,1.000
-10.256,-16.968,-16.952,-13.344,-23.624,-22.671,-24.460,-22.260,-0.044,0.912,-0.333,-1.099,-0.366,0.977,80.000,160837.000,1.000
-11.203,-18.485,-19.641,-14.947,-24.140,-24.581,-24.471,-21.141,-0.045,0.914,-0.335,-0.916,-0.336,0.885,80.000,160838.000,1.000
-12.658,-20.731,-22.678,-17.476,-25.685,-26.924,-25.798,-22.337,-0.047,0.917,-0.336,-0.824,-0.397,0.885,80.000,160839.000,1.000
-14.446,-23.381,-25.427,-20.291,-27.982,-29.552,-28.017,-25.474,-0.045,0.919,-0.336,-0.641,-0.275,0.854,80.000,160840.000,1.000
-15.747,-25.154,-26.538,-22.030,-29.376,-30.713,-28.854,-28.031,-0.046,0.918,-0.334,-0.671,-0.305,0.916,80.000,160841.000,1.000
-15.610,-24.734,-24.935,-21.420,-27.941,-28.377,-25.912,-27.118,-0.047,0.916,-0.333,-0.549,-0.336,1.068,80.000,160842.000,1.000
-13.644,-21.870,-20.598,-18.212,-23.086,-22.294,-18.804,-21.710,-0.045,0.914,-0.331,-0.580,-0.336,1.160,80.000,160843.000,1.000
-10.285,-17.572,-14.971,-13.498,-16.110,-14.263,-9.673,-13.578,-0.047,0.909,-0.333,-0.519,-0.275,1.068,80.000,160844.000,1.000
-6.495,-13.341,-9.756,-8.906,-9.201,-6.828,-1.331,-5.702,-0.047,0.910,-0.337,-0.275,-0.153,1.068,80.000,160845.000,1.000
-3.324,-10.376,-6.142,-5.654,-4.173,-2.208,4.310,-0.119,-0.052,0.913,-0.338,-0.122,-0.366,1.007,80.000,160846.000,1.000
-1.513,-9.182,-4.634,-4.185,-1.922,-1.641,6.328,2.524,-0.054,0.915,-0.335,0.031,-0.519,0.916,80.000,160847.000,1.000
-1.198,-9.492,-4.876,-4.280,-2.394,-4.764,4.532,2.170,-0.052,0.918,-0.333,0.092,-0.549,0.763,80.000,160848.000,1.000
-1.966,-10.463,-6.160,-5.397,-4.680,-9.494,-0.387,-1.060,-0.052,0.920,-0.334,0.031,-0.732,0.671,80.000,160849.000,1.000
-3.189,-11.112,-7.476,-6.848,-7.360,-13.104,-6.554,-6.386,-0.053,0.923,-0.334,0.031,-0.854,0.610,80.000,160850.000,1.000
-4.348,-10.840,-8.026,-7.934,-9.116,-13.921,-11.726,-11.998,-0.052,0.922,-0.335,-0.153,-1.007,0.458,80.000,160851.000,1.000
-5.114,-9.625,-7.586,-8.056,-9.175,-11.976,-14.229,-15.547,-0.052,0.922,-0.335,-0.244,-1.251,0.488,80.000,160852.000,1.000
-5.446,-7.991,-6.372,-6.999,-7.580,-8.616,-13.527,-15.471,-0.048,0.919,-0.335,-0.275,-1.312,0.519,80.000,160853.000,1.000
-5.683,-6.917,-5.308,-5.307,-5.330,-6.027,-10.953,-12.156,-0.051,0.920,-0.334,-0.366,-1.495,0.488,80.000,160854.000,1.000
-6.252,-7.350,-5.264,-3.985,-3.859,-6.054,-8.883,-7.669,-0.046,0.918,-0.335,-0.427,-1.495,0.458,80.000,160855.000,1.000
-7.291,-9.455,-6.478,-3.810,-3.980,-8.518,-8.642,-4.345,-0.046,0.918,-0.337,-0.305,-1.556,0.427,80.000,160856.000,1.000
-8.520,-12.377,-8.459,-4.830,-5.338,-11.138,-9.401,-3.331,-0.048,0.918,-0.334,-0.244,-1.587,0.366,80.000,160857.000,1.000
-9.381,-14.931,-10.254,-6.501,-7.048,-11.769,-9.574,-4.418,-0.049,0.918,-0.335,-0.275,-1.648,0.336,80.000,160858.000,1.000
-9.330,-16.479,-11.415,-8.241,-8.620,-10.377,-8.989,-6.935,-0.048,0.917,-0.338,-0.214,-1.678,0.458,80.000,160859.000,1.000
-8.048,-16.953,-11.750,-9.533,-9.900,-8.480,-8.447,-10.009,-0.047,0.919,-0.337,-0.244,-1.678,0.549,80.000,160860.000,1.000
-5.599,-16.430,-11.127,-9.914,-10.552,-7.178,-8.133,-12.466,-0.046,0.921,-0.334,-0.214,-1.770,0.580,80.000,160861.000,1.000
-2.542,-15.065,-9.648,-9.178,-10.145,-6.440,-7.537,-13.143,-0.046,0.923,-0.332,-0.153,-1.709,0.641,80.000,160862.000,1.000
0.151,-13.264,-7.697,-7.621,-8.713,-6.018,-6.506,-11.540,-0.045,0.924,-0.332,-0.153,-1.740,0.610,80.000,160863.000,1.000
1.511,-11.538,-6.076,-5.924,-6.803,-5.945,-5.513,-8.170,-0.044,0.924,-0.334,-0.244,-1.709,0.671,80.000,160864.000,1.000
1.291,-9.937,-4.987,-4.452,-4.707,-5.550,-4.266,-3.961,-0.045,0.923,-0.333,-0.214,-1.801,0.763,80.000,160865.000,1.000
0.321,-7.854,-3.773,-2.956,-2.016,-2.950,-1.344,0.367,-0.048,0.922,-0.333,-0.275,-1.770,0.824,80.000,160866.000,1.000
-0.072,-4.798,-1.749,-1.156,1.496,2.798,3.669,4.012,-0.049,0.921,-0.333,-0.305,-1.984,0.824,80.000,160867.000,1.000
0.791,-1.410,0.986,0.495,4.636,9.043,8.256,5.560,-0.048,0.918,-0.337,-0.366,-1.770,0.854,80.000,160868.000,1.000
2.404,0.727,3.168,0.864,5.257,10.917,8.450,3.500,-0.049,0.919,-0.335,-0.427,-1.862,0.793,80.000,160869.000,1.000
3.764,0.620,3.776,-0.660,2.369,6.144,2.859,-2.097,-0.048,0.920,-0.334,-0.458,-1.923,0.641,80.000,160870.000,1.000
4.389,-1.014,2.998,-3.252,-2.517,-2.443,-5.589,-8.728,-0.046,0.920,-0.334,-0.397,-1.953,0.610,80.000,160871.000,1.000
4.514,-2.328,1.989,-5.109,-6.382,-9.399,-11.774,-12.801,-0.046,0.919,-0.333,-0.427,-1.892,0.610,80.000,160872.000,1.000
4.462,-2.001,1.968,-4.915,-7.107,-11.210,-12.450,-12.253,-0.047,0.918,-0.336,-0.427,-1.984,0.702,80.000,160873.000,1.000
4.195,-0.204,2.971,-2.867,-4.890,-8.293,-8.598,-8.054,-0.046,0.917,-0.337,-0.427,-1.953,0.732,80.000,160874.000,1.000
3.599,1.906,4.231,-0.233,-1.549,-3.399,-3.554,-3.038,-0.046,0.918,-0.333,-0.397,-1.892,0.671,80.000,160875.000,1.000
2.783,3.154,4.852,1.691,1.021,0.667,-0.044,0.385,-0.046,0.917,-0.335,-0.305,-1.892,0.671,80.000,160876.000,1.000
2.048,3.006,4.394,2.382,1.940,2.423,1.150,1.605,-0.046,0.917,-0.336,-0.153,-1.831,0.549,80.000,160877.000,1.000
1.709,1.823,3.335,2.267,1.594,2.388,1.133,1.560,-0.047,0.917,-0.333,-0.244,-1.862,0.458,80.000,160878.000,1.000
1.836,0.434,2.328,2.079,1.003,2.343,1.547,1.498,-0.049,0.917,-0.332,-0.214,-1.831,0.427,80.000,160879.000,1.000
2.144,-0.685,1.740,2.167,0.788,3.148,3.020,2.049,-0.049,0.916,-0.334,-0.214,-1.923,0.427,80.000,160880.000,1.000
2.097,-1.844,1.173,2.218,0.584,3.543,4.484,2.813,-0.049,0.916,-0.334,-0.214,-2.045,0.397,80.000,160881.000,1.000
1.258,-3.547,-0.175,1.670,-0.400,1.912,4.495,2.748,-0.046,0.915,-0.336,-0.336,-1.984,0.336,80.000,160882.000,1.000
-0.283,-5.584,-2.344,0.432,-2.253,-1.299,3.083,1.340,-0.048,0.915,-0.336,-0.214,-1.892,0.366,80.000,160883.000,1.000
-1.896,-7.062,-4.660,-0.968,-4.136,-3.946,1.481,-0.782,-0.047,0.917,-0.336,-0.214,-1.923,0.336,80.000,160884.000,1.000
-2.836,-7.258,-6.150,-1.819,-5.152,-4.526,0.752,-2.425,-0.049,0.918,-0.335,-0.183,-1.862,0.214,80.000,160885.000,1.000
-2.827,-6.293,-6.482,-1.882,-5.162,-3.437,0.764,-2.974,-0.047,0.919,-0.337,-0.153,-1.831,0.305,80.000,160886.000,1.000
-2.162,-4.908,-6.185,-1.494,-4.622,-2.002,0.727,-2.615,-0.048,0.918,-0.339,-0.275,-1.831,0.305,80.000,160887.000,1.000
-1.261,-3.636,-5.734,-0.970,-3.690,-0.573,0.881,-1.374,-0.046,0.918,-0.335,-0.183,-1.831,0.275,80.000,160888.000,1.000
-0.313,-2.290,-5.251,-0.237,-1.839,2.026,2.828,1.368,-0.047,0.920,-0.333,-0.244,-1.770,0.275,80.000,160889.000,1.000
0.569,-0.425,-4.478,0.829,1.271,6.758,7.555,5.835,-0.048,0.919,-0.339,-0.275,-1.801,0.275,80.000,160890.000,1.000
0.898,1.650,-3.605,1.688,4.567,12.199,12.870,10.355,-0.049,0.919,-0.337,-0.397,-1.709,0.366,80.000,160891.000,1.000
-0.036,2.766,-3.433,1.316,5.893,14.945,14.270,11.969,-0.049,0.917,-0.334,-0.397,-1.709,0.275,80.000,160892.000,1.000
-2.372,2.023,-4.320,-0.679,3.939,12.660,9.314,9.090,-0.049,0.919,-0.339,-0.305,-1.770,0.244,80.000,160893.000,1.000
-5.360,-0.281,-5.962,-3.537,-0.472,6.442,0.198,2.996,-0.049,0.918,-0.338,-0.397,-1.801,0.244,80.000,160894.000,1.000
-7.894,-2.924,-7.468,-5.915,-5.108,-0.136,-8.117,-3.318,-0.050,0.919,-0.338,-0.397,-1.770,0.305,80.000,160895.000,1.000
-9.161,-4.641,-8.000,-6.832,-7.912,-4.027,-11.886,-7.191,-0.049,0.918,-0.336,-0.427,-1.709,0.336,80.000,160896.000,1.000
-8.739,-4.584,-7.110,-6.001,-7.788,-4.329,-10.454,-7.171,-0.050,0.920,-0.338,-0.397,-1.740,0.397,80.000,160897.000,1.000
-6.544,-2.411,-4.613,-3.701,-4.681,-1.600,-5.347,-3.244,-0.050,0.921,-0.338,-0.580,-1.770,0.458,80.000,160898.000,1.000
-3.017,1.569,-1.051,-0.702,0.456,3.205,1.073,3.021,-0.051,0.922,-0.337,-0.732,-1.648,0.427,80.000,160899.000,1.000
0.869,6.399,2.636,2.121,6.020,8.847,6.534,9.262,-0.052,0.921,-0.336,-0.641,-1.648,0.488,80.000,160900.000,1.000
3.931,10.710,5.374,4.054,10.343,13.593,9.262,13.423,-0.049,0.920,-0.336,-0.824,-1.740,0.458,80.000,160901.000,1.000
5.246,13.213,6.309,4.660,12.321,15.852,8.649,14.437,-0.050,0.921,-0.336,-0.916,-1.678,0.610,80.000,160902.000,1.000
4.652,13.291,5.484,4.005,11.871,15.183,5.755,12.601,-0.049,0.920,-0.338,-0.916,-1.587,0.580,80.000,160903.000,1.000
2.902,11.206,3.546,2.657,9.801,12.353,2.359,9.293,-0.048,0.920,-0.336,-0.946,-1.617,0.641,80.000,160904.000,1.000
1.272,7.811,1.493,1.381,7.143,8.441,-0.190,6.138,-0.047,0.920,-0.334,-0.946,-1.678,0.641,80.000,160905.000,1.000
0.815,4.107,0.064,0.737,4.669,4.245,-1.323,4.234,-0.047,0.920,-0.335,-1.007,-1.587,0.671,80.000,160906.000,1.000
1.793,0.952,-0.513,0.896,2.882,0.494,-0.930,3.885,-0.049,0.920,-0.337,-1.099,-1.648,0.763,80.000,160907.000,1.000
3.607,-1.122,-0.252,1.618,2.000,-1.991,0.721,4.533,-0.047,0.920,-0.334,-1.129,-1.617,0.793,80.000,160908.000,1.000
5.242,-2.084,0.311,2.261,1.766,-2.724,2.542,4.858,-0.048,0.920,-0.335,-1.221,-1.495,0.671,80.000,160909.000,1.000
5.948,-2.339,0.588,2.172,1.503,-2.157,2.898,3.583,-0.047,0.920,-0.332,-1.251,-1.434,0.763,80.000,160910.000,1.000
5.669,-2.387,0.340,1.120,0.611,-1.588,0.656,0.474,-0.047,0.918,-0.334,-1.343,-1.465,0.854,80.000,160911.000,1.000
5.059,-2.365,-0.073,-0.397,-0.770,-2.016,-3.524,-3.208,-0.048,0.918,-0.332,-1.251,-1.343,0.793,80.000,160912.000,1.000
5.107,-1.881,0.320,-1.245,-1.610,-3.084,-7.036,-5.232,-0.046,0.920,-0.334,-1.312,-1.221,0.824,80.000,160913.000,1.000
6.428,-0.494,2.091,-0.423,-0.738,-3.425,-7.226,-3.875,-0.045,0.918,-0.338,-1.373,-1.221,0.824,80.000,160914.000,1.000
8.775,1.640,5.092,2.095,2.031,-2.008,-3.478,0.530,-0.047,0.917,-0.339,-1.312,-1.160,0.885,80.000,160915.000,1.000
11.157,3.687,8.396,5.225,5.561,1.020,2.236,5.455,-0.045,0.918,-0.338,-1.221,-1.038,0.885,80.000,160916.000,1.000
12.530,4.799,10.829,7.620,8.315,4.621,7.034,8.207,-0.046,0.917,-0.337,-1.190,-1.007,0.885,80.000,160917.000,1.000
12.381,4.703,11.903,8.536,9.371,7.549,9.128,7.875,-0.045,0.919,-0.337,-1.190,-0.916,0.916,80.000,160918.000,1.000
10.806,3.707,11.677,7.898,8.729,9.003,8.393,5.349,-0.044,0.920,-0.334,-1.160,-0.763,0.946,80.000,160919.000,1.000
8.380,2.493,10.761,6.223,7.216,9.064,6.331,2.516,-0.044,0.918,-0.334,-1.068,-0.732,0.916,80.000,160920.000,1.000
5.855,1.732,9.832,4.326,5.851,8.179,4.763,1.061,-0.045,0.918,-0.331,-1.099,-0.732,0.916,80.000,160921.000,1.000
3.789,1.682,9.175,2.847,5.015,6.468,4.164,1.228,-0.044,0.918,-0.335,-1.038,-0.671,0.885,80.000,160922.000,1.000
2.410,2.239,8.949,2.045,4.420,4.048,3.760,1.921,-0.043,0.917,-0.335,-1.068,-0.519,0.977,80.000,160923.000,1.000
1.656,3.220,9.079,1.833,3.727,1.378,2.522,1.990,-0.045,0.917,-0.336,-0.946,-0.519,0.885,80.000,160924.000,1.000
1.282,4.513,9.487,2.031,2.977,-0.949,0.165,1.272,-0.045,0.918,-0.337,-0.824,-0.488,0.854,80.000,160925.000,1.000
0.972,6.090,10.006,2.548,2.657,-2.156,-2.298,0.606,-0.045,0.918,-0.334,-0.732,-0.427,0.854,80.000,160926.000,1.000
0.531,7.952,10.371,3.420,3.428,-1.261,-3.063,1.133,-0.047,0.917,-0.335,-0.702,-0.336,0.916,80.000,160927.000,1.000
-0.062,9.868,10.439,4.637,5.459,1.911,-1.264,3.253,-0.047,0.917,-0.336,-0.763,-0.305,0.946,80.000,160928.000,1.000
-0.870,11.150,9.864,5.919,7.942,5.703,1.726,6.032,-0.047,0.918,-0.334,-0.641,-0.275,0.946,80.000,160929.000,1.000
-2.031,11.091,8.648,6.926,9.631,7.782,3.829,8.001,-0.046,0.920,-0.333,-0.641,-0.275,0.977,80.000,160930.000,1.000
-3.555,9.706,7.284,7.486,9.902,7.572,4.543,8.340,-0.047,0.919,-0.338,-0.610,-0.305,0.916,80.000,160931.000,1.000
-5.167,7.785,6.256,7.649,9.130,6.586,4.951,7.384,-0.047,0.919,-0.340,-0.641,-0.305,1.007,80.000,160932.000,1.000
-6.374,6.180,5.795,7.571,8.044,6.175,5.886,6.133,-0.047,0.920,-0.336,-0.549,-0.275,0.977,80.000,160933.000,1.000
-6.711,5.177,5.626,7.302,6.982,5.972,6.675,5.236,-0.051,0.918,-0.335,-0.610,-0.183,0.977,80.000,160934.000,1.000
-5.932,4.648,5.607,6.881,5.934,4.984,6.225,4.733,-0.048,0.917,-0.336,-0.549,-0.214,1.007,80.000,160935.000,1.000
-4.164,4.453,5.843,6.398,4.945,3.294,4.551,4.418,-0.048,0.920,-0.340,-0.427,-0.244,0.977,80.000,160936.000,1.000
-1.984,4.419,6.261,5.767,4.080,1.828,2.704,4.050,-0.048,0.919,-0.337,-0.519,-0.275,0.916,80.000,160937.000,1.000
-0.213,4.166,6.606,4.700,3.186,0.973,1.548,3.394,-0.048,0.922,-0.336,-0.580,-0.305,0.946,80.000,160938.000,1.000
0.619,3.378,6.463,3.076,2.123,0.298,1.023,2.405,-0.048,0.921,-0.335,-0.549,-0.397,1.068,80.000,160939.000,1.000
0.802,2.357,6.041,1.439,1.282,-0.393,1.021,1.654,-0.049,0.921,-0.333,-0.458,-0.427,1.007,80.000,160940.000,1.000
1.256,1.924,6.064,0.720,1.479,-0.522,1.945,2.058,-0.049,0.919,-0.334,-0.488,-0.458,1.068,80.000,160941.000,1.000
2.717,2.703,7.022,1.416,3.168,0.655,4.136,3.942,-0.050,0.919,-0.335,-0.427,-0.549,1.007,80.000,160942.000,1.000
5.222,4.701,9.048,3.230,5.974,3.319,7.405,6.711,-0.048,0.919,-0.335,-0.397,-0.580,1.007,80.000,160943.000,1.000
8.280,7.498,11.843,5.476,9.134,6.991,11.196,9.623,-0.050,0.919,-0.336,-0.458,-0.549,1.007,80.000,160944.000,1.000
11.331,10.583,15.087,7.738,12.103,10.815,15.058,12.517,-0.047,0.919,-0.337,-0.519,-0.610,1.160,80.000,160945.000,1.000
13.870,13.299,18.138,9.774,14.357,13.480,17.874,15.018,-0.048,0.917,-0.337,-0.519,-0.671,1.160,80.000,160946.000,1.000
15.394,14.784,19.829,11.108,15.019,13.278,17.473,15.698,-0.048,0.917,-0.336,-0.549,-0.671,1.068,80.000,160947.000,1.000
15.610,14.505,19.389,11.298,13.587,9.571,12.900,13.321,-0.048,0.918,-0.338,-0.458,-0.610,1.068,80.000,160948.000,1.000
14.688,12.874,16.946,10.399,10.824,4.176,6.195,8.411,-0.047,0.918,-0.334,-0.458,-0.702,1.068,80.000,160949.000,1.000
13.178,10.965,13.623,8.943,8.233,0.121,0.725,2.960,-0.048,0.918,-0.333,-0.397,-0.732,1.129,80.000,160950.000,1.000
11.610,9.564,10.660,7.530,6.816,-1.092,-1.855,-1.024,-0.048,0.919,-0.335,-0.427,-0.824,1.099,80.000,160951.000,1.000
10.315,8.768,8.752,6.673,6.738,-0.243,-2.012,-2.256,-0.046,0.917,-0.332,-0.366,-0.793,0.977,80.000,160952.000,1.000
9.494,8.390,8.298,6.910,7.840,1.350,-0.531,-0.273,-0.046,0.917,-0.335,-0.427,-0.824,0.977,80.000,160953.000,1.000
9.147,8.372,9.216,8.585,9.980,3.354,2.346,4.450,-0.046,0.918,-0.335,-0.427,-0.916,1.007,80.000,160954.000,1.000
8.980,8.780,11.064,11.518,12.883,6.054,6.569,10.655,-0.046,0.917,-0.337,-0.397,-0.885,1.038,80.000,160955.000,1.000
8.521,9.542,12.986,14.852,15.877,9.253,11.340,16.578,-0.046,0.917,-0.334,-0.488,-0.793,1.007,80.000,160956.000,1.000
7.550,10.396,14.066,17.468,18.024,12.035,15.065,20.405,-0.047,0.918,-0.332,-0.488,-0.885,0.916,80.000,160957.000,1.000
6.360,11.086,14.123,18.703,18.633,13.379,16.576,21.128,-0.048,0.920,-0.332,-0.458,-0.916,0.916,80.000,160958.000,1.000
5.408,11.417,13.401,18.486,17.564,12.814,15.684,18.904,-0.048,0.918,-0.334,-0.488,-1.099,0.885,80.000,160959.000,1.000
4.881,11.218,12.270,17.057,15.089,10.629,12.759,14.457,-0.045,0.917,-0.335,-0.488,-1.099,0.793,80.000,160960.000,1.000
4.716,10.408,10.943,14.768,11.702,7.534,8.154,8.483,-0.046,0.919,-0.334,-0.549,-1.099,0.824,80.000,160961.000,1.000
4.924,9.183,9.576,12.184,8.138,4.201,2.361,2.031,-0.047,0.919,-0.337,-0.580,-1.099,0.793,80.000,160962.000,1.000
5.639,7.988,8.578,10.053,5.286,1.211,-3.390,-3.173,-0.049,0.918,-0.336,-0.549,-1.099,0.763,80.000,160963.000,1.000
6.839,7.243,8.108,8.858,3.839,-0.736,-7.299,-5.508,-0.048,0.918,-0.334,-0.549,-1.160,0.732,80.000,160964.000,1.000
8.293,7.248,8.197,8.649,4.081,-0.747,-7.656,-4.371,-0.046,0.916,-0.336,-0.488,-1.251,0.641,80.000,160965.000,1.000
9.677,8.154,8.789,9.077,5.856,1.862,-3.954,-0.501,-0.046,0.918,-0.336,-0.488,-1.221,0.580,80.000,160966.000,1.000
10.555,9.837,9.632,9.528,8.564,6.853,2.371,4.388,-0.046,0.919,-0.337,-0.610,-1.190,0.549,80.000,160967.000,1.000
10.453,11.860,10.521,9.462,11.304,12.730,8.588,8.476,-0.047,0.920,-0.335,-0.519,-1.312,0.580,80.000,160968.000,1.000
9.265,13.729,11.235,8.752,13.309,17.344,12.228,10.728,-0.048,0.919,-0.335,-0.641,-1.282,0.580,80.000,160969.000,1.000
7.607,15.232,11.889,7.857,14.383,19.271,12.736,11.360,-0.050,0.919,-0.337,-0.610,-1.282,0.488,80.000,160970.000,1.000
6.392,16.356,12.618,7.362,14.734,18.647,11.382,11.229,-0.046,0.919,-0.338,-0.610,-1.312,0.427,80.000,160971.000,1.000
6.057,16.932,13.070,7.372,14.438,16.640,9.762,10.848,-0.047,0.918,-0.339,-0.641,-1.373,0.458,80.000,160972.000,1.000
6.394,16.629,12.765,7.507,13.385,14.461,8.835,10.182,-0.048,0.919,-0.337,-0.732,-1.495,0.580,80.000,160973.000,1.000
6.927,15.258,11.340,7.319,11.556,12.693,8.527,9.004,-0.047,0.919,-0.338,-0.671,-1.495,0.519,80.000,160974.000,1.000
7.289,12.953,9.023,6.738,9.154,10.982,7.983,7.368,-0.049,0.919,-0.337,-0.671,-1.465,0.519,80.000,160975.000,1.000
7.284,10.138,6.416,6.070,6.654,8.710,6.570,5.835,-0.047,0.917,-0.337,-0.671,-1.556,0.427,80.000,160976.000,1.000
6.729,7.382,3.982,5.662,4.699,5.982,4.689,5.148,-0.047,0.918,-0.333,-0.732,-1.587,0.427,80.000,160977.000,1.000
5.354,5.068,1.935,5.559,3.576,3.191,3.066,5.467,-0.048,0.919,-0.335,-0.793,-1.587,0.519,80.000,160978.000,1.000
3.008,3.193,-0.031,5.368,2.869,0.155,1.552,5.846,-0.046,0.920,-0.336,-0.671,-1.648,0.549,80.000,160979.000,1.000
0.081,1.634,-2.068,4.659,1.925,-3.374,-0.431,4.906,-0.047,0.918,-0.336,-0.824,-1.617,0.427,80.000,160980.000,1.000
-2.438,0.506,-3.724,3.506,0.638,-6.775,-2.852,2.239,-0.048,0.919,-0.336,-0.854,-1.709,0.397,80.000,160981.000,1.000
-3.407,0.245,-4.177,2.667,-0.236,-8.488,-4.585,-0.786,-0.048,0.919,-0.336,-0.824,-1.678,0.458,80.000,160982.000,1.000
-2.209,1.281,-2.741,3.007,0.278,-6.980,-4.091,-2.091,-0.049,0.920,-0.330,-0.854,-1.709,0.549,80.000,160983.000,1.000
0.795,3.514,0.265,4.571,2.353,-2.065,-1.103,-0.944,-0.050,0.920,-0.331,-0.977,-1.709,0.519,80.000,160984.000,1.000
4.524,6.295,3.959,6.599,5.274,4.758,3.314,1.775,-0.045,0.921,-0.334,-1.068,-1.801,0.580,80.000,160985.000,1.000
7.779,8.810,7.465,8.200,8.163,11.035,7.934,4.915,-0.046,0.922,-0.333,-0.946,-1.709,0.549,80.000,160986.000,1.000
9.658,10.395,9.979,8.734,10.346,14.377,11.523,7.733,-0.048,0.922,-0.336,-1.068,-1.801,0.488,80.000,160987.000,1.000
9.755,10.725,11.010,7.862,11.290,13.648,12.544,9.400,-0.046,0.919,-0.336,-1.068,-1.831,0.549,80.000,160988.000,1.000
8.245,9.873,10.328,5.624,10.721,9.679,9.798,8.901,-0.047,0.920,-0.334,-1.099,-1.831,0.580,80.000,160989.000,1.000
5.802,8.252,8.315,2.670,8.956,4.607,3.765,6.070,-0.046,0.920,-0.333,-1.221,-1.770,0.488,80.000,160990.000,1.000
3.248,6.390,5.715,-0.026,6.777,0.478,-3.354,2.010,-0.047,0.920,-0.334,-1.160,-1.770,0.488,80.000,160991.000,1.000
1.212,4.764,3.178,-1.721,4.989,-1.482,-8.861,-1.649,-0.048,0.918,-0.333,-1.160,-1.801,0.549,80.000,160992.000,1.000
0.013,3.747,1.300,-2.138,4.155,-0.898,-10.768,-3.449,-0.048,0.919,-0.334,-1.251,-1.892,0.488,80.000,160993.000,1.000
-0.476,3.448,0.232,-1.555,4.393,1.680,-8.755,-2.674,-0.045,0.919,-0.335,-1.190,-1.923,0.458,80.000,160994.000,1.000
-0.779,3.646,-0.200,-0.648,5.273,4.899,-4.180,0.245,-0.047,0.919,-0.332,-1.129,-1.740,0.519,80.000,160995.000,1.000
-1.371,4.060,-0.314,-0.033,6.171,7.555,0.979,3.977,-0.048,0.920,-0.331,-1.129,-1.770,0.397,80.000,160996.000,1.000
-2.212,4.676,-0.285,0.287,6.850,9.552,5.404,7.235,-0.050,0.919,-0.332,-1.282,-1.801,0.397,80.000,160997.000,1.000
-2.862,5.590,0.095,0.878,7.357,11.206,8.468,9.369,-0.048,0.920,-0.332,-1.282,-1.770,0.397,80.000,160998.000,1.000
-3.055,6.561,0.755,2.112,7.429,11.868,9.252,10.064,-0.049,0.918,-0.333,-1.251,-1.740,0.458,80.000,160999.000,1.000
-2.928,7.046,1.363,3.762,6.560,10.341,7.077,9.198,-0.048,0.919,-0.332,-1.251,-1.648,0.549,80.000,161000.000,1.000
-2.780,6.662,1.592,5.269,4.662,6.499,2.785,7.148,-0.047,0.917,-0.333,-1.129,-1.648,0.458,80.000,161001.000,1.000
-2.728,5.478,1.326,6.177,2.311,1.660,-1.492,4.786,-0.046,0.919,-0.335,-1.129,-1.556,0.458,80.000,161002.000,1.000
-2.728,3.876,0.891,6.313,0.200,-2.546,-4.069,2.812,-0.048,0.918,-0.335,-1.099,-1.587,0.458,80.000,161003.000,1.000
-2.772,2.352,0.649,5.763,-1.249,-4.860,-4.771,1.387,-0.047,0.917,-0.334,-1.068,-1.587,0.519,80.000,161004.000,1.000
-2.935,1.451,0.952,4.852,-1.779,-4.222,-3.964,0.498,-0.045,0.917,-0.333,-1.068,-1.587,0.549,80.000,161005.000,1.000
-3.401,1.399,1.778,3.751,-1.475,-0.463,-2.072,-0.096,-0.047,0.917,-0.333,-1.007,-1.495,0.519,80.000,161006.000,1.000
-4.240,1.816,2.614,2.378,-0.899,4.633,-0.051,-0.925,-0.047,0.918,-0.334,-0.793,-1.556,0.549,80.000,161007.000,1.000
-5.000,2.060,3.144,0.899,-0.556,8.106,1.150,-2.058,-0.048,0.918,-0.335,-0.854,-1.587,0.610,80.000,161008.000,1.000
-4.937,1.747,3.277,-0.230,-0.405,8.261,1.528,-2.829,-0.045,0.919,-0.336,-0.763,-1.526,0.580,80.000,161009.000,1.000
-3.759,0.848,3.127,-0.727,-0.120,5.886,1.919,-2.551,-0.046,0.920,-0.335,-0.732,-1.495,0.610,80.000,161010.000,1.000
-2.000,-0.582,2.738,-0.811,0.248,2.803,2.475,-1.432,-0.047,0.920,-0.332,-0.610,-1.434,0.702,80.000,161011.000,1.000
-0.617,-2.589,1.944,-1.042,0.056,-0.154,1.929,-0.646,-0.046,0.919,-0.334,-0.732,-1.434,0.671,80.000,161012.000,1.000
-0.152,-4.990,0.888,-1.772,-1.195,-2.945,-0.653,-1.200,-0.049,0.919,-0.333,-0.549,-1.434,0.580,80.000,161013.000,1.000
-0.206,-6.947,0.103,-2.723,-2.914,-4.830,-4.056,-2.748,-0.049,0.918,-0.334,-0.580,-1.373,0.610,80.000,161014.000,1.000
0.179,-7.368,0.321,-3.146,-3.724,-4.573,-5.706,-3.748,-0.051,0.920,-0.335,-0.580,-1.343,0.549,80.000,161015.000,1.000
1.431,-5.874,1.584,-2.671,-2.807,-1.954,-4.197,-2.921,-0.048,0.921,-0.331,-0.549,-1.312,0.519,80.000,161016.000,1.000
2.991,-2.964,3.014,-1.660,-0.413,2.229,0.150,-0.065,-0.049,0.920,-0.334,-0.549,-1.282,0.549,80.000,161017.000,1.000
3.925,0.605,3.812,-0.673,2.832,7.454,6.800,4.419,-0.048,0.921,-0.334,-0.519,-1.373,0.519,80.000,161018.000,1.000
3.598,4.053,3.534,-0.099,6.327,13.501,15.109,9.813,-0.048,0.922,-0.335,-0.580,-1.343,0.549,80.000,161019.000,1.000
1.835,6.388,2.095,-0.198,9.130,19.141,23.173,14.748,-0.048,0.923,-0.333,-0.702,-1.221,0.519,80.000,161020.000,1.000
-1.222,6.473,-0.486,-1.267,9.804,21.714,27.747,17.118,-0.047,0.921,-0.333,-0.671,-1.190,0.610,80.000,161021.000,1.000
-5.170,3.650,-4.087,-3.471,7.204,18.773,25.982,15.133,-0.048,0.921,-0.333,-0.519,-1.190,0.641,80.000,161022.000,1.000
-9.314,-1.485,-7.989,-6.362,1.651,10.452,17.802,8.990,-0.049,0.921,-0.331,-0.580,-1.282,0.641,80.000,161023.000,1.000
-12.868,-7.101,-11.214,-8.870,-4.862,-0.029,6.460,1.230,-0.049,0.919,-0.333,-0.580,-1.282,0.671,80.000,161024.000,1.000
-15.209,-11.047,-12.846,-9.863,-9.847,-8.427,-3.448,-4.890,-0.051,0.916,-0.335,-0.549,-1.190,0.793,80.000,161025.000,1.000
-16.031,-11.916,-12.334,-8.823,-11.707,-11.924,-8.776,-7.494,-0.050,0.913,-0.336,-0.488,-1.221,0.824,80.000,161026.000,1.000
-15.499,-9.644,-9.737,-6.127,-10.362,-10.251,-9.096,-6.837,-0.049,0.914,-0.333,-0.397,-1.160,0.793,80.000,161027.000,1.000
-14.304,-5.573,-5.776,-2.896,-7.125,-5.583,-6.237,-4.635,-0.048,0.914,-0.333,-0.305,-1.251,0.763,80.000,161028.000,1.000
-13.351,-1.827,-1.970,-0.492,-3.946,-1.230,-3.108,-2.874,-0.049,0.915,-0.336,-0.183,-1.160,0.793,80.000,161029.000,1.000
-13.109,-0.086,0.340,0.344,-2.253,0.420,-1.879,-2.576,-0.049,0.915,-0.334,-0.122,-1.190,0.885,80.000,161030.000,1.000
-13.316,-0.713,0.785,-0.103,-2.229,-0.851,-2.815,-3.367,-0.049,0.916,-0.336,-0.031,-1.190,0.854,80.000,161031.000,1.000
-13.316,-2.823,-0.141,-0.969,-3.085,-3.584,-4.724,-4.180,-0.050,0.915,-0.334,-0.061,-1.251,0.793,80.000,161032.000,1.000
-12.611,-5.089,-1.512,-1.608,-3.960,-6.097,-6.302,-4.431,-0.049,0.919,-0.335,0.061,-1.312,0.793,80.000,161033.000,1.000
-11.167,-6.643,-2.750,-2.046,-4.594,-7.609,-7.217,-4.476,-0.048,0.921,-0.334,0.000,-1.251,0.854,80.000,161034.000,1.000
-9.307,-7.325,-3.524,-2.595,-5.154,-8.191,-7.635,-4.763,-0.049,0.919,-0.335,0.092,-1.190,0.702,80.000,161035.000,1.000
-7.345,-7.121,-3.509,-3.190,-5.439,-7.640,-7.066,-4.875,-0.048,0.920,-0.336,-0.031,-1.251,0.732,80.000,161036.000,1.000
-5.497,-5.917,-2.685,-3.393,-4.818,-5.282,-4.652,-3.840,-0.048,0.920,-0.334,-0.031,-1.221,0.763,80.000,161037.000,1.000
-4.403,-4.294,-1.848,-3.275,-3.424,-1.651,-0.834,-1.533,-0.047,0.920,-0.332,-0.092,-1.312,0.732,80.000,161038.000,1.000
-5.261,-3.839,-2.738,-3.877,-2.675,0.847,2.213,0.729,-0.046,0.920,-0.333,-0.153,-1.251,0.732,80.000,161039.000,1.000
-8.852,-5.854,-6.503,-6.271,-4.009,-0.078,2.440,1.332,-0.046,0.917,-0.334,-0.214,-1.190,0.824,80.000,161040.000,1.000
-14.730,-10.208,-12.685,-10.546,-7.598,-4.583,-0.650,-0.444,-0.044,0.918,-0.335,-0.397,-1.129,0.824,80.000,161041.000,1.000
-21.414,-15.521,-19.619,-15.700,-12.297,-10.574,-5.799,-4.112,-0.043,0.918,-0.336,-0.397,-1.099,0.885,80.000,161042.000,1.000
-27.098,-20.044,-25.179,-20.145,-16.356,-15.040,-10.380,-8.231,-0.042,0.915,-0.335,-0.427,-0.977,0.946,80.000,161043.000,1.000
-30.510,-22.634,-28.098,-22.657,-18.527,-16.129,-12.204,-11.333,-0.043,0.914,-0.335,-0.458,-0.824,1.099,80.000,161044.000,1.000
-31.557,-23.355,-28.542,-23.091,-18.935,-14.471,-11.445,-12.934,-0.046,0.914,-0.338,-0.397,-0.702,1.160,80.000,161045.000,1.000
-31.266,-23.264,-27.880,-22.410,-18.914,-12.345,-10.446,-13.869,-0.047,0.914,-0.333,-0.397,-0.580,1.099,80.000,161046.000,1.000
-30.923,-23.532,-27.721,-21.934,-19.874,-11.646,-11.547,-15.497,-0.049,0.915,-0.334,-0.458,-0.549,1.160,80.000,161047.000,1.000
-31.179,-24.726,-28.726,-22.400,-22.314,-12.969,-15.349,-18.454,-0.049,0.917,-0.335,-0.580,-0.671,1.221,80.000,161048.000,1.000
-31.904,-26.719,-30.639,-23.725,-25.721,-16.014,-20.868,-22.287,-0.047,0.919,-0.337,-0.519,-0.763,1.221,80.000,161049.000,1.000
-32.561,-28.933,-32.641,-25.261,-29.012,-19.978,-26.194,-25.758,-0.045,0.921,-0.338,-0.580,-0.641,1.282,80.000,161050.000,1.000
-32.599,-30.673,-33.976,-26.249,-31.092,-23.818,-29.294,-27.307,-0.043,0.921,-0.339,-0.580,-0.641,1.312,80.000,161051.000,1.000
-31.754,-31.463,-34.425,-26.287,-31.443,-26.677,-29.148,-26.064,-0.042,0.921,-0.341,-0.610,-0.610,1.373,80.000,161052.000,1.000
-30.232,-31.264,-34.096,-25.616,-30.471,-28.097,-26.484,-23.042,-0.044,0.921,-0.339,-0.671,-0.549,1.343,80.000,161053.000,1.000
-28.619,-30.457,-33.385,-24.974,-29.230,-28.068,-23.442,-20.781,-0.047,0.921,-0.342,-0.702,-0.519,1.190,80.000,161054.000,1.000
-27.400,-29.518,-32.453,-24.791,-28.473,-26.904,-21.695,-20.933,-0.047,0.920,-0.337,-0.793,-0.519,1.221,80.000,161055.000,1.000
-26.501,-28.649,-31.075,-24.666,-27.933,-24.868,-20.848,-22.540,-0.049,0.918,-0.336,-0.732,-0.580,1.129,80.000,161056.000,1.000
-25.447,-27.815,-29.159,-23.870,-26.814,-22.135,-19.129,-23.187,-0.049,0.919,-0.337,-0.702,-0.519,1.038,80.000,161057.000,1.000
-23.984,-27.044,-27.080,-22.264,-24.931,-19.140,-15.599,-21.613,-0.050,0.922,-0.335,-0.793,-0.580,0.916,80.000,161058.000,1.000
-22.452,-26.556,-25.812,-20.607,-23.106,-16.796,-11.600,-18.850,-0.049,0.926,-0.334,-0.763,-0.549,0.824,80.000,161059.000,1.000
-21.591,-26.695,-26.185,-19.909,-22.573,-16.533,-9.873,-17.071,-0.050,0.926,-0.336,-0.885,-0.641,0.641,80.000,161060.000,1.000
-22.062,-27.696,-28.301,-20.687,-24.079,-19.471,-12.283,-17.767,-0.049,0.928,-0.334,-1.221,-0.702,0.580,80.000,161061.000,1.000
-23.908,-29.229,-31.390,-22.538,-27.116,-24.772,-17.886,-20.469,-0.049,0.930,-0.334,-1.282,-0.824,0.519,80.000,161062.000,1.000
-26.385,-30.323,-33.920,-24.234,-30.002,-29.541,-23.116,-22.819,-0.048,0.929,-0.337,-1.465,-0.732,0.427,80.000,161063.000,1.000
-28.415,-30.066,-34.697,-24.555,-31.104,-31.164,-24.608,-22.467,-0.045,0.930,-0.335,-1.678,-0.885,0.427,80.000,161064.000,1.000
-29.242,-28.411,-33.608,-23.279,-30.212,-29.579,-22.018,-19.283,-0.047,0.929,-0.333,-1.862,-0.854,0.214,80.000,161065.000,1.000
-28.828,-26.225,-31.583,-21.463,-28.597,-26.944,-18.125,-15.587,-0.046,0.927,-0.333,-2.045,-0.824,0.305,80.000,161066.000,1.000
-27.544,-24.266,-29.586,-20.348,-27.340,-24.959,-15.782,-13.725,-0.046,0.924,-0.334,-2.106,-0.732,0.275,80.000,161067.000,1.000
-25.475,-22.108,-27.245,-19.788,-25.622,-22.616,-14.537,-13.360,-0.048,0.922,-0.335,-2.167,-0.763,0.214,80.000,161068.000,1.000
-22.269,-18.405,-23.270,-18.234,-21.267,-17.056,-11.261,-11.810,-0.048,0.921,-0.334,-2.106,-0.763,0.153,80.000,161069.000,1.000
-17.727,-12.551,-16.961,-14.473,-13.472,-7.293,-4.631,-7.445,-0.046,0.917,-0.332,-2.045,-0.824,0.244,80.000,161070.000,1.000
-12.394,-5.909,-9.473,-9.194,-4.593,3.255,2.006,-2.160,-0.047,0.914,-0.330,-1.953,-0.854,0.244,80.000,161071.000,1.000
-7.302,-0.909,-3.232,-4.421,1.491,8.953,3.470,0.469,-0.048,0.913,-0.332,-1.862,-0.916,0.275,80.000,161072.000,1.000
-3.212,0.934,0.121,-1.701,2.543,6.647,-2.277,-1.234,-0.048,0.912,-0.336,-1.770,-0.916,0.275,80.000,161073.000,1.000
-0.337,-0.087,0.545,-1.215,-0.641,-1.909,-12.444,-5.863,-0.052,0.913,-0.334,-1.740,-0.946,0.244,80.000,161074.000,1.000
1.473,-2.388,-0.628,-2.022,-5.085,-11.379,-21.164,-10.112,-0.052,0.914,-0.330,-1.648,-1.068,0.183,80.000,161075.000,1.000
2.549,-4.222,-1.729,-2.808,-7.592,-16.379,-23.207,-10.897,-0.052,0.914,-0.330,-1.465,-1.068,0.305,80.000,161076.000,1.000
3.331,-4.570,-1.751,-2.615,-6.482,-14.607,-17.265,-7.086,-0.054,0.915,-0.331,-1.373,-1.160,0.275,80.000,161077.000,1.000
4.259,-3.417,-0.463,-1.223,-2.207,-7.745,-6.288,0.228,-0.053,0.914,-0.330,-1.343,-1.190,0.275,80.000,161078.000,1.000
5.611,-1.507,1.569,0.772,3.140,-0.048,4.638,8.392,-0.053,0.914,-0.329,-1.160,-1.221,0.244,80.000,161079.000,1.000
7.481,0.273,3.525,2.356,7.087,4.481,11.320,14.280,-0.052,0.914,-0.328,-1.007,-1.465,0.305,80.000,161080.000,1.000
9.867,1.500,4.918,2.795,8.258,4.570,12.588,15.795,-0.052,0.912,-0.333,-1.068,-1.465,0.397,80.000,161081.000,1.000
12.718,2.332,5.725,2.110,6.967,1.726,10.004,12.980,-0.052,0.912,-0.332,-0.977,-1.587,0.427,80.000,161082.000,1.000
15.797,3.006,6.246,0.903,4.430,-1.987,5.684,7.499,-0.051,0.912,-0.333,-0.793,-1.587,0.519,80.000,161083.000,1.000
18.571,3.505,6.550,-0.151,1.799,-5.417,0.814,1.355,-0.049,0.912,-0.333,-0.702,-1.587,0.549,80.000,161084.000,1.000
20.451,3.934,6.698,-0.414,0.159,-7.605,-3.430,-3.352,-0.049,0.912,-0.332,-0.610,-1.648,0.549,80.000,161085.000,1.000
21.055,4.792,6.960,0.651,0.662,-7.062,-5.107,-4.470,-0.048,0.912,-0.333,-0.519,-1.709,0.671,80.000,161086.000,1.000
20.263,6.620,7.601,3.173,3.959,-2.570,-2.657,-0.788,-0.049,0.915,-0.334,-0.427,-1.678,0.732,80.000,161087.000,1.000
18.282,9.507,8.867,6.756,9.619,5.669,3.859,7.021,-0.049,0.916,-0.332,-0.397,-1.648,0.763,80.000,161088.000,1.000
15.700,12.913,10.647,10.616,16.189,15.723,12.568,16.519,-0.049,0.917,-0.329,-0.214,-1.709,0.885,80.000,161089.000,1.000
13.392,15.884,12.522,13.885,21.673,24.509,20.427,24.398,-0.050,0.919,-0.329,-0.214,-1.740,0.916,80.000,161090.000,1.000
12.171,17.554,14.012,15.938,24.320,29.156,24.381,27.785,-0.048,0.920,-0.332,-0.305,-1.770,1.038,80.000,161091.000,1.000
12.411,17.744,14.869,16.751,23.590,28.610,23.040,25.802,-0.046,0.921,-0.332,-0.305,-1.770,1.038,80.000,161092.000,1.000
13.883,17.058,15.399,16.909,20.484,24.219,17.777,20.214,-0.045,0.921,-0.334,-0.305,-1.740,1.068,80.000,161093.000,1.000
15.853,16.320,15.931,17.000,16.752,18.681,11.761,14.132,-0.045,0.921,-0.332,-0.427,-1.678,1.099,80.000,161094.000,1.000
17.405,15.912,16.461,17.116,13.672,14.250,7.716,9.846,-0.047,0.920,-0.333,-0.458,-1.526,1.038,80.000,161095.000,1.000
17.733,15.544,16.478,16.799,11.406,11.551,6.102,7.574,-0.046,0.922,-0.334,-0.488,-1.495,1.160,80.000,161096.000,1.000
16.492,14.628,15.222,15.509,9.346,9.816,5.364,6.055,-0.044,0.922,-0.336,-0.549,-1.434,1.129,80.000,161097.000,1.000
14.192,12.981,12.611,13.286,7.004,8.167,4.051,4.159,-0.044,0.921,-0.338,-0.519,-1.373,1.129,80.000,161098.000,1.000
12.208,11.268,9.573,10.996,4.745,6.891,2.502,1.993,-0.043,0.923,-0.334,-0.580,-1.221,1.221,80.000,161099.000,1.000
12.109,10.645,7.779,9.954,3.680,7.215,2.532,0.830,-0.043,0.924,-0.334,-0.702,-1.129,1.221,80.000,161100.000,1.000
14.606,11.714,8.455,10.974,4.554,9.538,5.060,1.795,-0.041,0.923,-0.331,-0.793,-1.129,1.282,80.000,161101.000,1.000
19.038,13.921,11.276,13.631,6.795,12.407,8.468,4.493,-0.043,0.925,-0.334,-0.916,-1.038,1.251,80.000,161102.000,1.000
23.840,15.999,14.749,16.492,8.848,13.522,9.832,7.087,-0.044,0.925,-0.338,-0.977,-0.854,1.190,80.000,161103.000,1.000
27.505,16.926,17.155,18.055,9.416,11.550,7.430,7.854,-0.044,0.926,-0.339,-1.129,-0.824,1.221,80.000,161104.000,1.000
29.337,16.643,17.739,17.740,8.476,7.352,2.536,6.838,-0.042,0.925,-0.338,-1.160,-0.763,1.190,80.000,161105.000,1.000
29.577,15.924,16.916,16.039,7.115,3.460,-1.402,5.630,-0.044,0.927,-0.334,-1.282,-0.763,1.221,80.000,161106.000,1.000
28.976,15.505,15.398,13.801,6.349,1.882,-1.956,5.369,-0.044,0.928,-0.332,-1.434,-0.610,1.160,80.000,161107.000,1.000
28.252,15.438,13.738,11.613,6.236,2.416,0.265,5.542,-0.045,0.925,-0.333,-1.526,-0.610,1.038,80.000,161108.000,1.000
27.751,15.301,12.242,9.760,6.239,3.323,2.790,5.016,-0.044,0.921,-0.333,-1.587,-0.641,1.068,80.000,161109.000,1.000
27.499,14.899,11.337,8.564,6.239,3.468,4.158,3.804,-0.044,0.922,-0.333,-1.617,-0.580,0.946,80.000,161110.000,1.000
27.417,14.568,11.563,8.471,6.888,3.443,5.133,3.358,-0.043,0.917,-0.332,-1.648,-0.549,0.885,80.000,161111.000,1.000
27.514,14.843,13.055,9.697,8.846,4.553,7.137,5.116,-0.042,0.916,-0.331,-1.648,-0.427,0.824,80.000,161112.000,1.000
27.885,15.850,15.321,11.733,11.686,6.929,9.918,8.646,-0.042,0.915,-0.333,-1.587,-0.305,0.763,80.000,161113.000,1.000
28.556,17.138,17.260,13.396,13.981,9.180,11.310,11.575,-0.043,0.918,-0.335,-1.434,-0.244,0.641,80.000,161114.000,1.000
29.491,18.276,18.167,13.888,14.832,10.255,9.965,12.059,-0.044,0.921,-0.335,-1.434,-0.244,0.702,80.000,161115.000,1.000
30.651,19.305,18.322,13.536,14.860,10.834,7.442,10.762,-0.044,0.924,-0.335,-1.404,-0.214,0.732,80.000,161116.000,1.000
31.833,20.312,18.302,13.168,15.245,12.159,6.654,9.771,-0.045,0.921,-0.333,-1.404,-0.244,0.702,80.000,161117.000,1.000
32.506,20.857,18.220,13.070,16.144,14.101,8.776,10.102,-0.045,0.917,-0.334,-1.373,-0.244,0.763,80.000,161118.000,1.000
32.098,20.293,17.651,12.875,16.653,15.258,12.270,11.003,-0.045,0.913,-0.335,-1.434,-0.153,0.885,80.000,161119.000,1.000
30.679,18.683,16.634,12.420,16.187,14.729,14.965,11.494,-0.044,0.911,-0.335,-1.373,-0.031,0.885,80.000,161120.000,1.000
29.044,16.879,15.924,12.054,15.165,12.934,16.072,11.497,-0.047,0.911,-0.333,-1.282,0.031,0.854,80.000,161121.000,1.000
28.015,15.675,16.059,12.077,14.334,10.926,16.114,11.405,-0.049,0.913,-0.333,-1.068,-0.061,0.763,80.000,161122.000,1.000
27.873,15.229,17.007,12.432,14.084,9.626,16.066,11.515,-0.053,0.916,-0.334,-0.854,-0.183,0.671,80.000,161123.000,1.000
28.379,15.268,18.308,12.923,14.446,9.516,16.603,12.135,-0.055,0.918,-0.331,-0.824,-0.336,0.549,80.000,161124.000,1.000
29.019,15.498,19.628,13.554,15.380,10.610,18.014,13.932,-0.056,0.918,-0.331,-0.824,-0.427,0.580,80.000,161125.000,1.000
29.203,15.735,20.907,14.438,16.862,12.753,20.539,17.554,-0.055,0.921,-0.331,-0.885,-0.580,0.458,80.000,161126.000,1.000
28.531,15.890,21.999,15.428,18.723,15.936,24.275,22.543,-0.054,0.922,-0.334,-0.916,-0.854,0.366,80.000,161127.000,1.000
26.927,15.892,22.581,15.992,20.463,20.056,28.685,26.966,-0.053,0.921,-0.333,-1.038,-0.977,0.397,80.000,161128.000,1.000
24.463,15.522,21.996,15.438,21.267,24.163,32.162,28.430,-0.052,0.918,-0.333,-1.007,-1.068,0.366,80.000,161129.000,1.000
21.243,14.415,19.660,13.364,20.307,26.307,32.595,25.618,-0.053,0.918,-0.333,-0.977,-1.312,0.275,80.000,161130.000,1.000
17.524,12.378,15.621,9.934,17.343,24.821,28.914,19.175,-0.052,0.920,-0.334,-1.007,-1.465,0.275,80.000,161131.000,1.000
13.842,9.784,10.717,5.916,13.182,19.965,22.248,11.569,-0.053,0.919,-0.335,-1.007,-1.526,0.366,80.000,161132.000,1.000
10.950,7.569,6.489,2.569,9.486,14.122,15.549,6.058,-0.051,0.920,-0.330,-0.885,-1.495,0.336,80.000,161133.000,1.000
9.548,6.735,4.294,1.074,7.900,10.355,11.794,5.035,-0.049,0.921,-0.332,-0.916,-1.587,0.366,80.000,161134.000,1.000
9.973,7.721,4.672,1.854,9.001,10.362,12.027,8.552,-0.050,0.922,-0.331,-1.038,-1.648,0.305,80.000,161135.000,1.000
11.920,10.059,7.188,4.330,11.809,13.192,14.540,14.114,-0.049,0.921,-0.333,-1.038,-1.617,0.397,80.000,161136.000,1.000
14.471,12.728,10.740,7.431,14.592,16.194,16.438,18.483,-0.048,0.922,-0.331,-1.007,-1.740,0.580,80.000,161137.000,1.000
16.564,14.945,14.390,10.401,16.348,17.642,16.587,20.207,-0.049,0.923,-0.332,-0.916,-1.801,0.641,80.000,161138.000,1.000
17.559,16.535,17.522,13.015,17.284,18.046,16.205,20.083,-0.048,0.924,-0.330,-1.099,-1.709,0.824,80.000,161139.000,1.000
17.506,17.597,19.834,15.242,17.840,18.467,16.486,19.349,-0.048,0.923,-0.328,-1.129,-1.801,0.824,80.000,161140.000,1.000
17.020,18.090,21.189,16.902,17.785,18.357,16.704,18.204,-0.047,0.923,-0.330,-1.068,-1.801,0.885,80.000,161141.000,1.000
16.796,17.836,21.303,17.675,16.522,16.056,15.147,16.108,-0.048,0.922,-0.329,-1.221,-1.831,0.946,80.000,161142.000,1.000
16.993,16.588,19.912,17.202,13.679,10.772,10.887,12.462,-0.049,0.923,-0.330,-1.251,-1.923,0.916,80.000,161143.000,1.000
17.146,14.176,16.981,15.279,9.373,3.473,4.113,6.940,-0.050,0.920,-0.333,-1.068,-1.953,1.099,80.000,161144.000,1.000
16.838,10.985,13.280,12.417,4.543,-3.464,-3.715,0.311,-0.050,0.921,-0.331,-1.221,-1.953,1.038,80.000,161145.000,1.000
16.218,8.011,10.297,9.858,0.723,-7.550,-10.169,-5.462,-0.048,0.923,-0.328,-1.221,-1.984,1.007,80.000,161146.000,1.000
15.754,6.099,9.043,8.561,-1.135,-8.018,-13.696,-8.820,-0.047,0.922,-0.331,-1.129,-2.045,0.946,80.000,161147.000,1.000
15.688,5.315,9.421,8.430,-1.443,-6.479,-14.793,-9.853,-0.046,0.920,-0.330,-1.160,-1.984,0.946,80.000,161148.000,1.000
15.854,5.121,10.395,8.604,-1.401,-5.637,-15.010,-9.746,-0.048,0.918,-0.332,-1.160,-1.953,0.977,80.000,161149.000,1.000
15.941,4.940,10.838,8.273,-1.950,-7.291,-15.305,-9.615,-0.046,0.918,-0.332,-1.068,-1.923,0.946,80.000,161150.000,1.000
15.739,4.568,10.269,7.159,-3.199,-11.047,-15.510,-9.959,-0.045,0.918,-0.334,-1.038,-1.892,0.916,80.000,161151.000,1.000
15.282,4.389,9.082,5.688,-4.339,-14.467,-14.651,-10.384,-0.044,0.919,-0.335,-0.946,-1.831,0.916,80.000,161152.000,1.000
14.875,5.123,8.404,4.802,-4.159,-14.864,-11.737,-9.788,-0.046,0.920,-0.332,-0.977,-1.740,0.793,80.000,161153.000,1.000
14.821,7.078,9.047,5.160,-2.112,-11.546,-7.032,-7.491,-0.045,0.918,-0.331,-0.946,-1.648,0.732,80.000,161154.000,1.000
15.052,9.747,10.961,6.542,1.080,-6.335,-2.298,-4.140,-0.046,0.920,-0.331,-0.854,-1.648,0.763,80.000,161155.000,1.000
15.153,12.200,13.473,8.106,4.035,-1.794,0.603,-1.282,-0.047,0.918,-0.328,-0.824,-1.587,0.580,80.000,161156.000,1.000
14.717,13.757,15.688,9.152,5.861,0.742,1.214,0.079,-0.043,0.918,-0.332,-0.763,-1.617,0.519,80.000,161157.000,1.000
13.515,14.170,17.048,9.567,6.611,1.363,0.669,0.446,-0.044,0.916,-0.333,-0.732,-1.434,0.427,80.000,161158.000,1.000
11.422,13.517,17.336,9.607,6.895,0.887,0.611,1.191,-0.044,0.918,-0.332,-0.610,-1.343,0.397,80.000,161159.000,1.000
8.508,12.156,16.607,9.501,7.278,0.508,2.088,3.091,-0.045,0.917,-0.332,-0.580,-1.251,0.397,80.000,161160.000,1.000
5.042,10.462,14.943,9.123,7.693,0.983,4.515,5.373,-0.047,0.916,-0.331,-0.549,-1.312,0.336,80.000,161161.000,1.000
1.360,8.536,12.237,8.101,7.418,1.753,5.624,6.278,-0.046,0.915,-0.331,-0.488,-1.190,0.275,80.000,161162.000,1.000
-2.028,6.447,8.771,6.423,5.945,1.653,3.687,4.828,-0.045,0.918,-0.332,-0.336,-1.160,0.275,80.000,161163.000,1.000
-4.446,4.523,5.280,4.555,3.587,0.240,-0.708,1.622,-0.046,0.918,-0.331,-0.397,-1.068,0.244,80.000,161164.000,1.000
-5.557,3.051,2.425,2.901,1.068,-2.016,-5.404,-1.948,-0.046,0.920,-0.331,-0.275,-1.129,0.153,80.000,161165.000,1.000
-5.889,1.859,0.291,1.370,-1.158,-4.212,-8.424,-4.890,-0.048,0.918,-0.333,-0.275,-1.099,0.092,80.000,161166.000,1.000
-6.620,0.435,-1.645,-0.452,-3.120,-5.516,-9.178,-7.183,-0.049,0.920,-0.331,-0.214,-1.038,0.183,80.000,161167.000,1.000
-8.636,-1.631,-3.791,-2.717,-5.104,-5.909,-8.580,-9.280,-0.051,0.920,-0.328,-0.305,-1.068,0.183,80.000,161168.000,1.000
-11.814,-4.404,-6.219,-5.073,-7.300,-6.420,-8.219,-11.304,-0.050,0.920,-0.328,-0.214,-1.068,0.153,80.000,161169.000,1.000
-15.117,-7.497,-8.689,-6.894,-9.491,-7.930,-8.875,-12.776,-0.052,0.921,-0.333,-0.305,-1.129,0.183,80.000,161170.000,1.000
-17.280,-10.135,-10.737,-7.664,-11.039,-9.926,-9.808,-12.934,-0.051,0.921,-0.335,-0.397,-1.038,0.183,80.000,161171.000,1.000
-17.471,-11.524,-11.977,-7.242,-11.280,-10.920,-9.616,-11.324,-0.051,0.923,-0.331,-0.397,-1.160,0.183,80.000,161172.000,1.000
-15.704,-11.416,-12.217,-5.987,-10.071,-9.795,-7.413,-8.269,-0.052,0.922,-0.329,-0.458,-1.129,0.183,80.000,161173.000,1.000
-13.010,-10.407,-11.834,-4.794,-8.080,-6.648,-3.709,-5.069,-0.052,0.923,-0.329,-0.549,-1.221,0.122,80.000,161174.000,1.000
-10.966,-9.557,-11.586,-4.640,-6.489,-2.715,-0.422,-3.467,-0.052,0.924,-0.330,-0.549,-1.190,0.153,80.000,161175.000,1.000
-10.692,-9.648,-11.983,-5.922,-6.320,0.040,0.227,-4.518,-0.052,0.924,-0.330,-0.763,-1.343,0.275,80.000,161176.000,1.000
-12.202,-10.727,-12.971,-8.214,-7.857,-0.289,-2.802,-7.802,-0.052,0.922,-0.329,-0.732,-1.373,0.336,80.000,161177.000,1.000
-14.542,-12.068,-13.801,-10.482,-10.360,-4.065,-8.286,-11.526,-0.052,0.921,-0.329,-0.793,-1.373,0.305,80.000,161178.000,1.000
-16.505,-12.620,-13.633,-11.684,-12.370,-9.373,-13.177,-13.559,-0.052,0.921,-0.327,-0.854,-1.404,0.366,80.000,161179.000,1.000
-17.300,-11.712,-12.150,-11.369,-12.665,-13.274,-14.528,-12.829,-0.052,0.921,-0.328,-0.854,-1.495,0.458,80.000,161180.000,1.000
-16.811,-9.502,-9.731,-9.938,-11.145,-13.852,-11.554,-10.104,-0.051,0.921,-0.330,-0.885,-1.587,0.488,80.000,161181.000,1.000
-15.415,-6.784,-7.213,-8.285,-8.715,-11.154,-5.950,-7.240,-0.050,0.920,-0.331,-0.793,-1.709,0.519,80.000,161182.000,1.000
-13.585,-4.368,-5.102,-7.033,-6.372,-6.599,-0.145,-5.513,-0.050,0.923,-0.332,-0.916,-1.648,0.580,80.000,161183.000,1.000
-11.758,-2.694,-3.505,-6.289,-4.653,-1.978,4.111,-5.141,-0.050,0.922,-0.332,-0.854,-1.709,0.641,80.000,161184.000,1.000
-10.405,-1.930,-2.412,-5.923,-3.773,1.155,5.967,-5.938,-0.048,0.921,-0.331,-0.977,-1.648,0.671,80.000,161185.000,1.000
-9.947,-2.185,-1.851,-5.801,-3.715,1.963,5.437,-7.501,-0.049,0.920,-0.331,-0.946,-1.709,0.763,80.000,161186.000,1.000
-10.492,-3.437,-1.956,-5.716,-4.034,0.748,3.348,-8.745,-0.050,0.920,-0.333,-0.916,-1.709,0.763,80.000,161187.000,1.000
-11.783,-5.411,-2.645,-5.394,-4.000,-1.290,1.049,-8.231,-0.048,0.922,-0.333,-0.854,-1.740,0.824,80.000,161188.000,1.000
-13.541,-7.760,-3.836,-4.928,-3.380,-2.996,-0.603,-5.755,-0.049,0.921,-0.330,-0.885,-1.740,0.854,80.000,161189.000,1.000
-15.628,-10.270,-5.610,-4.892,-2.830,-3.863,-1.856,-3.097,-0.049,0.920,-0.332,-0.885,-1.648,0.854,80.000,161190.000,1.000
-17.758,-12.763,-7.848,-5.779,-3.257,-3.951,-3.411,-2.596,-0.047,0.921,-0.331,-0.946,-1.709,0.946,80.000,161191.000,1.000
-19.353,-14.968,-10.124,-7.482,-5.008,-3.736,-5.628,-5.157,-0.046,0.920,-0.333,-0.916,-1.709,0.885,80.000,161192.000,1.000
-19.947,-16.696,-11.911,-9.377,-7.771,-4.110,-8.420,-9.786,-0.047,0.919,-0.333,-0.885,-1.648,0.916,80.000,161193.000,1.000
-19.617,-18.063,-13.164,-10.860,-10.986,-5.998,-11.674,-14.709,-0.045,0.917,-0.332,-0.885,-1.495,0.977,80.000,161194.000,1.000
-18.838,-19.248,-14.180,-11.533,-13.967,-9.428,-15.054,-18.280,-0.044,0.917,-0.332,-0.763,-1.404,0.977,80.000,161195.000,1.000
-18.046,-20.074,-15.019,-11.120,-15.831,-12.996,-17.445,-19.232,-0.044,0.918,-0.331,-0.763,-1.343,0.854,80.000,161196.000,1.000
-17.471,-20.096,-15.587,-9.671,-15.920,-14.737,-17.450,-17.227,-0.044,0.918,-0.333,-0.702,-1.190,0.946,80.000,161197.000,1.000
-17.085,-19.043,-15.779,-7.691,-14.364,-13.621,-14.542,-13.195,-0.044,0.917,-0.331,-0.519,-1.129,0.916,80.000,161198.000,1.000
-16.452,-16.963,-15.500,-5.742,-11.942,-10.199,-9.702,-8.641,-0.044,0.920,-0.333,-0.427,-1.068,0.916,80.000,161199.000,1.000
-14.953,-14.147,-14.563,-4.037,-9.525,-6.103,-4.930,-4.761,-0.044,0.917,-0.335,-0.458,-0.916,0.885,80.000,161200.000,1.000
-12.495,-11.157,-13.013,-2.756,-7.885,-3.096,-2.221,-2.576,-0.045,0.917,-0.333,-0.305,-0.916,0.946,80.000,161201.000,1.000
-9.747,-8.668,-11.471,-2.352,-7.640,-2.331,-2.862,-3.148,-0.045,0.918,-0.333,-0.244,-0.854,0.977,80.000,161202.000,1.000
-7.516,-7.054,-10.463,-3.080,-8.897,-4.082,-6.888,-6.662,-0.046,0.916,-0.331,-0.275,-0.763,0.885,80.000,161203.000,1.000
-6.203,-6.269,-9.988,-4.635,-11.038,-7.832,-12.930,-11.740,-0.046,0.915,-0.335,-0.122,-0.671,0.916,80.000,161204.000,1.000
-5.723,-5.986,-9.631,-6.410,-13.000,-12.279,-18.599,-16.106,-0.047,0.916,-0.335,-0.061,-0.702,0.763,80.000,161205.000,1.000
-5.628,-5.720,-8.792,-7.787,-13.659,-15.483,-21.306,-17.746,-0.048,0.916,-0.333,0.000,-0.488,0.702,80.000,161206.000,1.000
-5.280,-4.935,-7.032,-8.159,-12.131,-15.495,-19.318,-15.667,-0.046,0.918,-0.333,0.061,-0.488,0.763,80.000,161207.000,1.000
-4.210,-3.311,-4.209,-7.092,-8.223,-11.370,-12.570,-10.327,-0.046,0.919,-0.332,0.092,-0.427,0.610,80.000,161208.000,1.000
-2.563,-1.189,-0.969,-4.854,-2.968,-4.230,-3.297,-3.753,-0.048,0.921,-0.332,0.122,-0.427,0.610,80.000,161209.000,1.000
-1.105,0.396,1.326,-2.521,1.611,2.757,4.695,1.317,-0.048,0.920,-0.330,0.061,-0.397,0.641,80.000,161210.000,1.000
-0.665,0.382,1.588,-1.301,3.679,6.201,8.248,3.024,-0.048,0.921,-0.332,0.031,-0.275,0.610,80.000,161211.000,1.000
-1.581,-1.650,-0.413,-1.783,2.573,4.423,6.316,1.254,-0.049,0.922,-0.331,0.061,-0.366,0.702,80.000,161212.000,1.000
-3.588,-5.273,-3.974,-3.692,-1.045,-1.786,0.194,-2.726,-0.049,0.921,-0.332,0.092,-0.275,0.580,80.000,161213.000,1.000
-6.004,-9.290,-7.881,-6.044,-5.451,-9.295,-6.867,-6.947,-0.048,0.923,-0.332,-0.031,-0.366,0.580,80.000,161214.000,1.000
-8.008,-12.240,-10.850,-7.545,-8.573,-14.195,-11.065,-9.300,-0.046,0.922,-0.333,0.000,-0.366,0.580,80.000,161215.000,1.000
-9.104,-13.398,-12.127,-7.367,-9.270,-14.454,-10.503,-8.603,-0.046,0.922,-0.333,-0.031,-0.366,0.549,80.000,161216.000,1.000
-9.483,-13.210,-12.091,-5.807,-8.068,-11.070,-6.431,-5.642,-0.048,0.922,-0.332,-0.061,-0.366,0.702,80.000,161217.000,1.000
-9.756,-12.608,-11.688,-3.928,-6.420,-6.562,-1.736,-2.562,-0.048,0.923,-0.333,-0.153,-0.305,0.763,80.000,161218.000,1.000
-10.342,-12.113,-11.622,-2.653,-5.387,-2.903,1.179,-1.064,-0.049,0.923,-0.334,-0.153,-0.458,0.793,80.000,161219.000,1.000
-11.296,-11.638,-11.980,-2.246,-5.046,-0.738,1.579,-1.210,-0.051,0.920,-0.336,-0.244,-0.458,0.824,80.000,161220.000,1.000
-12.586,-10.888,-12.361,-2.462,-4.816,0.327,0.554,-1.784,-0.051,0.921,-0.334,-0.275,-0.427,0.793,80.000,161221.000,1.000
-14.223,-9.810,-12.482,-3.059,-4.281,0.899,-0.418,-1.903,-0.050,0.921,-0.333,-0.336,-0.580,0.793,80.000,161222.000,1.000
-16.202,-8.791,-12.446,-4.189,-3.885,0.874,-1.277,-2.254,-0.051,0.921,-0.333,-0.458,-0.732,0.763,80.000,161223.000,1.000
-18.424,-8.473,-12.716,-6.266,-4.628,-0.564,-3.309,-4.341,-0.051,0.921,-0.334,-0.397,-0.854,0.854,80.000,161224.000,1.000
-20.581,-9.238,-13.556,-9.261,-6.940,-3.872,-7.160,-8.476,-0.052,0.919,-0.332,-0.366,-0.854,0.916,80.000,161225.000,1.000
-22.233,-10.845,-14.573,-12.320,-10.046,-8.354,-11.661,-13.002,-0.048,0.917,-0.333,-0.427,-0.916,1.007,80.000,161226.000,1.000
-23.068,-12.533,-15.134,-14.270,-12.511,-12.390,-14.882,-15.543,-0.049,0.917,-0.333,-0.427,-0.916,0.946,80.000,161227.000,1.000
-23.032,-13.477,-14.780,-14.446,-13.287,-14.339,-15.692,-14.891,-0.049,0.918,-0.331,-0.488,-1.007,0.885,80.000,161228.000,1.000
-22.231,-13.273,-13.546,-13.112,-12.350,-13.557,-14.435,-11.938,-0.050,0.919,-0.334,-0.488,-1.068,0.977,80.000,161229.000,1.000
-20.736,-12.057,-11.842,-11.122,-10.518,-10.849,-12.502,-8.904,-0.049,0.918,-0.337,-0.458,-1.160,1.099,80.000,161230.000,1.000
-18.634,-10.346,-10.126,-9.288,-8.804,-7.896,-11.344,-7.718,-0.050,0.917,-0.335,-0.397,-1.129,1.007,80.000,161231.000,1.000
-16.219,-8.759,-8.919,-8.023,-7.745,-5.916,-11.461,-8.851,-0.049,0.917,-0.336,-0.458,-1.190,1.038,80.000,161232.000,1.000
-13.912,-7.716,-8.475,-7.299,-7.123,-4.838,-11.945,-11.215,-0.049,0.917,-0.335,-0.336,-1.190,0.977,80.000,161233.000,1.000
-12.037,-7.306,-8.647,-6.863,-6.310,-3.832,-11.344,-13.080,-0.048,0.919,-0.333,-0.305,-1.282,0.946,80.000,161234.000,1.000
-10.718,-7.338,-9.003,-6.459,-4.788,-2.190,-8.813,-13.105,-0.050,0.918,-0.332,-0.305,-1.282,0.946,80.000,161235.000,1.000
-9.960,-7.544,-9.089,-5.995,-2.575,0.127,-4.678,-11.038,-0.047,0.919,-0.334,-0.427,-1.373,0.885,80.000,161236.000,1.000
-9.799,-7.895,-8.940,-5.658,-0.458,2.049,-0.685,-7.978,-0.047,0.918,-0.334,-0.366,-1.282,0.916,80.000,161237.000,1.000
-10.328,-8.601,-8.934,-5.758,0.427,1.967,1.037,-5.669,-0.047,0.920,-0.335,-0.275,-1.343,0.885,80.000,161238.000,1.000
-11.491,-9.684,-9.380,-6.419,-0.394,-0.453,-0.046,-5.159,-0.046,0.920,-0.333,-0.366,-1.343,0.885,80.000,161239.000,1.000
-12.812,-10.635,-10.095,-7.324,-2.142,-3.492,-2.195,-5.908,-0.048,0.921,-0.332,-0.519,-1.343,0.854,80.000,161240.000,1.000
-13.412,-10.647,-10.348,-7.829,-3.388,-4.996,-3.097,-6.227,-0.046,0.920,-0.334,-0.488,-1.404,0.793,80.000,161241.000,1.000
-12.524,-9.188,-9.526,-7.477,-3.209,-4.245,-1.979,-4.821,-0.046,0.921,-0.333,-0.458,-1.404,0.763,80.000,161242.000,1.000
-10.058,-6.323,-7.432,-6.367,-1.772,-2.049,0.215,-1.944,-0.047,0.920,-0.334,-0.427,-1.343,0.732,80.000,161243.000,1.000
-6.773,-2.766,-4.411,-5.137,-0.115,0.094,1.756,0.753,-0.046,0.920,-0.330,-0.610,-1.312,0.763,80.000,161244.000,1.000
-3.891,0.479,-1.163,-4.467,0.673,0.869,1.437,1.692,-0.047,0.920,-0.333,-0.519,-1.282,0.610,80.000,161245.000,1.000
-2.357,2.726,1.757,-4.497,0.342,0.034,-0.188,0.790,-0.046,0.920,-0.335,-0.610,-1.312,0.671,80.000,161246.000,1.000
-2.338,3.881,3.989,-4.858,-0.491,-1.489,-1.461,-0.782,-0.047,0.920,-0.338,-0.671,-1.312,0.671,80.000,161247.000,1.000
-3.355,4.141,5.414,-5.129,-1.094,-2.640,-1.449,-1.813,-0.046,0.921,-0.336,-0.671,-1.373,0.610,80.000,161248.000,1.000
-4.747,3.684,6.035,-5.139,-1.169,-3.050,-0.580,-1.781,-0.047,0.919,-0.334,-0.610,-1.282,0.641,80.000,161249.000,1.000
-6.014,2.694,5.877,-4.923,-0.845,-2.905,0.155,-0.863,-0.046,0.919,-0.334,-0.763,-1.190,0.610,80.000,161250.000,1.000
-6.888,1.447,5.118,-4.535,-0.410,-2.502,0.218,0.318,-0.044,0.920,-0.335,-0.793,-1.312,0.549,80.000,161251.000,1.000
-7.142,0.380,4.071,-3.911,0.044,-1.853,-0.023,1.173,-0.044,0.920,-0.333,-0.824,-1.129,0.610,80.000,161252.000,1.000
-6.457,0.041,3.382,-2.844,0.805,-0.519,0.526,1.665,-0.044,0.921,-0.331,-0.885,-1.251,0.610,80.000,161253.000,1.000
-4.691,0.794,3.672,-1.245,2.151,1.902,2.516,2.069,-0.045,0.922,-0.332,-0.885,-1.221,0.641,80.000,161254.000,1.000
-2.188,2.463,4.929,0.542,3.848,4.965,5.193,2.314,-0.043,0.921,-0.333,-0.793,-1.190,0.702,80.000,161255.000,1.000
0.373,4.402,6.544,1.817,5.267,7.400,7.124,1.974,-0.045,0.920,-0.333,-0.885,-1.190,0.702,80.000,161256.000,1.000
2.453,5.977,7.684,2.025,6.078,8.369,7.756,1.026,-0.049,0.921,-0.332,-0.854,-1.160,0.610,80.000,161257.000,1.000
3.917,6.994,7.961,1.355,6.708,8.465,8.155,0.555,-0.047,0.923,-0.334,-0.946,-1.251,0.610,80.000,161258.000,1.000
4.916,7.605,7.468,0.646,7.862,8.846,9.707,2.084,-0.047,0.921,-0.334,-0.977,-1.221,0.519,80.000,161259.000,1.000
5.619,7.871,6.338,0.523,9.452,9.521,12.051,5.613,-0.047,0.920,-0.336,-1.038,-1.099,0.519,80.000,161260.000,1.000
5.992,7.530,4.613,0.753,10.364,9.289,13.158,8.968,-0.047,0.919,-0.337,-1.099,-1.099,0.519,80.000,161261.000,1.000
5.830,6.324,2.323,0.631,9.553,7.333,11.565,9.820,-0.046,0.921,-0.335,-1.129,-1.160,0.610,80.000,161262.000,1.000
5.157,4.433,-0.080,-0.096,7.079,4.230,7.952,7.805,-0.048,0.920,-0.333,-1.190,-1.190,0.610,80.000,161263.000,1.000
4.616,2.592,-1.751,-0.868,4.077,1.592,4.468,4.487,-0.048,0.920,-0.334,-1.099,-1.251,0.519,80.000,161264.000,1.000
5.307,1.817,-1.843,-0.674,2.080,1.204,3.206,2.115,-0.049,0.921,-0.334,-1.129,-1.251,0.488,80.000,161265.000,1.000
7.995,2.732,0.005,1.129,2.003,3.765,4.808,2.112,-0.050,0.920,-0.332,-1.373,-1.190,0.458,80.000,161266.000,1.000
12.388,4.918,3.020,4.126,3.282,7.604,7.444,3.961,-0.048,0.918,-0.334,-1.160,-1.190,0.519,80.000,161267.000,1.000
17.234,7.171,5.776,7.128,4.329,9.450,8.046,5.825,-0.049,0.918,-0.331,-1.129,-1.312,0.519,80.000,161268.000,1.000
21.162,8.548,7.314,9.161,4.122,7.335,5.138,6.403,-0.050,0.918,-0.333,-1.007,-1.373,0.519,80.000,161269.000,1.000
23.606,9.150,7.885,10.230,3.144,2.361,0.159,5.984,-0.049,0.920,-0.334,-0.946,-1.373,0.549,80.000,161270.000,1.000
25.093,9.942,8.843,11.205,2.826,-2.315,-3.780,5.863,-0.048,0.921,-0.334,-1.007,-1.251,0.610,80.000,161271.000,1.000
26.685,11.877,11.376,12.912,4.271,-3.754,-4.243,6.911,-0.047,0.921,-0.333,-0.946,-1.373,0.580,80.000,161272.000,1.000
29.092,15.108,15.617,15.420,7.471,-0.968,-0.850,8.911,-0.049,0.922,-0.332,-0.977,-1.404,0.580,80.000,161273.000,1.000
32.258,18.919,20.651,18.187,11.532,4.777,4.821,11.144,-0.051,0.920,-0.332,-0.977,-1.465,0.519,80.000,161274.000,1.000
35.653,22.346,25.212,20.629,15.430,11.073,10.398,13.155,-0.051,0.918,-0.331,-0.885,-1.434,0.458,80.000,161275.000,1.000
38.710,24.780,28.493,22.388,18.544,15.926,14.199,14.904,-0.052,0.919,-0.331,-0.946,-1.465,0.519,80.000,161276.000,1.000
41.077,26.196,30.267,23.385,20.866,18.844,16.109,16.601,-0.050,0.920,-0.332,-0.885,-1.526,0.610,80.000,161277.000,1.000
42.739,27.034,30.907,23.891,22.909,20.773,17.485,18.567,-0.051,0.919,-0.332,-0.854,-1.434,0.671,80.000,161278.000,1.000
43.873,27.740,30.942,24.271,25.111,22.854,19.786,20.891,-0.051,0.921,-0.333,-1.038,-1.495,0.549,80.000,161279.000,1.000
44.508,28.302,30.496,24.599,27.239,25.220,23.061,23.211,-0.049,0.921,-0.334,-1.007,-1.617,0.641,80.000,161280.000,1.000
44.422,28.219,29.327,24.602,28.417,26.725,25.639,24.915,-0.051,0.921,-0.333,-0.824,-1.648,0.610,80.000,161281.000,1.000
43.354,26.939,26.984,23.911,27.757,25.744,25.118,25.450,-0.049,0.922,-0.333,-0.885,-1.556,0.671,80.000,161282.000,1.000
41.262,24.412,23.375,22.334,25.102,21.689,20.346,24.596,-0.050,0.921,-0.337,-0.793,-1.556,0.641,80.000,161283.000,1.000
38.363,21.193,18.953,19.847,21.127,15.772,12.474,22.394,-0.051,0.921,-0.334,-0.763,-1.556,0.580,80.000,161284.000,1.000
35.098,18.105,14.449,16.589,16.832,10.242,4.161,18.958,-0.048,0.921,-0.335,-0.885,-1.556,0.641,80.000,161285.000,1.000
32.118,15.954,10.850,13.124,13.241,7.297,-1.511,14.922,-0.048,0.920,-0.331,-0.854,-1.648,0.641,80.000,161286.000,1.000
30.130,15.448,9.101,10.507,11.439,8.594,-1.861,11.933,-0.049,0.921,-0.330,-0.763,-1.648,0.580,80.000,161287.000,1.000
29.433,16.821,9.635,9.657,12.022,14.346,3.962,11.758,-0.048,0.921,-0.330,-0.854,-1.648,0.671,80.000,161288.000,1.000
29.408,19.210,11.661,10.375,14.098,21.997,13.307,14.300,-0.047,0.919,-0.332,-0.916,-1.617,0.671,80.000,161289.000,1.000
28.663,20.922,13.289,11.270,15.534,27.282,21.083,17.225,-0.046,0.918,-0.331,-0.916,-1.648,0.610,80.000,161290.000,1.000
25.918,20.701,12.958,10.864,14.685,27.600,23.423,17.930,-0.046,0.919,-0.333,-0.946,-1.648,0.702,80.000,161291.000,1.000
20.812,18.509,10.310,8.643,11.559,23.576,19.946,15.495,-0.048,0.920,-0.331,-0.793,-1.617,0.549,80.000,161292.000,1.000
14.011,15.162,6.224,5.221,7.429,17.500,13.316,11.111,-0.047,0.921,-0.331,-0.793,-1.678,0.610,80.000,161293.000,1.000
6.606,11.491,1.913,1.591,3.617,11.261,6.977,6.898,-0.048,0.920,-0.335,-0.854,-1.556,0.702,80.000,161294.000,1.000
-0.479,7.894,-1.986,-1.625,0.685,5.803,2.917,4.264,-0.049,0.918,-0.331,-0.732,-1.434,0.671,80.000,161295.000,1.000
-6.565,4.521,-5.190,-4.127,-1.355,1.758,1.362,3.428,-0.048,0.917,-0.328,-0.732,-1.526,0.610,80.000,161296.000,1.000
-11.175,1.611,-7.451,-5.637,-2.528,-0.103,1.610,3.825,-0.047,0.915,-0.330,-0.732,-1.404,0.610,80.000,161297.000,1.000
-14.168,-0.531,-8.470,-5.988,-2.868,0.637,2.610,4.411,-0.047,0.916,-0.331,-0.488,-1.465,0.641,80.000,161298.000,1.000
-15.788,-1.811,-8.171,-5.312,-2.528,3.191,3.237,4.252,-0.050,0.915,-0.333,-0.397,-1.373,0.580,80.000,161299.000,1.000
-16.503,-2.422,-6.881,-3.870,-1.575,5.776,2.951,3.439,-0.050,0.916,-0.334,-0.458,-1.373,0.549,80.000,161300.000,1.000
-16.926,-2.789,-5.168,-1.967,-0.026,6.764,2.111,3.003,-0.049,0.917,-0.336,-0.275,-1.373,0.488,80.000,161301.000,1.000
-17.813,-3.531,-4.006,-0.215,1.716,5.492,1.203,3.604,-0.050,0.919,-0.333,-0.275,-1.312,0.519,80.000,161302.000,1.000
-19.744,-5.132,-4.271,0.556,2.885,2.623,0.625,4.856,-0.050,0.918,-0.329,-0.275,-1.373,0.519,80.000,161303.000,1.000
-22.600,-7.502,-6.063,-0.127,2.996,-0.078,1.066,6.052,-0.051,0.918,-0.333,-0.244,-1.282,0.488,80.000,161304.000,1.000
-25.573,-10.077,-8.808,-2.070,2.099,-1.146,2.962,6.920,-0.052,0.918,-0.334,-0.244,-1.312,0.488,80.000,161305.000,1.000
-27.880,-12.443,-11.832,-4.785,0.273,-0.883,5.578,7.313,-0.050,0.919,-0.334,-0.305,-1.251,0.397,80.000,161306.000,1.000
-29.356,-14.626,-14.990,-7.967,-2.665,-1.011,7.098,6.640,-0.050,0.921,-0.331,-0.397,-1.343,0.397,80.000,161307.000,1.000
-30.282,-16.722,-18.224,-11.354,-6.702,-2.819,6.008,4.303,-0.049,0.921,-0.330,-0.427,-1.434,0.488,80.000,161308.000,1.000
-30.952,-18.530,-21.110,-14.441,-11.158,-5.968,2.212,0.482,-0.049,0.923,-0.335,-0.458,-1.343,0.397,80.000,161309.000,1.000
-31.440,-19.601,-22.980,-16.519,-14.787,-8.949,-2.882,-3.621,-0.046,0.923,-0.335,-0.427,-1.312,0.427,80.000,161310.000,1.000
-31.591,-19.523,-23.107,-16.982,-16.390,-10.455,-7.254,-6.426,-0.042,0.923,-0.334,-0.427,-1.251,0.519,80.000,161311.000,1.000
-31.144,-18.155,-21.271,-15.690,-15.473,-10.340,-9.722,-7.110,-0.043,0.920,-0.333,-0.397,-1.190,0.641,80.000,161312.000,1.000
-29.852,-15.548,-17.734,-12.926,-12.228,-9.109,-9.964,-5.783,-0.043,0.918,-0.333,-0.610,-1.007,0.793,80.000,161313.000,1.000
-27.676,-11.854,-13.009,-9.188,-7.177,-6.967,-7.849,-2.903,-0.045,0.918,-0.333,-0.641,-1.007,0.854,80.000,161314.000,1.000
-25.106,-7.610,-8.039,-5.257,-1.357,-4.006,-4.071,0.650,-0.045,0.916,-0.333,-0.549,-0.916,0.916,80.000,161315.000,1.000
-23.179,-3.924,-4.063,-2.197,3.571,-0.895,-0.566,3.370,-0.048,0.914,-0.332,-0.488,-0.885,1.038,80.000,161316.000,1.000
-22.949,-2.003,-2.283,-0.963,6.118,1.365,0.873,3.960,-0.046,0.915,-0.334,-0.458,-0.854,1.099,80.000,161317.000,1.000
-24.813,-2.426,-3.166,-1.806,5.985,2.440,0.402,2.574,-0.046,0.916,-0.335,-0.305,-0.824,1.038,80.000,161318.000,1.000
-28.303,-4.923,-6.208,-4.157,4.076,2.862,-0.211,0.729,-0.046,0.919,-0.333,-0.214,-0.763,1.068,80.000,161319.000,1.000
-32.503,-8.773,-10.419,-7.114,1.527,2.946,0.357,-0.124,-0.045,0.922,-0.334,-0.153,-0.671,1.160,80.000,161320.000,1.000
-36.629,-13.340,-14.854,-10.063,-1.226,2.082,1.757,0.140,-0.045,0.923,-0.335,-0.275,-0.702,1.251,80.000,161321.000,1.000
-40.186,-18.176,-19.120,-12.872,-4.406,-0.501,2.402,0.403,-0.044,0.922,-0.334,-0.397,-0.732,1.312,80.000,161322.000,1.000
-42.766,-22.780,-23.018,-15.478,-8.105,-4.684,1.049,-0.391,-0.042,0.922,-0.333,-0.671,-0.519,1.404,80.000,161323.000,1.000
-43.995,-26.477,-26.138,-17.552,-11.776,-9.149,-1.904,-2.214,-0.044,0.923,-0.332,-0.610,-0.519,1.434,80.000,161324.000,1.000
-43.699,-28.568,-28.001,-18.615,-14.444,-11.820,-4.457,-4.072,-0.047,0.923,-0.332,-0.549,-0.641,1.282,80.000,161325.000,1.000
-41.985,-28.660,-28.243,-18.339,-15.385,-11.100,-4.489,-4.821,-0.051,0.923,-0.332,-0.549,-0.549,1.160,80.000,161326.000,1.000
-39.283,-27.021,-27.192,-16.922,-14.771,-7.278,-1.809,-4.043,-0.052,0.925,-0.334,-0.519,-0.580,1.007,80.000,161327.000,1.000
-36.258,-24.549,-25.820,-15.098,-13.633,-2.411,1.793,-2.299,-0.053,0.925,-0.331,-0.641,-0.610,0.916,80.000,161328.000,1.000
-33.611,-22.349,-25.224,-13.800,-13.265,1.167,4.153,-0.857,-0.055,0.926,-0.333,-0.732,-0.763,0.641,80.000,161329.000,1.000
-31.918,-21.443,-26.215,-13.848,-14.730,1.613,3.666,-1.210,-0.056,0.929,-0.333,-0.793,-0.916,0.458,80.000,161330.000,1.000
-31.464,-22.494,-28.813,-15.578,-18.366,-2.205,-0.218,-4.036,-0.055,0.929,-0.333,-1.038,-1.007,0.275,80.000,161331.000,1.000
-32.053,-25.344,-32.340,-18.594,-23.329,-9.795,-6.490,-8.448,-0.056,0.931,-0.333,-1.129,-1.038,0.183,80.000,161332.000,1.000
-33.079,-28.929,-35.685,-21.940,-27.940,-18.763,-12.892,-12.637,-0.055,0.928,-0.334,-1.190,-1.221,0.031,80.000,161333.000,1.000
-33.870,-31.793,-37.739,-24.538,-30.634,-26.006,-17.122,-15.115,-0.053,0.928,-0.333,-1.434,-1.343,0.000,80.000,161334.000,1.000
-33.961,-32.708,-37.834,-25.559,-30.597,-29.056,-17.792,-15.332,-0.052,0.927,-0.333,-1.495,-1.404,-0.061,80.000,161335.000,1.000
-33.185,-31.165,-35.709,-24.674,-27.983,-27.090,-14.820,-13.658,-0.050,0.924,-0.333,-1.648,-1.526,0.000,80.000,161336.000,1.000
-31.666,-27.576,-31.663,-22.147,-23.719,-21.345,-9.517,-10.938,-0.047,0.924,-0.331,-1.556,-1.556,-0.061,80.000,161337.000,1.000
-29.777,-23.066,-26.467,-18.701,-19.039,-14.472,-4.067,-8.073,-0.047,0.923,-0.330,-1.556,-1.434,0.000,80.000,161338.000,1.000
-28.211,-19.115,-21.364,-15.512,-15.330,-9.524,-0.980,-6.368,-0.047,0.921,-0.331,-1.434,-1.495,0.031,80.000,161339.000,1.000
-27.780,-16.915,-17.762,-13.800,-13.739,-8.773,-2.039,-7.270,-0.047,0.918,-0.332,-1.404,-1.434,0.061,80.000,161340.000,1.000
-28.816,-16.552,-16.060,-13.813,-14.155,-12.087,-6.395,-10.656,-0.048,0.916,-0.331,-1.465,-1.434,0.092,80.000,161341.000,1.000
-30.938,-16.984,-15.544,-14.551,-15.019,-16.708,-10.806,-14.350,-0.046,0.918,-0.331,-1.282,-1.373,0.214,80.000,161342.000,1.000
-33.480,-17.068,-15.206,-14.693,-14.702,-19.610,-12.512,-16.040,-0.049,0.918,-0.333,-1.221,-1.495,0.336,80.000,161343.000,1.000
-35.869,-16.435,-14.478,-13.633,-12.754,-19.735,-11.290,-15.120,-0.051,0.917,-0.333,-1.221,-1.495,0.427,80.000,161344.000,1.000
-37.452,-15.258,-13.273,-11.577,-9.656,-17.607,-8.497,-12.419,-0.051,0.918,-0.333,-1.129,-1.587,0.458,80.000,161345.000,1.000
-37.394,-13.638,-11.413,-8.976,-5.912,-13.880,-5.116,-8.797,-0.049,0.919,-0.329,-1.099,-1.495,0.580,80.000,161346.000,1.000
-35.217,-11.592,-8.849,-6.286,-1.848,-9.122,-1.508,-4.665,-0.050,0.918,-0.329,-1.038,-1.434,0.549,80.000,161347.000,1.000
-31.314,-9.360,-5.864,-3.949,2.141,-4.152,2.204,-0.389,-0.049,0.917,-0.326,-1.007,-1.495,0.549,80.000,161348.000,1.000
-26.755,-7.385,-3.047,-2.380,5.553,0.279,5.961,3.429,-0.048,0.916,-0.328,-0.916,-1.526,0.549,80.000,161349.000,1.000
-22.664,-6.098,-1.279,-2.047,7.841,3.771,9.362,5.925,-0.047,0.917,-0.326,-0.977,-1.495,0.610,80.000,161350.000,1.000
-19.698,-5.792,-1.229,-3.386,8.429,5.945,11.608,6.223,-0.046,0.914,-0.329,-0.916,-1.465,0.519,80.000,161351.000,1.000
-17.834,-6.575,-3.103,-6.444,6.905,6.139,11.841,3.949,-0.045,0.913,-0.330,-0.793,-1.373,0.610,80.000,161352.000,1.000
-16.531,-8.303,-6.394,-10.524,3.400,3.776,9.755,-0.252,-0.046,0.912,-0.327,-0.732,-1.434,0.702,80.000,161353.000,1.000
-15.182,-10.491,-9.998,-14.322,-1.157,-0.704,5.976,-4.746,-0.046,0.911,-0.329,-0.671,-1.343,0.671,80.000,161354.000,1.000
-13.523,-12.455,-12.885,-16.627,-5.348,-5.692,1.706,-7.820,-0.047,0.912,-0.333,-0.732,-1.221,0.763,80.000,161355.000,1.000
-11.730,-13.818,-14.470,-17.012,-8.156,-9.746,-2.052,-8.895,-0.045,0.911,-0.333,-0.488,-1.160,0.732,80.000,161356.000,1.000
-10.221,-14.852,-14.969,-16.047,-9.659,-12.736,-5.161,-8.992,-0.045,0.913,-0.335,-0.366,-1.068,0.793,80.000,161357.000,1.000
