EEG 1,EEG 2,EEG 3,EEG 4,EEG 5,EEG 6,EEG 7,EEG 8,Accelerometer X,Accelerometer Y,Accelerometer Z,Gyroscope X,Gyroscope Y,Gyroscope Z,Battery Level,Counter,Validation Indicator
-104.440,-11.193,-14.806,-11.712,-12.243,-9.519,-6.470,-7.689,-0.009,0.866,-0.437,-0.763,-1.953,0.793,80.000,75289.000,1.000
-105.231,-9.582,-13.707,-12.255,-10.013,-6.804,-3.003,-4.598,-0.009,0.865,-0.439,-0.702,-1.892,0.854,80.000,75290.000,1.000
-104.203,-8.156,-12.123,-12.524,-7.503,-3.078,1.812,-1.449,-0.008,0.868,-0.438,-0.671,-1.862,0.824,80.000,75291.000,1.000
-100.676,-7.473,-10.752,-12.914,-5.749,-0.194,5.855,0.357,-0.007,0.868,-0.436,-0.671,-1.862,0.885,80.000,75292.000,1.000
-94.007,-7.496,-9.784,-13.526,-5.275,0.411,7.438,0.054,-0.009,0.867,-0.438,-0.671,-1.801,0.793,80.000,75293.000,1.000
-84.107,-7.622,-9.034,-14.210,-5.767,-1.193,6.265,-2.033,-0.006,0.868,-0.440,-0.763,-1.740,0.885,80.000,75294.000,1.000
-72.050,-7.041,-8.078,-14.606,-6.193,-3.362,3.667,-4.431,-0.005,0.868,-0.438,-0.732,-1.770,0.946,80.000,75295.000,1.000
-59.693,-5.296,-6.331,-14.202,-5.471,-4.072,1.772,-5.392,-0.006,0.867,-0.439,-0.580,-1.709,0.916,80.000,75296.000,1.000
-48.993,-2.744,-3.889,-12.717,-3.348,-2.554,1.680,-4.303,-0.006,0.866,-0.440,-0.641,-1.617,0.916,80.000,75297.000,1.000
-41.646,-0.368,-1.301,-10.248,-0.505,0.328,3.033,-1.816,-0.004,0.865,-0.442,-0.610,-1.526,0.854,80.000,75298.000,1.000
-38.301,0.876,0.702,-7.174,2.097,3.050,4.712,1.015,-0.005,0.865,-0.440,-0.610,-1.404,0.916,80.000,75299.000,1.000
-37.503,0.534,1.595,-4.018,3.723,4.453,5.572,3.159,-0.004,0.866,-0.439,-0.549,-1.312,0.916,80.000,75300.000,1.000
-36.394,-1.250,1.475,-1.370,3.997,4.221,4.952,3.727,-0.006,0.867,-0.439,-0.610,-1.343,0.946,80.000,75301.000,1.000
-33.214,-3.895,0.632,0.228,2.963,2.750,2.844,2.428,-0.005,0.868,-0.441,-0.458,-1.282,0.854,80.000,75302.000,1.000
-28.610,-6.554,-0.307,0.688,1.161,0.750,0.008,0.030,-0.005,0.869,-0.439,-0.519,-1.160,0.763,80.000,75303.000,1.000
-24.459,-8.372,-0.747,0.490,-0.561,-1.072,-2.568,-1.992,-0.007,0.867,-0.440,-0.549,-1.007,0.732,80.000,75304.000,1.000
-22.139,-8.861,-0.508,0.302,-1.504,-2.216,-4.197,-2.311,-0.004,0.868,-0.440,-0.580,-0.916,0.763,80.000,75305.000,1.000
-22.262,-8.176,0.219,0.446,-1.598,-2.625,-4.676,-0.600,-0.005,0.867,-0.438,-0.458,-0.824,0.763,80.000,75306.000,1.000
-25.359,-7.052,0.684,0.618,-1.514,-2.912,-4.636,2.006,-0.004,0.867,-0.438,-0.519,-0.824,0.793,80.000,75307.000,1.000
-31.914,-6.300,0.334,0.263,-2.085,-4.012,-4.936,3.704,-0.004,0.865,-0.441,-0.580,-0.732,0.793,80.000,75308.000,1.000
-41.576,-6.199,-0.800,-0.809,-3.423,-6.130,-5.585,3.557,-0.003,0.866,-0.441,-0.671,-0.671,0.793,80.000,75309.000,1.000
-52.372,-6.270,-2.014,-2.112,-4.649,-8.218,-5.416,2.304,-0.004,0.867,-0.439,-0.610,-0.610,0.702,80.000,75310.000,1.000
-60.932,-5.771,-2.349,-2.966,-4.729,-8.783,-3.284,1.423,-0.005,0.867,-0.440,-0.580,-0.580,0.702,80.000,75311.000,1.000
-64.123,-4.458,-1.772,-3.348,-3.542,-7.113,0.326,1.351,-0.006,0.867,-0.438,-0.549,-0.519,0.671,80.000,75312.000,1.000
-61.036,-2.853,-0.992,-3.908,-2.024,-3.937,3.547,1.154,-0.007,0.866,-0.437,-0.488,-0.580,0.610,80.000,75313.000,1.000
-53.835,-1.752,-0.942,-5.284,-1.276,-0.958,4.685,-0.127,-0.008,0.865,-0.438,-0.549,-0.549,0.519,80.000,75314.000,1.000
-46.488,-1.379,-1.976,-7.360,-1.462,0.657,3.859,-2.054,-0.008,0.864,-0.435,-0.580,-0.397,0.580,80.000,75315.000,1.000
-42.282,-1.182,-3.449,-9.337,-1.758,1.195,2.905,-3.178,-0.006,0.865,-0.439,-0.519,-0.366,0.519,80.000,75316.000,1.000
-42.209,-0.579,-4.715,-10.597,-1.444,1.570,3.245,-2.857,-0.008,0.866,-0.440,-0.488,-0.397,0.488,80.000,75317.000,1.000
-45.240,0.368,-5.396,-11.092,-0.686,2.082,4.701,-1.943,-0.009,0.865,-0.440,-0.427,-0.366,0.458,80.000,75318.000,1.000
-49.551,1.118,-5.502,-11.086,-0.156,2.347,6.017,-1.746,-0.007,0.864,-0.439,-0.366,-0.458,0.397,80.000,75319.000,1.000
-53.183,1.217,-5.188,-10.699,-0.219,2.038,6.174,-2.716,-0.010,0.867,-0.437,-0.397,-0.397,0.488,80.000,75320.000,1.000
-54.461,0.577,-4.414,-9.703,-0.651,1.285,5.198,-4.114,-0.009,0.867,-0.437,-0.366,-0.397,0.488,80.000,75321.000,1.000
-52.508,-0.569,-3.252,-7.694,-0.853,0.590,3.850,-4.537,-0.010,0.865,-0.436,-0.366,-0.549,0.580,80.000,75322.000,1.000
-47.092,-1.719,-1.482,-4.314,-0.185,0.596,3.126,-2.682,-0.012,0.866,-0.438,-0.214,-0.549,0.549,80.000,75323.000,1.000
-38.371,-2.302,1.135,0.351,1.600,1.672,3.506,1.684,-0.010,0.868,-0.441,-0.366,-0.641,0.519,80.000,75324.000,1.000
-27.057,-1.987,4.491,5.621,4.173,3.621,4.790,7.487,-0.009,0.868,-0.439,-0.305,-0.671,0.549,80.000,75325.000,1.000
-14.518,-0.840,8.212,10.519,6.925,5.880,6.619,13.268,-0.010,0.867,-0.441,-0.397,-0.732,0.549,80.000,75326.000,1.000
-2.602,0.832,11.450,14.158,9.394,7.980,8.642,18.109,-0.011,0.869,-0.439,-0.397,-0.702,0.671,80.000,75327.000,1.000
6.816,2.693,13.493,16.036,11.326,9.775,10.575,21.680,-0.010,0.869,-0.440,-0.458,-0.702,0.671,80.000,75328.000,1.000
12.579,4.301,13.795,15.864,12.276,11.122,11.751,23.351,-0.008,0.869,-0.437,-0.427,-0.732,0.671,80.000,75329.000,1.000
14.716,4.991,12.055,13.404,11.425,11.470,10.995,21.765,-0.009,0.869,-0.438,-0.427,-0.793,0.732,80.000,75330.000,1.000
14.075,4.222,8.680,8.807,8.177,10.098,7.473,15.966,-0.010,0.868,-0.438,-0.427,-0.885,0.671,80.000,75331.000,1.000
12.067,2.155,4.621,3.087,3.102,6.914,1.663,7.122,-0.010,0.867,-0.440,-0.549,-0.916,0.763,80.000,75332.000,1.000
11.125,-0.140,1.446,-1.905,-1.896,3.055,-4.220,-1.258,-0.010,0.869,-0.439,-0.519,-1.007,0.763,80.000,75333.000,1.000
13.796,-1.238,0.473,-4.426,-4.587,0.411,-7.481,-5.403,-0.010,0.867,-0.439,-0.488,-0.916,0.854,80.000,75334.000,1.000
19.656,-0.347,1.963,-3.901,-3.893,0.118,-6.919,-3.776,-0.009,0.869,-0.440,-0.488,-0.977,0.824,80.000,75335.000,1.000
23.378,1.875,4.938,-1.400,-0.862,1.349,-3.900,1.707,-0.010,0.868,-0.440,-0.336,-1.007,0.702,80.000,75336.000,1.000
18.054,3.567,7.227,0.812,1.842,1.939,-1.539,6.626,-0.010,0.868,-0.441,-0.366,-1.129,0.793,80.000,75337.000,1.000
2.129,3.179,7.226,0.927,2.014,0.496,-1.933,7.295,-0.011,0.868,-0.440,-0.488,-1.221,0.763,80.000,75338.000,1.000
-17.825,0.764,5.026,-1.064,-0.404,-2.367,-4.600,3.364,-0.010,0.869,-0.439,-0.610,-1.160,0.702,80.000,75339.000,1.000
-31.695,-2.262,2.093,-3.689,-3.697,-4.869,-7.347,-2.567,-0.010,0.867,-0.440,-0.641,-1.251,0.824,80.000,75340.000,1.000
-32.373,-4.425,0.124,-5.423,-6.026,-5.687,-8.109,-7.320,-0.010,0.869,-0.441,-0.580,-1.282,0.854,80.000,75341.000,1.000
-19.249,-5.207,-0.399,-5.779,-6.659,-4.967,-6.549,-9.181,-0.010,0.866,-0.440,-0.549,-1.312,0.824,80.000,75342.000,1.000
2.045,-5.163,-0.001,-5.293,-6.119,-4.121,-4.095,-8.432,-0.010,0.865,-0.437,-0.610,-1.404,0.793,80.000,75343.000,1.000
22.616,-5.466,0.123,-5.049,-5.660,-4.734,-2.914,-6.762,-0.012,0.869,-0.436,-0.671,-1.434,0.732,80.000,75344.000,1.000
34.524,-7.194,-1.229,-5.984,-6.455,-7.582,-4.406,-5.987,-0.012,0.869,-0.438,-0.732,-1.495,0.702,80.000,75345.000,1.000
34.518,-10.686,-4.307,-8.233,-8.864,-12.358,-8.294,-6.955,-0.010,0.868,-0.440,-0.732,-1.526,0.610,80.000,75346.000,1.000
25.545,-15.421,-8.523,-11.114,-12.272,-17.896,-13.063,-9.366,-0.010,0.869,-0.440,-0.732,-1.648,0.549,80.000,75347.000,1.000
14.557,-20.310,-12.542,-13.557,-15.443,-22.462,-16.599,-12.056,-0.013,0.867,-0.438,-0.732,-1.678,0.580,80.000,75348.000,1.000
7.810,-24.097,-15.109,-14.691,-17.103,-24.170,-17.105,-13.553,-0.010,0.866,-0.436,-0.824,-1.678,0.580,80.000,75349.000,1.000
7.955,-25.702,-15.603,-14.078,-16.417,-21.807,-13.829,-12.644,-0.013,0.868,-0.437,-0.793,-1.740,0.458,80.000,75350.000,1.000
14.437,-24.570,-13.909,-11.678,-13.311,-15.854,-7.405,-8.916,-0.011,0.866,-0.437,-0.824,-1.862,0.580,80.000,75351.000,1.000
24.254,-21.061,-10.746,-8.067,-8.760,-8.796,-0.120,-3.435,-0.010,0.865,-0.437,-0.763,-1.862,0.458,80.000,75352.000,1.000
32.146,-16.517,-7.294,-4.502,-4.614,-3.872,5.012,1.318,-0.010,0.866,-0.440,-0.702,-1.892,0.458,80.000,75353.000,1.000
32.774,-12.700,-4.984,-2.483,-2.690,-3.042,5.825,2.724,-0.011,0.864,-0.441,-0.732,-1.923,0.519,80.000,75354.000,1.000
24.557,-10.904,-4.869,-2.887,-3.753,-6.122,1.980,-0.331,-0.010,0.865,-0.441,-0.854,-1.801,0.519,80.000,75355.000,1.000
10.768,-11.390,-6.894,-5.396,-7.200,-11.519,-5.079,-6.659,-0.010,0.864,-0.443,-0.702,-1.831,0.458,80.000,75356.000,1.000
-3.440,-13.353,-10.214,-8.645,-11.340,-17.049,-12.701,-13.185,-0.009,0.863,-0.440,-0.671,-1.831,0.488,80.000,75357.000,1.000
-14.438,-15.422,-13.400,-10.997,-14.256,-20.564,-17.856,-16.700,-0.010,0.864,-0.438,-0.580,-1.801,0.488,80.000,75358.000,1.000
-20.971,-16.559,-15.426,-11.683,-15.029,-20.981,-19.008,-16.219,-0.009,0.865,-0.439,-0.580,-1.801,0.580,80.000,75359.000,1.000
-22.793,-16.420,-15.984,-10.991,-13.994,-18.673,-16.796,-13.181,-0.008,0.866,-0.437,-0.610,-1.923,0.610,80.000,75360.000,1.000
-19.680,-15.031,-14.922,-9.485,-11.915,-14.719,-12.730,-9.468,-0.009,0.864,-0.440,-0.519,-1.923,0.641,80.000,75361.000,1.000
-12.202,-12.646,-12.584,-7.661,-9.407,-10.173,-8.195,-6.152,-0.008,0.868,-0.442,-0.488,-1.831,0.641,80.000,75362.000,1.000
-2.686,-9.737,-9.551,-5.865,-6.866,-5.804,-4.023,-3.526,-0.009,0.867,-0.438,-0.519,-1.770,0.549,80.000,75363.000,1.000
5.392,-6.792,-6.411,-4.173,-4.410,-2.075,-0.663,-1.457,-0.011,0.866,-0.438,-0.427,-1.770,0.458,80.000,75364.000,1.000
9.496,-4.020,-3.381,-2.331,-1.752,0.933,1.799,0.497,-0.010,0.865,-0.438,-0.305,-1.770,0.519,80.000,75365.000,1.000
9.871,-1.193,0.077,0.129,1.842,3.782,4.035,3.075,-0.010,0.865,-0.440,-0.427,-1.831,0.458,80.000,75366.000,1.000
9.096,2.313,4.651,3.646,7.339,7.739,7.412,7.232,-0.009,0.867,-0.441,-0.427,-1.801,0.366,80.000,75367.000,1.000
9.435,7.079,10.856,8.432,15.235,13.848,13.156,13.693,-0.010,0.867,-0.440,-0.427,-1.709,0.397,80.000,75368.000,1.000
10.599,12.689,17.948,13.784,24.280,21.103,20.205,21.339,-0.010,0.869,-0.438,-0.458,-1.831,0.366,80.000,75369.000,1.000
10.251,17.401,23.735,17.863,31.265,26.129,24.679,26.598,-0.011,0.869,-0.437,-0.580,-1.740,0.305,80.000,75370.000,1.000
6.290,19.382,26.218,19.007,33.139,25.851,23.011,26.170,-0.008,0.867,-0.437,-0.519,-1.770,0.336,80.000,75371.000,1.000
-1.394,18.240,24.852,17.143,29.421,20.358,15.185,20.172,-0.008,0.867,-0.436,-0.641,-1.770,0.336,80.000,75372.000,1.000
-10.684,15.210,21.037,13.837,22.371,12.796,4.904,12.114,-0.009,0.867,-0.440,-0.549,-1.678,0.275,80.000,75373.000,1.000
-18.665,12.064,16.822,11.036,15.211,6.862,-3.243,6.099,-0.010,0.867,-0.440,-0.580,-1.740,0.183,80.000,75374.000,1.000
-23.052,10.056,13.662,9.861,10.226,4.625,-6.607,4.123,-0.010,0.869,-0.441,-0.610,-1.648,0.214,80.000,75375.000,1.000
-21.800,9.615,12.247,10.248,7.962,6.022,-5.412,5.415,-0.009,0.866,-0.442,-0.671,-1.617,0.122,80.000,75376.000,1.000
-12.864,10.564,12.402,11.397,7.654,9.502,-1.946,7.777,-0.009,0.866,-0.440,-0.610,-1.556,0.183,80.000,75377.000,1.000
3.732,12.448,13.735,12.581,8.163,13.051,1.374,9.382,-0.009,0.866,-0.438,-0.610,-1.617,0.214,80.000,75378.000,1.000
24.041,14.637,15.534,13.386,8.556,15.069,3.055,9.376,-0.008,0.866,-0.440,-0.519,-1.556,0.183,80.000,75379.000,1.000
41.867,16.394,16.768,13.599,8.321,14.945,2.759,7.910,-0.007,0.867,-0.439,-0.549,-1.495,0.214,80.000,75380.000,1.000
52.501,17.238,16.802,13.239,7.521,13.330,1.379,6.009,-0.007,0.867,-0.440,-0.610,-1.587,0.214,80.000,75381.000,1.000
55.169,17.268,15.522,12.523,6.600,11.601,0.177,4.654,-0.008,0.867,-0.438,-0.580,-1.526,0.275,80.000,75382.000,1.000
53.213,17.038,13.618,11.758,5.944,10.646,-0.195,4.009,-0.007,0.868,-0.437,-0.549,-1.495,0.336,80.000,75383.000,1.000
52.581,17.125,11.989,11.214,5.766,10.346,-0.038,3.751,-0.008,0.867,-0.439,-0.641,-1.465,0.275,80.000,75384.000,1.000
59.293,17.908,11.333,11.230,6.329,10.254,0.170,3.901,-0.009,0.866,-0.443,-0.641,-1.434,0.305,80.000,75385.000,1.000
76.187,19.497,12.159,12.142,7.892,10.375,0.563,4.785,-0.008,0.867,-0.441,-0.641,-1.312,0.397,80.000,75386.000,1.000
100.596,21.536,14.130,13.790,10.261,11.039,1.384,6.198,-0.009,0.868,-0.438,-0.702,-1.282,0.488,80.000,75387.000,1.000
125.858,23.242,16.394,15.462,12.665,12.248,2.514,7.347,-0.010,0.869,-0.437,-0.763,-1.221,0.549,80.000,75388.000,1.000
145.749,23.859,18.018,16.418,14.306,13.450,3.570,7.657,-0.011,0.869,-0.439,-0.702,-1.282,0.519,80.000,75389.000,1.000
157.418,23.241,18.611,16.508,15.022,13.958,4.437,7.423,-0.009,0.870,-0.438,-0.671,-1.221,0.641,80.000,75390.000,1.000
161.178,21.927,18.611,16.147,15.246,13.440,5.279,7.303,-0.010,0.869,-0.440,-0.610,-1.221,0.671,80.000,75391.000,1.000
159.231,20.609,18.364,15.707,15.312,11.896,5.728,7.252,-0.010,0.869,-0.438,-0.702,-1.160,0.641,80.000,75392.000,1.000
154.604,19.604,18.069,15.378,15.149,9.369,5.182,6.777,-0.011,0.866,-0.441,-0.732,-1.190,0.671,80.000,75393.000,1.000
149.498,18.836,17.777,15.332,14.691,6.169,3.812,6.088,-0.009,0.866,-0.441,-0.763,-1.190,0.641,80.000,75394.000,1.000
143.852,18.069,17.425,15.671,14.110,3.172,2.680,6.096,-0.009,0.867,-0.443,-0.732,-1.251,0.763,80.000,75395.000,1.000
135.834,16.990,16.852,16.068,13.393,1.273,2.547,6.993,-0.009,0.866,-0.440,-0.671,-1.221,0.702,80.000,75396.000,1.000
123.937,15.257,15.346,15.713,12.147,0.684,2.991,7.618,-0.009,0.868,-0.440,-0.641,-1.129,0.732,80.000,75397.000,1.000
108.856,12.729,12.399,14.027,10.129,0.959,3.321,6.841,-0.011,0.867,-0.439,-0.702,-1.129,0.854,80.000,75398.000,1.000
93.264,9.590,8.050,11.199,7.652,1.417,3.404,4.909,-0.011,0.867,-0.437,-0.702,-1.068,0.793,80.000,75399.000,1.000
79.845,6.240,2.891,7.999,5.319,1.502,3.533,3.025,-0.009,0.865,-0.439,-0.610,-1.160,0.824,80.000,75400.000,1.000
69.915,3.124,-2.019,5.194,3.490,0.981,3.904,1.911,-0.008,0.863,-0.440,-0.641,-1.068,0.824,80.000,75401.000,1.000
63.534,0.629,-5.877,3.169,2.259,0.132,4.417,1.388,-0.009,0.865,-0.439,-0.641,-1.160,0.824,80.000,75402.000,1.000
60.135,-0.892,-8.042,2.106,1.777,-0.254,5.302,1.281,-0.009,0.866,-0.437,-0.641,-1.129,0.854,80.000,75403.000,1.000
58.718,-1.259,-8.376,2.045,2.188,0.461,6.919,1.901,-0.010,0.867,-0.438,-0.641,-1.038,0.824,80.000,75404.000,1.000
57.742,-0.643,-7.354,2.807,3.292,2.059,9.001,3.531,-0.010,0.868,-0.438,-0.610,-1.007,0.885,80.000,75405.000,1.000
55.546,0.497,-5.610,3.949,4.523,3.652,10.716,5.788,-0.010,0.867,-0.439,-0.671,-1.038,0.793,80.000,75406.000,1.000
51.425,1.623,-4.021,4.823,5.307,4.521,11.229,7.744,-0.011,0.868,-0.437,-0.702,-1.068,0.793,80.000,75407.000,1.000
46.500,2.291,-3.094,4.938,5.291,4.494,10.189,8.514,-0.009,0.868,-0.437,-0.610,-1.007,0.793,80.000,75408.000,1.000
43.306,2.290,-2.906,4.126,4.368,3.775,7.536,7.461,-0.010,0.867,-0.436,-0.732,-0.916,0.763,80.000,75409.000,1.000
44.072,1.873,-3.132,2.668,2.954,3.006,3.921,4.755,-0.011,0.869,-0.438,-0.732,-0.916,0.702,80.000,75410.000,1.000
49.094,1.717,-3.032,1.326,2.057,3.138,0.953,1.784,-0.006,0.868,-0.438,-0.793,-0.916,0.702,80.000,75411.000,1.000
56.600,2.406,-2.247,0.884,2.555,4.691,-0.107,0.156,-0.007,0.868,-0.437,-0.793,-0.916,0.793,80.000,75412.000,1.000
63.768,4.112,-0.670,1.712,4.583,7.524,1.028,0.571,-0.009,0.870,-0.439,-0.793,-0.885,0.763,80.000,75413.000,1.000
67.945,6.673,1.555,3.651,7.711,11.401,4.164,2.791,-0.010,0.870,-0.439,-0.763,-0.854,0.732,80.000,75414.000,1.000
68.475,9.675,4.111,6.261,11.406,16.176,9.113,6.422,-0.010,0.870,-0.440,-0.824,-0.763,0.732,80.000,75415.000,1.000
68.297,12.383,6.679,8.984,15.042,21.147,15.279,11.155,-0.009,0.869,-0.443,-1.007,-0.763,0.854,80.000,75416.000,1.000
72.607,13.741,8.441,10.908,17.498,24.480,20.616,15.820,-0.010,0.867,-0.438,-0.946,-0.824,0.641,80.000,75417.000,1.000
84.973,12.815,8.589,10.919,17.275,23.949,22.207,18.031,-0.009,0.867,-0.438,-0.885,-0.671,0.702,80.000,75418.000,1.000
104.823,9.495,6.747,8.459,13.580,18.804,18.318,15.749,-0.010,0.865,-0.438,-0.885,-0.702,0.702,80.000,75419.000,1.000
128.026,4.767,3.326,4.226,7.287,10.683,10.047,9.339,-0.010,0.864,-0.441,-0.977,-0.732,0.763,80.000,75420.000,1.000
148.126,0.120,-0.545,-0.122,0.531,2.383,0.779,1.651,-0.009,0.863,-0.437,-1.038,-0.671,0.793,80.000,75421.000,1.000
157.484,-3.352,-4.061,-3.135,-4.637,-3.881,-6.117,-4.013,-0.010,0.863,-0.438,-0.885,-0.610,0.793,80.000,75422.000,1.000
150.561,-5.318,-6.704,-4.315,-7.305,-7.264,-8.987,-6.023,-0.010,0.864,-0.436,-0.885,-0.580,0.854,80.000,75423.000,1.000
127.905,-6.140,-8.371,-4.240,-8.033,-8.434,-8.706,-5.396,-0.011,0.862,-0.440,-0.854,-0.641,0.916,80.000,75424.000,1.000
96.240,-6.491,-9.268,-3.976,-8.192,-8.917,-7.668,-4.644,-0.012,0.860,-0.439,-0.793,-0.671,0.824,80.000,75425.000,1.000
64.442,-6.731,-9.289,-4.051,-8.581,-9.562,-7.366,-5.235,-0.009,0.861,-0.435,-0.641,-0.671,0.793,80.000,75426.000,1.000
39.579,-6.626,-8.296,-4.119,-8.790,-9.785,-7.432,-6.506,-0.010,0.862,-0.437,-0.397,-0.671,0.702,80.000,75427.000,1.000
25.065,-5.751,-6.199,-3.550,-7.992,-8.587,-6.630,-6.923,-0.009,0.864,-0.436,-0.458,-0.610,0.763,80.000,75428.000,1.000
20.088,-4.045,-3.450,-2.257,-6.093,-5.993,-4.545,-5.884,-0.009,0.868,-0.437,-0.488,-0.641,0.702,80.000,75429.000,1.000
20.482,-1.903,-0.942,-0.789,-3.916,-3.269,-2.136,-4.144,-0.010,0.868,-0.441,-0.488,-0.702,0.793,80.000,75430.000,1.000
21.133,0.143,0.749,0.170,-2.548,-1.947,-0.977,-3.092,-0.012,0.869,-0.440,-0.488,-0.610,0.854,80.000,75431.000,1.000
18.615,1.718,1.297,0.199,-2.569,-2.629,-2.077,-3.773,-0.012,0.870,-0.440,-0.458,-0.763,0.763,80.000,75432.000,1.000
12.594,2.737,0.900,-0.615,-3.669,-4.432,-4.669,-5.985,-0.011,0.870,-0.442,-0.549,-0.702,0.702,80.000,75433.000,1.000
4.771,3.221,-0.213,-1.953,-5.027,-5.691,-6.811,-8.503,-0.011,0.869,-0.439,-0.580,-0.702,0.580,80.000,75434.000,1.000
-3.774,3.040,-2.103,-3.682,-6.112,-5.432,-7.157,-10.224,-0.010,0.868,-0.438,-0.702,-0.702,0.610,80.000,75435.000,1.000
-14.092,1.976,-4.681,-5.822,-6.967,-4.036,-5.778,-10.867,-0.006,0.868,-0.438,-0.702,-0.824,0.610,80.000,75436.000,1.000
-28.087,0.083,-7.663,-8.214,-7.789,-2.521,-3.657,-10.703,-0.004,0.866,-0.440,-0.671,-0.763,0.671,80.000,75437.000,1.000
-45.752,-2.192,-10.225,-10.301,-8.539,-1.756,-1.628,-9.951,-0.004,0.867,-0.439,-0.732,-0.763,0.793,80.000,75438.000,1.000
-63.915,-4.350,-11.652,-11.524,-9.099,-2.405,-0.377,-8.864,-0.005,0.866,-0.439,-0.732,-0.702,0.824,80.000,75439.000,1.000
-77.679,-6.146,-11.857,-11.721,-9.503,-4.801,-0.468,-7.906,-0.007,0.864,-0.439,-0.702,-0.580,0.824,80.000,75440.000,1.000
-83.404,-7.573,-11.204,-11.153,-9.976,-8.578,-1.882,-7.574,-0.008,0.865,-0.438,-0.641,-0.488,0.946,80.000,75441.000,1.000
-81.151,-8.782,-10.665,-10.426,-10.889,-12.743,-4.183,-8.325,-0.009,0.863,-0.435,-0.671,-0.488,0.946,80.000,75442.000,1.000
-74.660,-9.885,-10.937,-10.099,-12.381,-16.043,-6.609,-10.152,-0.009,0.863,-0.435,-0.641,-0.458,0.916,80.000,75443.000,1.000
-68.785,-10.740,-12.009,-10.258,-13.890,-17.169,-8.003,-12.110,-0.007,0.866,-0.437,-0.702,-0.366,0.824,80.000,75444.000,1.000
-66.155,-11.004,-13.208,-10.477,-14.405,-15.176,-7.054,-12.736,-0.007,0.867,-0.440,-0.641,-0.458,0.916,80.000,75445.000,1.000
-65.981,-10.543,-13.601,-10.249,-13.412,-10.494,-3.298,-11.277,-0.007,0.868,-0.444,-0.519,-0.488,1.038,80.000,75446.000,1.000
-66.275,-9.730,-13.061,-9.477,-11.430,-5.363,1.869,-8.406,-0.006,0.867,-0.442,-0.519,-0.458,1.007,80.000,75447.000,1.000
-66.191,-9.079,-11.908,-8.366,-9.461,-2.339,6.193,-5.557,-0.006,0.867,-0.443,-0.549,-0.427,0.977,80.000,75448.000,1.000
-65.865,-8.662,-10.541,-7.067,-8.030,-2.136,8.337,-3.776,-0.007,0.868,-0.445,-0.641,-0.427,1.007,80.000,75449.000,1.000
-65.645,-8.066,-9.266,-5.484,-6.885,-3.362,8.600,-3.114,-0.006,0.867,-0.442,-0.488,-0.397,1.099,80.000,75450.000,1.000
-66.380,-6.940,-8.148,-3.473,-5.526,-4.187,8.202,-2.925,-0.005,0.865,-0.444,-0.549,-0.275,1.099,80.000,75451.000,1.000
-69.412,-5.433,-7.503,-1.261,-3.848,-3.799,7.991,-2.616,-0.008,0.866,-0.445,-0.427,-0.305,1.129,80.000,75452.000,1.000
-75.778,-4.061,-7.485,0.580,-2.242,-2.537,8.167,-2.034,-0.011,0.869,-0.442,-0.244,-0.244,1.007,80.000,75453.000,1.000
-85.636,-3.231,-7.989,1.495,-1.202,-1.175,8.567,-1.415,-0.011,0.871,-0.443,-0.275,-0.275,0.854,80.000,75454.000,1.000
-97.918,-2.869,-8.611,1.397,-0.811,-0.038,9.177,-0.976,-0.011,0.873,-0.444,-0.336,-0.427,0.763,80.000,75455.000,1.000
-110.483,-2.577,-8.704,0.684,-0.768,1.010,10.046,-0.754,-0.011,0.877,-0.443,-0.519,-0.427,0.671,80.000,75456.000,1.000
-121.252,-2.099,-8.168,-0.195,-0.802,1.955,10.646,-0.802,-0.012,0.878,-0.441,-0.641,-0.519,0.519,80.000,75457.000,1.000
-129.149,-1.385,-7.090,-0.793,-0.616,2.847,10.643,-0.875,-0.011,0.880,-0.441,-0.763,-0.641,0.610,80.000,75458.000,1.000
-133.872,-0.509,-5.720,-0.779,0.142,4.033,10.390,-0.435,-0.011,0.881,-0.442,-0.977,-0.671,0.397,80.000,75459.000,1.000
-135.274,0.071,-4.650,-0.365,1.192,5.121,9.866,0.448,-0.010,0.881,-0.443,-1.282,-0.702,0.305,80.000,75460.000,1.000
-133.254,-0.456,-4.479,-0.352,1.399,4.615,8.162,0.653,-0.008,0.879,-0.442,-1.404,-0.763,0.244,80.000,75461.000,1.000
-127.773,-2.441,-5.497,-1.360,-0.061,1.632,4.730,-0.785,-0.009,0.878,-0.441,-1.495,-0.793,0.153,80.000,75462.000,1.000
-118.954,-5.091,-6.848,-2.940,-2.558,-2.773,0.769,-3.091,-0.008,0.874,-0.441,-1.617,-0.763,0.031,80.000,75463.000,1.000
-108.108,-6.858,-7.175,-3.852,-4.375,-6.261,-1.557,-4.165,-0.008,0.874,-0.442,-1.770,-0.793,-0.031,80.000,75464.000,1.000
-98.357,-6.484,-5.681,-3.055,-4.040,-6.683,-0.679,-2.372,-0.008,0.870,-0.444,-1.831,-0.793,-0.061,80.000,75465.000,1.000
-93.025,-3.818,-2.394,-0.417,-1.410,-3.487,3.328,2.107,-0.008,0.868,-0.441,-1.923,-0.732,-0.092,80.000,75466.000,1.000
-93.111,0.138,1.689,3.186,2.227,1.842,8.442,7.202,-0.008,0.867,-0.439,-1.831,-0.732,-0.031,80.000,75467.000,1.000
-96.570,3.986,5.591,6.588,5.143,6.950,12.108,10.364,-0.010,0.868,-0.438,-1.862,-0.854,-0.031,80.000,75468.000,1.000
-99.990,6.746,8.694,9.048,6.271,10.149,12.754,10.207,-0.009,0.865,-0.436,-1.923,-0.793,-0.061,80.000,75469.000,1.000
-100.852,8.224,10.790,10.521,5.729,11.265,10.650,7.369,-0.009,0.865,-0.435,-1.862,-0.824,0.031,80.000,75470.000,1.000
-98.874,8.950,12.256,11.500,4.677,11.507,7.894,4.181,-0.011,0.864,-0.437,-1.892,-0.885,0.031,80.000,75471.000,1.000
-95.939,9.572,13.297,12.362,4.302,11.998,6.505,2.851,-0.013,0.865,-0.438,-1.770,-0.946,0.092,80.000,75472.000,1.000
-94.668,10.157,13.848,12.866,4.550,12.189,6.373,3.436,-0.012,0.864,-0.436,-1.770,-1.007,0.092,80.000,75473.000,1.000
-96.703,10.207,13.554,12.339,4.186,10.453,5.460,3.879,-0.013,0.863,-0.433,-1.709,-1.007,0.092,80.000,75474.000,1.000
-101.276,9.429,12.288,10.511,2.341,6.364,2.475,2.358,-0.015,0.863,-0.429,-1.648,-1.099,0.092,80.000,75475.000,1.000
-104.823,8.190,10.736,7.975,-0.444,1.641,-1.442,-0.997,-0.015,0.864,-0.436,-1.648,-1.190,0.244,80.000,75476.000,1.000
-102.984,7.177,9.689,5.768,-2.726,-1.164,-3.954,-4.516,-0.015,0.865,-0.433,-1.587,-1.343,0.214,80.000,75477.000,1.000
-93.686,6.767,9.754,4.815,-3.304,-0.580,-3.302,-6.214,-0.014,0.861,-0.430,-1.495,-1.373,0.244,80.000,75478.000,1.000
-78.496,6.717,10.816,5.340,-2.069,2.740,0.369,-5.144,-0.015,0.861,-0.430,-1.556,-1.312,0.214,80.000,75479.000,1.000
-61.438,6.410,12.052,6.654,-0.050,6.498,4.983,-2.138,-0.015,0.860,-0.435,-1.465,-1.495,0.305,80.000,75480.000,1.000
-46.629,5.389,12.688,7.640,1.327,8.416,8.073,0.761,-0.014,0.862,-0.434,-1.526,-1.434,0.397,80.000,75481.000,1.000
-36.430,3.639,12.143,7.427,1.094,7.490,8.086,1.519,-0.015,0.860,-0.435,-1.373,-1.556,0.397,80.000,75482.000,1.000
-30.869,1.520,10.559,5.881,-0.840,3.985,4.929,-0.804,-0.014,0.861,-0.435,-1.221,-1.648,0.336,80.000,75483.000,1.000
-28.427,-0.456,8.527,3.605,-3.678,-0.992,-0.148,-5.468,-0.012,0.860,-0.435,-1.160,-1.526,0.427,80.000,75484.000,1.000
-27.506,-1.844,6.687,1.628,-6.101,-5.817,-4.988,-10.215,-0.010,0.860,-0.435,-1.038,-1.587,0.519,80.000,75485.000,1.000
-27.180,-2.533,5.532,0.762,-7.151,-9.110,-7.734,-12.750,-0.007,0.862,-0.434,-0.885,-1.648,0.519,80.000,75486.000,1.000
-26.832,-2.935,4.709,0.888,-6.980,-10.580,-8.249,-12.520,-0.007,0.862,-0.436,-0.854,-1.648,0.549,80.000,75487.000,1.000
-25.629,-3.712,3.531,1.074,-6.608,-11.001,-7.722,-10.757,-0.008,0.862,-0.438,-0.763,-1.648,0.641,80.000,75488.000,1.000
-22.608,-5.245,1.457,0.279,-7.037,-11.395,-7.520,-9.209,-0.008,0.865,-0.435,-0.702,-1.587,0.671,80.000,75489.000,1.000
-17.280,-7.329,-1.442,-1.864,-8.562,-12.261,-8.326,-8.980,-0.007,0.863,-0.436,-0.671,-1.556,0.793,80.000,75490.000,1.000
-10.455,-9.317,-4.234,-4.813,-10.714,-13.435,-9.856,-10.127,-0.006,0.865,-0.435,-0.610,-1.495,0.916,80.000,75491.000,1.000
-4.503,-10.617,-6.103,-7.638,-12.686,-14.468,-11.421,-11.987,-0.008,0.865,-0.438,-0.610,-1.495,0.854,80.000,75492.000,1.000
-2.064,-11.073,-6.589,-9.536,-13.779,-15.024,-12.264,-13.553,-0.006,0.867,-0.437,-0.610,-1.434,0.916,80.000,75493.000,1.000
-4.232,-10.921,-5.812,-10.124,-13.643,-14.978,-11.900,-13.922,-0.006,0.865,-0.438,-0.519,-1.465,1.007,80.000,75494.000,1.000
-9.946,-10.424,-4.276,-9.464,-12.372,-14.267,-10.305,-12.814,-0.008,0.868,-0.439,-0.519,-1.343,1.038,80.000,75495.000,1.000
-16.666,-9.674,-2.290,-7.911,-10.404,-12.932,-7.831,-10.670,-0.008,0.869,-0.438,-0.488,-1.282,1.099,80.000,75496.000,1.000
-21.465,-8.631,-0.179,-5.872,-8.155,-11.295,-5.110,-8.002,-0.007,0.870,-0.438,-0.580,-1.312,1.129,80.000,75497.000,1.000
-22.347,-7.199,1.989,-3.552,-5.675,-9.729,-2.585,-4.797,-0.005,0.871,-0.436,-0.580,-1.190,1.160,80.000,75498.000,1.000
-19.778,-5.426,4.015,-1.217,-2.921,-8.387,-0.680,-1.161,-0.005,0.871,-0.436,-0.610,-1.129,1.129,80.000,75499.000,1.000
-16.915,-3.702,5.349,0.537,-0.277,-7.326,0.049,2.029,-0.007,0.872,-0.441,-0.671,-1.068,1.129,80.000,75500.000,1.000
-17.372,-2.661,5.516,1.031,1.472,-6.622,-0.519,3.685,-0.007,0.874,-0.438,-0.671,-0.916,1.129,80.000,75501.000,1.000
-22.166,-2.790,4.049,-0.071,1.653,-6.223,-1.899,3.233,-0.006,0.873,-0.439,-0.732,-1.007,1.129,80.000,75502.000,1.000
-28.759,-4.001,1.107,-2.410,0.178,-5.889,-3.210,0.823,-0.006,0.873,-0.444,-0.854,-0.854,1.129,80.000,75503.000,1.000
-33.534,-5.652,-2.564,-5.118,-2.401,-5.585,-3.975,-2.862,-0.007,0.875,-0.440,-0.946,-0.854,1.129,80.000,75504.000,1.000
-35.110,-7.008,-5.882,-7.339,-5.256,-5.847,-4.519,-6.810,-0.007,0.875,-0.438,-0.885,-0.824,1.129,80.000,75505.000,1.000
-34.918,-7.575,-7.571,-8.558,-7.568,-7.142,-5.149,-9.748,-0.009,0.876,-0.438,-0.854,-0.671,0.946,80.000,75506.000,1.000
-35.550,-7.168,-7.194,-8.714,-8.664,-8.866,-5.413,-10.467,-0.009,0.875,-0.437,-1.038,-0.763,0.916,80.000,75507.000,1.000
-39.339,-6.073,-5.686,-8.190,-8.361,-9.714,-4.499,-8.571,-0.009,0.873,-0.434,-1.129,-0.824,0.824,80.000,75508.000,1.000
-46.863,-5.177,-5.309,-7.813,-7.359,-9.249,-2.704,-5.155,-0.008,0.873,-0.438,-1.251,-0.763,0.763,80.000,75509.000,1.000
-55.298,-5.516,-7.811,-8.418,-6.916,-8.529,-1.501,-2.251,-0.006,0.870,-0.435,-1.373,-0.580,0.763,80.000,75510.000,1.000
-59.253,-7.474,-12.441,-10.212,-7.846,-8.940,-1.922,-1.397,-0.004,0.868,-0.437,-1.373,-0.519,0.824,80.000,75511.000,1.000
-54.240,-10.450,-16.871,-12.720,-9.854,-10.790,-3.784,-2.810,-0.004,0.867,-0.438,-1.221,-0.427,0.824,80.000,75512.000,1.000
-39.349,-13.266,-19.023,-15.140,-11.836,-13.145,-6.095,-5.523,-0.004,0.868,-0.441,-1.068,-0.458,0.763,80.000,75513.000,1.000
-17.665,-14.916,-18.628,-16.855,-12.715,-14.606,-7.908,-8.245,-0.005,0.872,-0.440,-1.099,-0.305,0.702,80.000,75514.000,1.000
4.999,-14.955,-16.727,-17.570,-11.982,-14.115,-8.534,-9.995,-0.004,0.872,-0.436,-1.129,-0.305,0.854,80.000,75515.000,1.000
22.863,-13.416,-13.999,-17.057,-9.648,-11.395,-7.438,-10.132,-0.003,0.870,-0.436,-1.068,-0.153,0.916,80.000,75516.000,1.000
33.289,-10.608,-10.662,-15.082,-6.029,-7.020,-4.597,-8.239,-0.004,0.867,-0.437,-1.068,-0.092,0.885,80.000,75517.000,1.000
37.431,-7.125,-6.876,-11.642,-1.748,-2.198,-0.561,-4.207,-0.002,0.865,-0.437,-1.129,0.000,0.946,80.000,75518.000,1.000
37.980,-3.951,-3.560,-7.504,2.075,1.415,3.231,0.998,-0.005,0.864,-0.436,-0.977,0.000,1.038,80.000,75519.000,1.000
37.277,-2.145,-1.961,-4.159,4.000,2.105,4.579,4.946,-0.007,0.862,-0.436,-0.732,0.000,0.977,80.000,75520.000,1.000
37.100,-2.016,-2.243,-2.771,3.301,-0.620,2.212,5.353,-0.010,0.862,-0.437,-0.793,0.000,0.885,80.000,75521.000,1.000
38.347,-2.718,-3.445,-3.208,0.927,-4.903,-2.543,2.452,-0.013,0.861,-0.438,-0.671,-0.031,0.824,80.000,75522.000,1.000
40.410,-3.012,-4.097,-4.310,-1.218,-7.748,-6.510,-1.203,-0.014,0.861,-0.435,-0.641,-0.031,0.702,80.000,75523.000,1.000
42.040,-2.426,-3.606,-5.191,-2.049,-7.669,-7.710,-3.502,-0.014,0.865,-0.436,-0.610,-0.122,0.519,80.000,75524.000,1.000
43.283,-1.412,-2.458,-5.754,-1.758,-5.459,-6.554,-4.134,-0.016,0.865,-0.436,-0.488,-0.275,0.397,80.000,75525.000,1.000
45.470,-0.733,-1.375,-6.277,-1.005,-2.884,-4.526,-3.705,-0.016,0.864,-0.437,-0.519,-0.458,0.397,80.000,75526.000,1.000
49.188,-0.959,-1.222,-7.078,-0.364,-1.398,-3.081,-2.850,-0.015,0.865,-0.437,-0.336,-0.488,0.214,80.000,75527.000,1.000
53.245,-2.109,-2.254,-8.140,-0.059,-1.376,-2.704,-1.692,-0.014,0.867,-0.436,-0.305,-0.519,0.092,80.000,75528.000,1.000
55.533,-3.542,-4.004,-8.971,0.178,-1.977,-2.711,0.181,-0.012,0.867,-0.435,-0.275,-0.671,0.031,80.000,75529.000,1.000
54.327,-4.438,-5.764,-9.049,0.686,-2.111,-2.350,2.787,-0.013,0.866,-0.441,-0.214,-0.793,0.000,80.000,75530.000,1.000
48.890,-4.531,-7.093,-8.480,1.156,-1.777,-2.174,4.814,-0.011,0.866,-0.439,-0.214,-0.793,0.000,80.000,75531.000,1.000
39.810,-4.233,-8.322,-8.019,0.745,-2.108,-3.935,4.290,-0.012,0.867,-0.437,-0.153,-0.946,0.031,80.000,75532.000,1.000
29.426,-3.904,-9.488,-8.093,-0.756,-3.788,-8.260,0.748,-0.010,0.867,-0.439,-0.122,-0.977,-0.061,80.000,75533.000,1.000
21.107,-3.296,-9.984,-8.219,-2.234,-5.765,-13.323,-3.811,-0.011,0.866,-0.440,-0.092,-1.038,-0.031,80.000,75534.000,1.000
17.270,-1.935,-9.159,-7.530,-2.117,-6.041,-16.162,-6.406,-0.009,0.866,-0.439,0.000,-1.099,0.000,80.000,75535.000,1.000
18.009,0.162,-6.953,-5.708,0.205,-3.528,-15.014,-5.394,-0.008,0.866,-0.437,-0.031,-1.190,0.000,80.000,75536.000,1.000
21.354,2.357,-4.375,-3.397,3.919,1.150,-10.489,-1.527,-0.010,0.868,-0.436,-0.122,-1.373,0.122,80.000,75537.000,1.000
24.475,3.907,-2.401,-1.651,7.528,6.330,-4.536,2.990,-0.010,0.868,-0.433,0.000,-1.465,0.214,80.000,75538.000,1.000
24.931,4.545,-1.308,-1.079,9.998,10.489,1.103,6.395,-0.010,0.871,-0.436,-0.122,-1.434,0.275,80.000,75539.000,1.000
21.689,4.679,-0.662,-1.314,11.396,13.010,5.826,8.609,-0.012,0.871,-0.435,-0.122,-1.404,0.366,80.000,75540.000,1.000
15.435,5.001,0.280,-1.354,12.497,14.067,9.765,10.588,-0.013,0.871,-0.437,-0.122,-1.495,0.488,80.000,75541.000,1.000
8.177,5.828,1.642,-0.515,13.820,13.949,12.507,12.717,-0.015,0.871,-0.436,-0.244,-1.678,0.519,80.000,75542.000,1.000
2.410,6.788,3.244,1.134,15.103,12.620,13.098,14.358,-0.015,0.869,-0.437,-0.275,-1.831,0.641,80.000,75543.000,1.000
-0.081,7.082,4.633,2.875,15.548,9.955,10.835,14.445,-0.015,0.871,-0.437,-0.214,-1.862,0.549,80.000,75544.000,1.000
1.311,6.246,5.298,3.981,14.615,6.423,6.141,12.562,-0.014,0.871,-0.439,-0.214,-1.892,0.610,80.000,75545.000,1.000
6.467,4.657,5.231,4.355,12.596,3.220,0.734,9.521,-0.014,0.872,-0.439,-0.183,-2.075,0.641,80.000,75546.000,1.000
14.403,3.142,4.592,4.386,10.305,1.428,-3.649,6.581,-0.015,0.871,-0.438,-0.275,-2.136,0.641,80.000,75547.000,1.000
22.921,2.316,3.941,4.540,8.507,1.274,-6.114,4.608,-0.014,0.872,-0.438,-0.397,-2.258,0.610,80.000,75548.000,1.000
29.269,2.388,3.968,5.112,7.789,2.393,-6.566,4.062,-0.012,0.872,-0.437,-0.397,-2.411,0.641,80.000,75549.000,1.000
31.348,3.310,5.030,6.181,8.479,4.332,-5.467,5.077,-0.012,0.871,-0.438,-0.427,-2.380,0.610,80.000,75550.000,1.000
28.648,4.846,6.983,7.580,10.357,6.457,-3.842,7.245,-0.011,0.871,-0.438,-0.458,-2.380,0.610,80.000,75551.000,1.000
22.553,6.640,9.026,8.985,12.772,8.058,-2.790,9.870,-0.009,0.868,-0.437,-0.519,-2.350,0.610,80.000,75552.000,1.000
15.718,8.507,10.759,10.251,15.180,9.113,-2.195,12.631,-0.009,0.868,-0.437,-0.671,-2.411,0.641,80.000,75553.000,1.000
10.697,10.382,12.129,11.180,17.112,10.352,-1.211,15.073,-0.009,0.867,-0.435,-0.671,-2.350,0.580,80.000,75554.000,1.000
8.718,11.965,12.840,11.210,17.817,12.296,0.305,16.055,-0.008,0.867,-0.437,-0.763,-2.441,0.610,80.000,75555.000,1.000
9.381,12.726,12.486,9.862,16.571,14.665,1.792,14.786,-0.007,0.866,-0.437,-0.641,-2.350,0.580,80.000,75556.000,1.000
11.269,12.284,10.672,7.230,13.178,16.612,2.577,11.591,-0.009,0.867,-0.437,-0.793,-2.258,0.549,80.000,75557.000,1.000
13.013,10.633,7.786,3.936,7.945,17.123,2.102,7.224,-0.011,0.867,-0.437,-0.610,-2.350,0.580,80.000,75558.000,1.000
14.020,8.170,4.759,0.784,1.633,15.488,-0.034,2.365,-0.010,0.866,-0.438,-0.641,-2.350,0.458,80.000,75559.000,1.000
14.636,5.698,2.557,-1.338,-4.306,12.088,-3.263,-1.778,-0.009,0.865,-0.440,-0.610,-2.319,0.427,80.000,75560.000,1.000
16.098,4.086,1.882,-1.770,-8.213,8.445,-5.956,-3.838,-0.008,0.866,-0.438,-0.702,-2.197,0.397,80.000,75561.000,1.000
19.885,3.712,2.572,-0.629,-9.384,5.954,-7.052,-3.697,-0.008,0.866,-0.438,-0.641,-2.136,0.397,80.000,75562.000,1.000
26.366,4.396,4.251,1.428,-8.415,4.735,-6.806,-2.425,-0.007,0.866,-0.439,-0.641,-2.167,0.397,80.000,75563.000,1.000
34.081,5.628,6.494,3.688,-6.590,3.829,-6.298,-1.257,-0.007,0.868,-0.438,-0.671,-2.136,0.305,80.000,75564.000,1.000
40.388,6.830,8.773,5.659,-5.005,2.403,-6.330,-0.836,-0.009,0.868,-0.438,-0.641,-2.197,0.153,80.000,75565.000,1.000
42.513,7.664,10.761,7.219,-3.934,0.773,-6.516,-0.866,-0.008,0.865,-0.441,-0.702,-2.075,0.122,80.000,75566.000,1.000
38.992,8.101,12.110,8.420,-2.945,0.025,-5.867,-0.572,-0.007,0.868,-0.437,-0.702,-2.136,0.183,80.000,75567.000,1.000
31.544,8.175,12.806,9.261,-1.655,0.624,-4.044,0.401,-0.007,0.869,-0.437,-0.641,-2.045,0.153,80.000,75568.000,1.000
25.072,7.847,12.933,9.602,-0.191,1.902,-1.920,1.600,-0.010,0.867,-0.438,-0.610,-2.075,0.122,80.000,75569.000,1.000
24.685,7.208,12.582,9.426,1.168,2.975,-0.481,2.556,-0.009,0.868,-0.438,-0.671,-2.014,0.122,80.000,75570.000,1.000
32.236,6.638,12.071,9.037,2.470,3.558,0.307,3.486,-0.008,0.868,-0.439,-0.641,-2.014,0.061,80.000,75571.000,1.000
45.379,6.574,11.498,8.790,3.964,3.916,1.073,4.787,-0.009,0.869,-0.439,-0.763,-1.984,-0.031,80.000,75572.000,1.000
59.437,7.213,11.118,8.887,5.727,4.501,2.514,6.467,-0.009,0.870,-0.439,-0.854,-2.014,0.031,80.000,75573.000,1.000
69.675,8.385,11.234,9.282,7.555,5.616,4.973,8.255,-0.010,0.871,-0.437,-0.824,-1.892,0.061,80.000,75574.000,1.000
72.523,9.665,12.027,9.808,9.129,7.207,8.281,9.956,-0.010,0.869,-0.437,-0.977,-1.984,0.000,80.000,75575.000,1.000
66.375,10.430,13.401,10.144,9.928,8.680,11.527,11.094,-0.010,0.868,-0.438,-0.946,-1.831,0.092,80.000,75576.000,1.000
52.354,9.956,14.360,9.604,9.139,8.909,12.940,10.466,-0.011,0.869,-0.439,-0.885,-1.892,0.092,80.000,75577.000,1.000
34.494,7.965,13.994,7.680,6.444,7.161,11.509,7.386,-0.012,0.867,-0.439,-0.977,-2.014,0.092,80.000,75578.000,1.000
18.633,5.097,12.247,4.736,2.779,4.049,8.208,2.896,-0.012,0.869,-0.439,-0.946,-1.862,0.153,80.000,75579.000,1.000
10.287,2.532,9.878,1.896,-0.211,1.128,5.171,-0.937,-0.012,0.869,-0.437,-1.068,-1.923,0.122,80.000,75580.000,1.000
12.301,1.082,7.942,0.231,-1.416,-0.403,3.944,-2.604,-0.014,0.870,-0.438,-1.160,-1.923,0.153,80.000,75581.000,1.000
23.664,0.740,6.787,0.049,-0.831,-0.377,4.507,-1.885,-0.013,0.870,-0.437,-1.129,-1.953,0.183,80.000,75582.000,1.000
40.547,1.054,6.435,0.973,0.820,0.760,6.046,0.455,-0.013,0.870,-0.437,-1.190,-1.831,0.214,80.000,75583.000,1.000
58.150,1.534,6.634,2.189,2.557,2.344,7.517,2.914,-0.012,0.871,-0.437,-1.160,-1.892,0.183,80.000,75584.000,1.000
71.831,1.832,6.901,2.896,3.603,3.593,7.941,4.001,-0.012,0.869,-0.439,-1.160,-1.892,0.183,80.000,75585.000,1.000
78.211,1.941,7.089,3.012,3.969,4.117,7.247,3.587,-0.014,0.870,-0.444,-1.038,-1.923,0.214,80.000,75586.000,1.000
76.637,2.112,7.167,3.117,4.317,4.172,6.184,2.815,-0.012,0.869,-0.441,-1.129,-2.014,0.183,80.000,75587.000,1.000
69.477,2.401,7.251,3.747,5.063,4.115,5.447,2.653,-0.013,0.868,-0.437,-1.129,-1.953,0.305,80.000,75588.000,1.000
60.499,2.411,7.108,4.797,5.905,3.942,5.027,3.086,-0.010,0.869,-0.438,-1.129,-1.953,0.336,80.000,75589.000,1.000
53.433,1.629,6.190,5.630,6.186,3.475,4.571,3.533,-0.010,0.868,-0.435,-1.129,-1.831,0.366,80.000,75590.000,1.000
51.859,-0.061,4.355,5.679,5.538,2.718,4.062,3.501,-0.012,0.868,-0.439,-1.129,-1.831,0.458,80.000,75591.000,1.000
58.360,-2.150,1.931,4.961,4.316,2.058,3.969,3.083,-0.014,0.868,-0.435,-1.068,-1.862,0.488,80.000,75592.000,1.000
72.495,-3.670,0.056,4.239,3.519,2.160,5.242,3.212,-0.013,0.868,-0.437,-1.129,-1.892,0.488,80.000,75593.000,1.000
90.354,-3.872,-0.247,4.373,3.924,3.347,8.321,4.713,-0.012,0.869,-0.437,-1.068,-1.831,0.519,80.000,75594.000,1.000
106.697,-2.896,0.873,5.484,5.174,4.986,12.097,7.022,-0.011,0.867,-0.439,-1.099,-1.678,0.641,80.000,75595.000,1.000
117.175,-1.690,2.288,6.761,5.887,5.749,14.298,8.209,-0.012,0.866,-0.439,-1.038,-1.617,0.641,80.000,75596.000,1.000
119.264,-1.181,2.574,7.078,4.839,4.716,13.100,6.589,-0.010,0.866,-0.440,-0.977,-1.587,0.732,80.000,75597.000,1.000
113.039,-1.547,1.436,6.028,2.049,2.174,8.869,2.467,-0.010,0.868,-0.441,-0.977,-1.617,0.641,80.000,75598.000,1.000
101.610,-2.385,-0.453,4.081,-1.431,-0.815,3.626,-2.270,-0.011,0.868,-0.437,-0.977,-1.526,0.671,80.000,75599.000,1.000
89.696,-3.250,-2.268,1.979,-4.463,-3.340,-0.738,-5.893,-0.012,0.868,-0.435,-0.977,-1.465,0.641,80.000,75600.000,1.000
80.718,-3.850,-3.246,0.431,-6.247,-4.967,-3.159,-7.447,-0.011,0.868,-0.436,-0.946,-1.404,0.671,80.000,75601.000,1.000
75.411,-3.927,-3.096,0.057,-6.268,-5.431,-3.338,-6.524,-0.009,0.867,-0.435,-0.977,-1.312,0.702,80.000,75602.000,1.000
73.041,-3.301,-1.700,1.147,-4.502,-4.595,-1.588,-3.459,-0.011,0.869,-0.437,-1.007,-1.282,0.702,80.000,75603.000,1.000
72.720,-2.123,0.564,3.257,-1.678,-2.776,0.982,0.388,-0.012,0.870,-0.437,-1.038,-1.160,0.732,80.000,75604.000,1.000
73.704,-0.824,2.813,5.438,1.123,-0.611,3.084,3.391,-0.011,0.869,-0.436,-0.916,-1.160,0.702,80.000,75605.000,1.000
75.289,0.201,4.375,6.933,3.160,1.387,4.190,4.658,-0.013,0.869,-0.436,-1.007,-1.129,0.702,80.000,75606.000,1.000
76.467,0.903,4.982,7.565,4.423,3.064,4.549,4.430,-0.011,0.869,-0.436,-0.916,-1.007,0.671,80.000,75607.000,1.000
75.656,1.742,5.344,7.900,5.607,4.742,5.116,4.015,-0.011,0.867,-0.437,-0.885,-0.977,0.641,80.000,75608.000,1.000
71.074,3.224,6.383,8.644,7.349,6.859,6.704,4.604,-0.011,0.869,-0.438,-0.977,-0.977,0.671,80.000,75609.000,1.000
62.066,5.227,8.223,9.942,9.445,9.222,9.100,6.260,-0.012,0.869,-0.439,-0.916,-0.946,0.641,80.000,75610.000,1.000
50.027,6.969,10.272,11.426,10.984,10.757,11.259,8.324,-0.010,0.868,-0.438,-0.793,-0.916,0.671,80.000,75611.000,1.000
37.528,7.422,11.302,12.417,10.833,9.949,11.518,9.577,-0.013,0.868,-0.441,-0.732,-0.885,0.610,80.000,75612.000,1.000
26.731,5.827,10.329,12.159,8.138,5.925,8.521,8.318,-0.012,0.869,-0.440,-0.793,-0.854,0.641,80.000,75613.000,1.000
18.356,2.298,7.149,10.375,3.194,-0.402,2.639,3.845,-0.009,0.868,-0.438,-0.702,-0.824,0.610,80.000,75614.000,1.000
11.508,-1.954,2.691,7.781,-2.186,-6.533,-3.752,-2.182,-0.010,0.867,-0.437,-0.732,-0.793,0.671,80.000,75615.000,1.000
4.374,-5.408,-1.388,5.557,-5.888,-10.079,-7.970,-6.943,-0.010,0.868,-0.436,-0.732,-0.793,0.702,80.000,75616.000,1.000
-4.872,-7.410,-4.325,4.144,-7.130,-10.308,-9.107,-8.880,-0.012,0.868,-0.438,-0.702,-0.732,0.702,80.000,75617.000,1.000
-17.617,-8.386,-6.299,3.107,-6.720,-8.302,-8.051,-8.328,-0.009,0.870,-0.437,-0.702,-0.641,0.580,80.000,75618.000,1.000
-34.192,-9.118,-7.936,1.839,-6.033,-5.970,-6.446,-6.561,-0.010,0.869,-0.436,-0.641,-0.702,0.671,80.000,75619.000,1.000
-52.471,-10.062,-9.751,0.066,-6.080,-4.824,-5.691,-4.950,-0.013,0.868,-0.436,-0.641,-0.641,0.671,80.000,75620.000,1.000
-67.807,-11.282,-11.820,-2.231,-7.310,-5.330,-6.359,-4.705,-0.011,0.869,-0.434,-0.671,-0.702,0.824,80.000,75621.000,1.000
-75.866,-12.654,-14.269,-5.048,-9.692,-7.035,-8.286,-6.447,-0.012,0.868,-0.436,-0.763,-0.671,0.916,80.000,75622.000,1.000
-75.578,-13.804,-16.682,-7.999,-12.544,-8.995,-10.435,-9.269,-0.012,0.869,-0.436,-0.793,-0.824,0.885,80.000,75623.000,1.000
-69.144,-14.097,-18.116,-10.132,-14.530,-10.081,-11.169,-10.813,-0.012,0.867,-0.438,-0.793,-0.763,0.824,80.000,75624.000,1.000
-59.785,-13.055,-17.727,-10.541,-14.491,-9.446,-9.385,-9.239,-0.012,0.866,-0.438,-0.732,-0.732,0.824,80.000,75625.000,1.000
-50.182,-10.869,-15.268,-9.249,-12.573,-7.333,-5.869,-5.403,-0.013,0.866,-0.437,-0.732,-0.854,0.885,80.000,75626.000,1.000
-42.664,-8.360,-11.574,-7.282,-10.147,-5.291,-3.255,-2.369,-0.013,0.871,-0.438,-0.732,-0.763,0.885,80.000,75627.000,1.000
-39.235,-6.347,-7.649,-5.699,-8.468,-5.038,-3.645,-2.334,-0.011,0.868,-0.437,-0.732,-0.732,0.824,80.000,75628.000,1.000
-40.411,-5.178,-4.288,-4.970,-7.777,-6.969,-6.912,-4.899,-0.013,0.869,-0.438,-0.793,-0.854,0.916,80.000,75629.000,1.000
-44.539,-4.668,-1.930,-4.974,-7.468,-9.709,-10.904,-7.818,-0.011,0.868,-0.435,-0.671,-0.824,0.854,80.000,75630.000,1.000
-49.076,-4.257,-0.354,-5.200,-6.667,-11.029,-12.788,-8.547,-0.014,0.869,-0.438,-0.671,-0.854,0.793,80.000,75631.000,1.000
-52.283,-3.483,0.639,-5.291,-5.020,-9.636,-11.300,-6.014,-0.013,0.869,-0.438,-0.793,-0.854,0.732,80.000,75632.000,1.000
-53.360,-2.502,1.031,-5.482,-3.276,-6.379,-7.935,-1.741,-0.012,0.869,-0.439,-0.824,-0.824,0.763,80.000,75633.000,1.000
-51.905,-2.019,0.376,-6.415,-2.780,-3.446,-5.779,1.087,-0.012,0.869,-0.437,-0.824,-0.854,0.702,80.000,75634.000,1.000
-47.875,-2.574,-1.707,-8.274,-4.126,-2.417,-6.702,0.421,-0.014,0.867,-0.434,-0.824,-0.854,0.732,80.000,75635.000,1.000
-41.807,-3.982,-4.744,-10.206,-6.375,-3.139,-9.585,-2.707,-0.014,0.870,-0.432,-0.885,-0.946,0.763,80.000,75636.000,1.000
-34.681,-5.459,-7.826,-10.887,-7.596,-3.998,-11.274,-5.056,-0.013,0.870,-0.435,-0.854,-0.946,0.702,80.000,75637.000,1.000
-27.250,-6.135,-9.803,-9.515,-6.287,-3.172,-9.012,-3.966,-0.014,0.867,-0.437,-0.885,-0.977,0.732,80.000,75638.000,1.000
-19.698,-5.588,-10.054,-6.485,-2.555,-0.115,-2.933,0.303,-0.015,0.867,-0.437,-0.916,-0.977,0.732,80.000,75639.000,1.000
-12.264,-4.100,-8.822,-3.136,1.952,3.753,3.785,4.926,-0.015,0.868,-0.435,-0.885,-0.977,0.824,80.000,75640.000,1.000
-5.974,-2.567,-6.837,-0.926,5.088,5.738,7.196,6.856,-0.012,0.869,-0.437,-0.916,-1.007,0.702,80.000,75641.000,1.000
-2.272,-1.885,-5.202,-0.631,5.578,4.049,5.291,4.978,-0.013,0.869,-0.435,-0.885,-1.099,0.702,80.000,75642.000,1.000
-1.893,-2.119,-4.311,-1.707,4.016,-0.172,-0.180,1.006,-0.013,0.870,-0.435,-0.763,-1.038,0.671,80.000,75643.000,1.000
-4.392,-2.595,-3.856,-2.819,2.257,-3.837,-5.305,-2.036,-0.012,0.869,-0.433,-0.793,-1.160,0.702,80.000,75644.000,1.000
-8.270,-2.799,-3.520,-3.117,1.623,-5.063,-7.577,-2.551,-0.012,0.868,-0.435,-0.977,-1.190,0.732,80.000,75645.000,1.000
-11.126,-2.712,-3.039,-2.659,2.145,-4.215,-7.060,-1.054,-0.011,0.869,-0.435,-0.946,-1.190,0.610,80.000,75646.000,1.000
-9.931,-2.352,-2.367,-1.842,3.375,-2.158,-4.782,1.447,-0.013,0.867,-0.438,-0.824,-1.190,0.549,80.000,75647.000,1.000
-2.207,-1.599,-1.339,-0.854,4.973,0.683,-1.455,4.428,-0.012,0.868,-0.436,-0.854,-1.251,0.580,80.000,75648.000,1.000
11.601,-0.705,-0.152,0.004,6.256,3.240,1.562,6.952,-0.012,0.868,-0.439,-0.824,-1.190,0.641,80.000,75649.000,1.000
26.781,-0.358,0.613,0.183,6.230,3.786,2.201,7.592,-0.012,0.869,-0.437,-0.793,-1.221,0.671,80.000,75650.000,1.000
36.505,-0.876,0.872,-0.494,4.662,1.949,-0.211,5.874,-0.011,0.869,-0.437,-0.946,-1.221,0.610,80.000,75651.000,1.000
36.274,-1.750,0.904,-1.594,2.445,-0.589,-4.337,2.641,-0.012,0.868,-0.439,-0.916,-1.282,0.610,80.000,75652.000,1.000
26.770,-2.191,1.175,-2.522,0.640,-1.976,-8.324,-0.980,-0.012,0.869,-0.436,-0.885,-1.343,0.671,80.000,75653.000,1.000
12.763,-1.772,1.761,-2.992,-0.281,-1.681,-11.098,-4.015,-0.012,0.867,-0.433,-0.854,-1.343,0.610,80.000,75654.000,1.000
-0.487,-0.452,2.425,-2.929,-0.237,-0.060,-12.039,-5.312,-0.012,0.867,-0.436,-0.824,-1.373,0.580,80.000,75655.000,1.000
-10.249,1.528,3.107,-2.387,0.579,2.293,-10.834,-4.165,-0.011,0.868,-0.435,-0.702,-1.282,0.671,80.000,75656.000,1.000
-16.909,3.522,3.447,-1.800,1.492,4.537,-8.222,-1.393,-0.012,0.869,-0.436,-0.732,-1.373,0.793,80.000,75657.000,1.000
-22.566,4.644,3.058,-1.741,1.600,5.802,-5.506,1.180,-0.011,0.870,-0.436,-0.732,-1.312,0.671,80.000,75658.000,1.000
-29.314,4.269,1.641,-2.482,0.409,5.776,-3.579,2.204,-0.010,0.869,-0.437,-0.763,-1.465,0.702,80.000,75659.000,1.000
-37.997,2.451,-0.733,-3.726,-1.838,4.859,-2.568,1.709,-0.012,0.870,-0.437,-0.763,-1.434,0.610,80.000,75660.000,1.000
-47.815,-0.051,-3.277,-4.665,-4.265,3.773,-1.999,1.013,-0.011,0.873,-0.437,-0.793,-1.373,0.732,80.000,75661.000,1.000
-57.086,-2.223,-5.226,-4.495,-5.788,3.162,-1.287,1.739,-0.011,0.872,-0.435,-0.854,-1.404,0.671,80.000,75662.000,1.000
-64.350,-3.543,-6.194,-3.107,-6.015,3.007,-0.285,4.191,-0.011,0.870,-0.438,-0.854,-1.373,0.580,80.000,75663.000,1.000
-68.976,-4.433,-6.776,-1.584,-5.934,2.232,-0.064,6.259,-0.011,0.867,-0.435,-0.885,-1.465,0.641,80.000,75664.000,1.000
-71.074,-5.654,-8.049,-1.475,-7.054,-0.341,-2.006,5.126,-0.012,0.867,-0.434,-0.854,-1.343,0.702,80.000,75665.000,1.000
-71.263,-7.385,-10.249,-3.447,-9.869,-4.589,-5.944,0.116,-0.011,0.870,-0.435,-0.854,-1.343,0.671,80.000,75666.000,1.000
-70.540,-9.129,-12.855,-6.918,-13.546,-9.183,-10.359,-6.913,-0.011,0.867,-0.437,-0.793,-1.343,0.641,80.000,75667.000,1.000
-69.729,-10.164,-14.713,-10.424,-16.612,-12.668,-13.488,-12.895,-0.012,0.868,-0.434,-0.702,-1.251,0.671,80.000,75668.000,1.000
-68.889,-9.904,-14.742,-12.317,-17.612,-14.030,-14.028,-14.938,-0.010,0.868,-0.434,-0.732,-1.282,0.641,80.000,75669.000,1.000
-67.498,-8.043,-12.502,-11.528,-15.669,-12.796,-11.414,-11.668,-0.011,0.869,-0.439,-0.763,-1.251,0.641,80.000,75670.000,1.000
-65.487,-4.742,-8.348,-8.181,-11.088,-9.232,-6.164,-4.424,-0.009,0.866,-0.434,-0.671,-1.312,0.519,80.000,75671.000,1.000
-63.797,-0.807,-3.839,-3.782,-5.523,-4.511,-0.232,2.975,-0.010,0.869,-0.437,-0.671,-1.251,0.671,80.000,75672.000,1.000
-63.385,2.594,-0.679,-0.343,-1.127,-0.316,4.002,6.688,-0.011,0.867,-0.436,-0.763,-1.221,0.641,80.000,75673.000,1.000
-63.936,4.625,0.223,0.867,0.803,2.128,5.279,5.473,-0.009,0.869,-0.437,-0.702,-1.312,0.580,80.000,75674.000,1.000
-63.963,5.235,-0.847,0.000,0.494,2.705,4.284,1.242,-0.012,0.868,-0.434,-0.671,-1.190,0.610,80.000,75675.000,1.000
-62.324,4.997,-2.608,-1.720,-0.850,2.110,2.924,-2.752,-0.012,0.869,-0.435,-0.580,-1.251,0.641,80.000,75676.000,1.000
-59.465,4.675,-3.968,-3.050,-2.014,1.292,2.682,-4.391,-0.010,0.869,-0.439,-0.610,-1.099,0.519,80.000,75677.000,1.000
-56.811,4.889,-4.243,-3.382,-2.339,1.078,4.025,-3.606,-0.011,0.870,-0.436,-0.458,-1.068,0.427,80.000,75678.000,1.000
-55.241,5.798,-3.540,-2.936,-1.902,1.667,6.240,-1.769,-0.011,0.871,-0.435,-0.519,-1.099,0.458,80.000,75679.000,1.000
-54.080,7.046,-2.567,-2.377,-1.262,2.480,7.845,-0.431,-0.014,0.869,-0.434,-0.549,-1.099,0.519,80.000,75680.000,1.000
-51.023,8.109,-1.749,-2.151,-0.853,2.846,7.872,-0.188,-0.014,0.869,-0.435,-0.519,-1.160,0.549,80.000,75681.000,1.000
-43.583,8.601,-1.308,-2.265,-0.683,2.538,6.473,-0.521,-0.012,0.869,-0.436,-0.458,-1.190,0.488,80.000,75682.000,1.000
-31.485,8.327,-1.209,-2.479,-0.632,1.560,4.520,-0.648,-0.011,0.869,-0.432,-0.397,-1.129,0.519,80.000,75683.000,1.000
-17.672,7.245,-1.597,-2.666,-0.800,0.013,2.687,-0.551,-0.012,0.869,-0.435,-0.519,-1.099,0.580,80.000,75684.000,1.000
-6.718,5.537,-2.770,-2.842,-1.372,-1.776,1.217,-0.864,-0.013,0.866,-0.437,-0.519,-1.068,0.519,80.000,75685.000,1.000
-2.336,3.549,-4.665,-3.024,-2.402,-3.540,0.086,-2.003,-0.012,0.868,-0.437,-0.519,-1.007,0.519,80.000,75686.000,1.000
-5.481,1.620,-7.124,-3.294,-3.806,-5.359,-1.068,-3.813,-0.011,0.870,-0.439,-0.458,-1.068,0.549,80.000,75687.000,1.000
-13.376,0.077,-9.566,-3.693,-5.322,-7.219,-2.365,-5.646,-0.010,0.870,-0.435,-0.397,-1.099,0.549,80.000,75688.000,1.000
-20.768,-0.737,-11.306,-4.140,-6.471,-8.548,-3.363,-6.766,-0.012,0.869,-0.433,-0.397,-1.129,0.549,80.000,75689.000,1.000
-23.061,-0.593,-11.930,-4.387,-6.702,-8.554,-3.269,-6.592,-0.010,0.867,-0.435,-0.366,-1.099,0.671,80.000,75690.000,1.000
-18.450,0.442,-11.224,-4.093,-5.727,-6.901,-1.505,-4.866,-0.011,0.868,-0.435,-0.244,-1.160,0.610,80.000,75691.000,1.000
-7.758,1.902,-9.627,-3.174,-3.878,-4.081,1.425,-2.050,-0.013,0.869,-0.437,-0.275,-1.129,0.610,80.000,75692.000,1.000
6.513,3.006,-7.864,-2.017,-2.169,-1.456,3.917,0.589,-0.011,0.868,-0.438,-0.275,-1.129,0.610,80.000,75693.000,1.000
20.888,2.982,-6.799,-1.451,-1.829,-0.565,4.050,1.427,-0.011,0.870,-0.436,-0.214,-1.038,0.610,80.000,75694.000,1.000
32.539,1.600,-6.999,-2.215,-3.398,-1.752,1.123,-0.422,-0.011,0.869,-0.438,-0.214,-0.977,0.519,80.000,75695.000,1.000
41.357,-0.578,-8.092,-4.237,-6.202,-3.856,-3.591,-4.231,-0.010,0.869,-0.436,-0.275,-1.007,0.641,80.000,75696.000,1.000
49.602,-2.543,-9.189,-6.553,-8.765,-5.479,-8.021,-8.006,-0.011,0.868,-0.436,-0.427,-0.946,0.580,80.000,75697.000,1.000
58.954,-3.326,-9.014,-7.728,-9.573,-5.932,-10.424,-9.485,-0.013,0.866,-0.437,-0.305,-1.068,0.580,80.000,75698.000,1.000
68.338,-2.397,-6.801,-6.726,-7.831,-5.101,-10.059,-7.444,-0.013,0.869,-0.437,-0.214,-1.068,0.641,80.000,75699.000,1.000
75.015,0.037,-2.931,-3.631,-3.978,-3.298,-7.571,-2.625,-0.011,0.870,-0.438,-0.275,-1.007,0.671,80.000,75700.000,1.000
77.387,3.026,1.500,0.389,0.469,-1.278,-4.686,2.522,-0.011,0.870,-0.436,-0.275,-1.099,0.763,80.000,75701.000,1.000
75.940,5.371,4.985,3.704,3.822,0.186,-3.192,5.296,-0.012,0.871,-0.440,-0.336,-1.038,0.671,80.000,75702.000,1.000
71.551,6.345,6.657,5.187,5.247,0.958,-3.450,4.557,-0.011,0.870,-0.439,-0.336,-1.129,0.702,80.000,75703.000,1.000
64.198,6.061,6.498,4.742,5.104,1.591,-4.244,1.393,-0.011,0.870,-0.439,-0.458,-1.099,0.732,80.000,75704.000,1.000
54.165,5.244,5.128,3.176,4.483,2.650,-3.866,-1.663,-0.010,0.869,-0.437,-0.458,-1.068,0.641,80.000,75705.000,1.000
43.315,4.545,3.477,1.468,4.247,3.995,-1.410,-2.440,-0.011,0.873,-0.438,-0.397,-1.007,0.763,80.000,75706.000,1.000
34.225,4.020,1.826,-0.060,4.334,4.798,2.277,-0.839,-0.012,0.873,-0.435,-0.549,-1.129,0.732,80.000,75707.000,1.000
28.334,3.372,0.187,-1.565,4.063,4.348,5.284,1.370,-0.011,0.872,-0.436,-0.488,-1.129,0.641,80.000,75708.000,1.000
24.740,2.567,-1.258,-3.001,3.109,2.878,6.197,2.409,-0.012,0.869,-0.434,-0.488,-1.038,0.671,80.000,75709.000,1.000
20.760,1.950,-2.027,-3.953,1.857,1.316,4.936,1.719,-0.012,0.868,-0.436,-0.549,-1.099,0.671,80.000,75710.000,1.000
14.269,1.763,-1.634,-4.180,0.680,0.109,2.062,-0.590,-0.013,0.869,-0.436,-0.580,-0.977,0.885,80.000,75711.000,1.000
6.047,1.955,-0.374,-3.825,-0.373,-0.950,-1.858,-4.066,-0.011,0.868,-0.438,-0.641,-0.885,0.824,80.000,75712.000,1.000
-0.110,2.532,1.408,-2.811,-0.970,-1.780,-5.421,-7.106,-0.012,0.868,-0.437,-0.641,-1.038,0.824,80.000,75713.000,1.000
-0.331,3.493,3.499,-0.878,-0.557,-2.077,-6.948,-7.656,-0.011,0.868,-0.436,-0.641,-0.946,0.793,80.000,75714.000,1.000
5.694,4.402,5.458,1.722,0.697,-2.173,-6.267,-5.367,-0.011,0.869,-0.435,-0.641,-1.007,0.824,80.000,75715.000,1.000
13.727,4.508,6.768,4.118,1.765,-2.734,-4.778,-2.177,-0.012,0.868,-0.436,-0.610,-1.007,0.916,80.000,75716.000,1.000
17.788,3.462,6.956,5.508,1.825,-3.711,-3.867,-0.398,-0.009,0.870,-0.436,-0.610,-0.946,0.885,80.000,75717.000,1.000
14.696,1.846,6.455,5.981,1.234,-4.072,-3.311,-0.434,-0.012,0.870,-0.436,-0.641,-0.916,0.793,80.000,75718.000,1.000
5.903,0.835,6.257,6.358,1.225,-2.516,-1.612,-0.760,-0.012,0.871,-0.437,-0.671,-1.038,0.732,80.000,75719.000,1.000
-5.184,1.235,6.945,7.290,2.688,1.441,2.435,0.250,-0.011,0.868,-0.435,-0.732,-1.038,0.763,80.000,75720.000,1.000
-16.582,2.818,8.337,8.637,5.306,6.797,8.519,2.816,-0.011,0.869,-0.438,-0.610,-1.099,0.824,80.000,75721.000,1.000
-28.100,4.580,9.398,9.633,7.869,11.593,14.765,5.819,-0.012,0.868,-0.439,-0.763,-1.007,0.763,80.000,75722.000,1.000
-39.823,5.484,9.301,9.622,9.210,14.149,19.071,7.963,-0.013,0.867,-0.436,-0.824,-1.007,0.732,80.000,75723.000,1.000
-50.862,4.883,7.632,8.317,8.737,13.757,20.065,8.426,-0.011,0.868,-0.435,-0.793,-1.068,0.854,80.000,75724.000,1.000
-58.959,2.654,4.350,5.812,6.519,10.723,17.539,7.022,-0.011,0.869,-0.436,-0.854,-1.068,0.885,80.000,75725.000,1.000
-61.527,-0.755,0.156,2.643,3.234,6.180,12.561,4.245,-0.011,0.867,-0.435,-0.793,-1.221,0.793,80.000,75726.000,1.000
-57.866,-4.519,-4.034,-0.470,-0.137,1.643,6.682,0.909,-0.012,0.866,-0.436,-0.732,-1.099,0.793,80.000,75727.000,1.000
-50.420,-7.767,-7.276,-2.986,-2.808,-1.721,1.165,-2.348,-0.012,0.863,-0.437,-0.763,-1.160,0.824,80.000,75728.000,1.000
-43.210,-9.900,-9.196,-4.836,-4.571,-3.715,-3.573,-5.390,-0.012,0.864,-0.433,-0.732,-1.129,0.732,80.000,75729.000,1.000
-38.868,-10.648,-9.993,-6.245,-5.585,-4.770,-7.517,-8.214,-0.012,0.863,-0.435,-0.732,-1.038,0.732,80.000,75730.000,1.000
-38.190,-10.010,-9.859,-7.348,-5.912,-5.046,-10.121,-10.357,-0.012,0.863,-0.436,-0.519,-0.946,0.732,80.000,75731.000,1.000
-41.960,-8.338,-9.251,-8.168,-5.522,-4.491,-10.685,-11.065,-0.009,0.864,-0.438,-0.458,-1.007,0.854,80.000,75732.000,1.000
-50.758,-6.333,-8.469,-8.639,-4.575,-3.568,-9.125,-9.908,-0.009,0.866,-0.439,-0.397,-0.946,0.793,80.000,75733.000,1.000
-63.089,-4.850,-7.749,-8.848,-3.607,-3.220,-6.506,-7.539,-0.010,0.867,-0.436,-0.366,-0.946,0.824,80.000,75734.000,1.000
-75.765,-4.519,-7.366,-9.087,-3.319,-4.049,-4.573,-5.562,-0.010,0.867,-0.436,-0.427,-1.099,0.854,80.000,75735.000,1.000
-86.321,-5.248,-7.147,-9.412,-3.900,-5.532,-4.220,-5.051,-0.012,0.866,-0.438,-0.305,-1.190,0.763,80.000,75736.000,1.000
-94.447,-6.204,-6.718,-9.484,-4.755,-6.292,-4.920,-5.653,-0.012,0.870,-0.432,-0.305,-1.129,0.702,80.000,75737.000,1.000
-101.813,-6.559,-5.600,-8.956,-5.215,-5.603,-5.714,-6.422,-0.012,0.868,-0.433,-0.275,-1.099,0.702,80.000,75738.000,1.000
-110.585,-6.175,-3.776,-7.832,-5.149,-4.186,-6.358,-6.864,-0.012,0.870,-0.436,-0.336,-1.099,0.732,80.000,75739.000,1.000
-120.422,-5.366,-1.551,-6.140,-4.582,-3.100,-6.809,-6.617,-0.010,0.869,-0.436,-0.397,-1.160,0.610,80.000,75740.000,1.000
-127.265,-4.337,1.026,-3.688,-3.308,-2.641,-6.586,-5.210,-0.012,0.872,-0.434,-0.427,-1.129,0.610,80.000,75741.000,1.000
-127.212,-3.170,3.616,-0.621,-1.280,-2.508,-5.503,-2.932,-0.010,0.871,-0.437,-0.519,-1.160,0.549,80.000,75742.000,1.000
-121.176,-1.998,5.830,2.374,1.114,-2.187,-3.761,-0.889,-0.008,0.869,-0.439,-0.549,-1.099,0.610,80.000,75743.000,1.000
-114.341,-0.941,7.428,4.538,3.443,-1.023,-1.578,0.098,-0.008,0.868,-0.437,-0.610,-1.068,0.641,80.000,75744.000,1.000
-111.490,0.118,8.564,5.715,5.704,1.384,0.974,0.461,-0.007,0.868,-0.435,-0.641,-0.977,0.671,80.000,75745.000,1.000
-113.663,1.427,9.804,6.432,8.176,4.593,3.900,1.646,-0.007,0.867,-0.436,-0.519,-1.007,0.793,80.000,75746.000,1.000
-118.714,2.886,11.025,7.041,10.632,7.315,6.637,4.296,-0.010,0.867,-0.438,-0.580,-0.946,0.763,80.000,75747.000,1.000
-123.383,3.883,11.488,7.177,12.038,8.194,8.033,7.044,-0.011,0.866,-0.435,-0.641,-0.885,0.763,80.000,75748.000,1.000
-124.843,3.672,10.293,6.138,11.298,6.538,6.967,7.607,-0.011,0.866,-0.436,-0.519,-0.824,0.793,80.000,75749.000,1.000
-122.459,1.937,7.079,3.643,8.174,2.577,3.211,4.760,-0.009,0.865,-0.439,-0.427,-0.885,0.854,80.000,75750.000,1.000
-118.402,-0.880,2.648,0.150,3.497,-2.535,-2.027,-0.857,-0.009,0.868,-0.439,-0.366,-0.916,0.885,80.000,75751.000,1.000
-114.646,-3.751,-1.788,-3.498,-1.316,-7.119,-6.681,-7.166,-0.009,0.869,-0.441,-0.275,-0.793,0.946,80.000,75752.000,1.000
-109.157,-5.597,-5.027,-6.461,-4.958,-9.702,-8.779,-11.630,-0.008,0.869,-0.440,-0.366,-0.732,1.038,80.000,75753.000,1.000
-96.869,-5.705,-6.494,-8.171,-6.581,-9.328,-7.380,-12.570,-0.008,0.870,-0.439,-0.427,-0.824,1.038,80.000,75754.000,1.000
-74.929,-3.966,-6.341,-8.478,-5.991,-5.915,-3.075,-10.097,-0.007,0.869,-0.438,-0.366,-0.763,0.977,80.000,75755.000,1.000
-45.910,-1.039,-4.958,-7.687,-3.820,-0.910,2.112,-5.933,-0.008,0.870,-0.437,-0.214,-0.732,1.038,80.000,75756.000,1.000
-15.470,2.016,-2.968,-6.277,-1.059,3.373,5.841,-1.889,-0.010,0.870,-0.436,-0.153,-0.671,1.038,80.000,75757.000,1.000
11.701,4.544,-0.570,-4.370,1.767,5.647,7.382,1.543,-0.012,0.872,-0.437,-0.214,-0.732,0.946,80.000,75758.000,1.000
32.703,6.472,2.102,-2.010,4.492,6.368,7.609,4.500,-0.015,0.873,-0.433,-0.305,-0.793,0.946,80.000,75759.000,1.000
45.540,7.918,4.525,0.337,6.736,6.834,7.710,6.615,-0.017,0.875,-0.434,-0.336,-0.793,0.824,80.000,75760.000,1.000
49.884,8.946,6.259,2.042,8.008,7.985,8.431,7.385,-0.018,0.877,-0.437,-0.427,-0.824,0.641,80.000,75761.000,1.000
48.262,9.524,7.019,2.835,8.153,9.657,9.612,6.943,-0.018,0.878,-0.434,-0.610,-1.007,0.488,80.000,75762.000,1.000
44.860,9.650,7.168,3.092,7.583,10.951,10.642,6.118,-0.018,0.878,-0.439,-0.702,-1.099,0.336,80.000,75763.000,1.000
42.341,9.448,7.275,3.439,7.035,11.320,11.087,5.722,-0.016,0.879,-0.435,-0.854,-1.251,0.183,80.000,75764.000,1.000
40.270,8.990,7.509,4.183,6.953,10.714,10.740,5.874,-0.014,0.879,-0.436,-1.038,-1.373,0.061,80.000,75765.000,1.000
37.075,8.111,7.679,5.140,7.107,8.946,9.387,5.964,-0.011,0.879,-0.433,-1.221,-1.373,0.000,80.000,75766.000,1.000
33.051,6.644,7.255,5.915,7.013,5.992,6.964,5.281,-0.012,0.878,-0.435,-1.312,-1.434,0.031,80.000,75767.000,1.000
31.072,4.854,6.266,6.456,6.699,2.805,4.426,4.008,-0.011,0.876,-0.439,-1.373,-1.526,0.000,80.000,75768.000,1.000
34.414,3.439,5.203,7.130,6.837,1.059,3.531,3.412,-0.010,0.876,-0.438,-1.434,-1.526,-0.092,80.000,75769.000,1.000
43.867,3.124,4.583,8.404,8.220,2.083,5.750,5.062,-0.011,0.873,-0.438,-1.434,-1.526,-0.092,80.000,75770.000,1.000
56.751,4.136,4.831,10.384,10.958,5.803,11.081,9.395,-0.012,0.873,-0.438,-1.495,-1.617,-0.031,80.000,75771.000,1.000
68.471,5.914,5.606,12.391,13.984,10.446,17.329,14.585,-0.011,0.869,-0.436,-1.495,-1.556,0.000,80.000,75772.000,1.000
74.911,7.590,6.335,13.469,15.742,13.789,21.667,17.658,-0.012,0.868,-0.437,-1.526,-1.556,0.061,80.000,75773.000,1.000
74.057,8.639,6.544,13.158,15.360,14.580,22.599,16.926,-0.014,0.869,-0.432,-1.556,-1.770,0.092,80.000,75774.000,1.000
66.990,8.950,5.921,11.628,12.993,12.690,20.361,13.000,-0.013,0.866,-0.429,-1.587,-1.770,0.244,80.000,75775.000,1.000
57.469,8.672,4.637,9.416,9.566,8.999,16.406,7.889,-0.016,0.865,-0.431,-1.465,-1.740,0.244,80.000,75776.000,1.000
49.553,8.157,3.030,7.208,6.482,5.280,12.617,3.717,-0.016,0.865,-0.435,-1.373,-1.770,0.275,80.000,75777.000,1.000
45.394,7.766,1.718,5.670,5.079,3.221,10.662,2.011,-0.015,0.867,-0.433,-1.312,-1.862,0.183,80.000,75778.000,1.000
45.072,7.645,1.128,5.090,5.954,3.401,11.248,3.225,-0.016,0.867,-0.432,-1.343,-1.892,0.244,80.000,75779.000,1.000
47.979,7.873,1.395,5.397,8.890,5.562,14.175,6.850,-0.015,0.864,-0.431,-1.343,-1.892,0.244,80.000,75780.000,1.000
53.408,8.522,2.645,6.369,13.069,9.245,18.735,11.743,-0.016,0.864,-0.433,-1.312,-1.923,0.305,80.000,75781.000,1.000
59.402,9.266,4.348,7.455,17.046,13.431,23.313,16.151,-0.015,0.864,-0.432,-1.251,-1.984,0.366,80.000,75782.000,1.000
62.764,9.260,5.664,7.904,19.096,16.194,25.711,18.301,-0.015,0.863,-0.438,-1.282,-2.014,0.366,80.000,75783.000,1.000
61.652,7.776,5.872,7.184,18.149,15.836,24.383,17.269,-0.016,0.862,-0.433,-1.160,-2.045,0.397,80.000,75784.000,1.000
57.689,4.996,4.809,5.410,14.572,12.549,19.717,13.615,-0.015,0.859,-0.432,-1.038,-2.045,0.366,80.000,75785.000,1.000
54.580,2.036,3.181,3.394,10.088,8.561,14.188,9.443,-0.012,0.859,-0.432,-0.946,-2.014,0.397,80.000,75786.000,1.000
54.795,0.167,1.789,2.115,6.747,6.573,10.783,7.322,-0.012,0.860,-0.434,-0.885,-2.014,0.427,80.000,75787.000,1.000
58.369,-0.001,1.381,2.171,5.665,7.836,11.180,8.591,-0.013,0.861,-0.433,-0.793,-2.014,0.488,80.000,75788.000,1.000
64.254,1.029,1.992,3.245,6.149,11.063,14.122,11.900,-0.009,0.859,-0.432,-0.702,-1.892,0.488,80.000,75789.000,1.000
71.264,1.876,2.741,4.160,6.117,13.326,15.914,13.714,-0.011,0.863,-0.434,-0.458,-1.801,0.580,80.000,75790.000,1.000
77.803,1.410,2.876,3.955,3.958,12.617,13.705,11.352,-0.011,0.864,-0.437,-0.427,-1.801,0.610,80.000,75791.000,1.000
81.834,-0.324,2.198,2.718,-0.106,9.256,7.728,5.323,-0.009,0.863,-0.437,-0.366,-1.770,0.671,80.000,75792.000,1.000
81.354,-2.384,1.215,1.329,-4.619,4.821,0.468,-1.513,-0.010,0.865,-0.434,-0.366,-1.678,0.763,80.000,75793.000,1.000
75.019,-3.949,0.295,0.529,-8.326,0.540,-5.772,-6.497,-0.010,0.865,-0.434,-0.305,-1.526,0.824,80.000,75794.000,1.000
63.458,-4.933,-0.737,0.392,-10.898,-3.253,-10.155,-8.804,-0.009,0.868,-0.434,-0.214,-1.526,0.854,80.000,75795.000,1.000
50.397,-5.812,-2.068,0.445,-12.770,-6.767,-12.981,-9.481,-0.010,0.867,-0.436,-0.244,-1.495,0.885,80.000,75796.000,1.000
41.536,-7.004,-3.924,0.087,-14.463,-9.975,-14.895,-10.193,-0.012,0.867,-0.435,-0.336,-1.251,0.946,80.000,75797.000,1.000
41.170,-8.392,-6.028,-0.813,-15.970,-12.219,-15.932,-11.487,-0.011,0.869,-0.436,-0.122,-1.251,0.977,80.000,75798.000,1.000
48.901,-9.521,-7.844,-1.879,-16.881,-12.884,-15.713,-12.555,-0.010,0.869,-0.437,-0.031,-1.190,1.068,80.000,75799.000,1.000
59.432,-10.065,-8.989,-2.629,-16.928,-12.247,-14.287,-12.454,-0.010,0.869,-0.437,-0.153,-1.160,1.068,80.000,75800.000,1.000
65.823,-10.047,-9.213,-2.893,-16.357,-11.501,-12.516,-11.300,-0.008,0.872,-0.434,-0.183,-1.007,1.099,80.000,75801.000,1.000
63.851,-9.809,-8.801,-3.060,-15.874,-11.928,-11.833,-10.452,-0.010,0.871,-0.436,-0.122,-0.977,1.129,80.000,75802.000,1.000
54.710,-9.626,-7.891,-3.559,-15.855,-13.621,-12.692,-11.050,-0.011,0.874,-0.436,-0.214,-0.885,1.251,80.000,75803.000,1.000
43.877,-9.407,-6.334,-4.282,-15.717,-15.176,-13.838,-12.533,-0.009,0.875,-0.436,-0.366,-0.702,1.282,80.000,75804.000,1.000
36.935,-8.895,-4.068,-4.672,-14.465,-14.975,-13.405,-12.986,-0.010,0.877,-0.437,-0.549,-0.702,1.282,80.000,75805.000,1.000
36.116,-8.009,-1.239,-4.212,-11.683,-12.474,-10.352,-10.766,-0.010,0.875,-0.435,-0.549,-0.610,1.343,80.000,75806.000,1.000
39.847,-7.037,1.296,-3.028,-8.052,-8.499,-5.480,-6.187,-0.010,0.876,-0.438,-0.702,-0.671,1.343,80.000,75807.000,1.000
44.417,-6.680,2.401,-2.079,-5.292,-5.113,-1.535,-2.058,-0.009,0.876,-0.438,-0.732,-0.519,1.251,80.000,75808.000,1.000
46.069,-7.675,1.170,-2.557,-5.210,-4.696,-1.777,-1.816,-0.011,0.876,-0.438,-0.824,-0.397,1.190,80.000,75809.000,1.000
43.230,-10.018,-2.239,-4.701,-8.123,-8.060,-7.061,-6.291,-0.012,0.876,-0.436,-0.977,-0.488,1.099,80.000,75810.000,1.000
38.115,-12.784,-6.303,-7.498,-12.504,-13.516,-14.725,-13.035,-0.013,0.877,-0.434,-1.068,-0.397,1.129,80.000,75811.000,1.000
35.369,-14.780,-9.404,-9.577,-16.149,-18.018,-20.775,-18.526,-0.013,0.878,-0.432,-1.068,-0.336,1.129,80.000,75812.000,1.000
37.862,-15.118,-10.308,-9.829,-17.304,-19.041,-22.083,-19.955,-0.012,0.878,-0.435,-1.160,-0.336,1.129,80.000,75813.000,1.000
44.115,-13.561,-8.801,-7.923,-15.432,-15.932,-17.837,-16.415,-0.014,0.876,-0.435,-1.373,-0.427,1.068,80.000,75814.000,1.000
50.024,-10.709,-5.920,-4.655,-11.597,-10.305,-10.112,-9.641,-0.012,0.874,-0.434,-1.556,-0.427,1.007,80.000,75815.000,1.000
52.038,-7.743,-3.123,-1.520,-7.877,-5.101,-2.738,-3.030,-0.011,0.871,-0.432,-1.587,-0.427,0.946,80.000,75816.000,1.000
48.761,-5.764,-1.834,0.200,-6.002,-2.640,0.973,0.612,-0.008,0.869,-0.439,-1.587,-0.397,0.885,80.000,75817.000,1.000
41.034,-5.245,-2.575,0.122,-6.390,-3.271,0.284,0.632,-0.009,0.869,-0.438,-1.404,-0.336,0.916,80.000,75818.000,1.000
31.249,-6.034,-5.057,-1.389,-8.295,-5.711,-3.213,-1.860,-0.009,0.868,-0.438,-1.343,-0.244,0.854,80.000,75819.000,1.000
22.587,-7.618,-8.485,-3.600,-10.443,-8.155,-7.091,-5.077,-0.009,0.869,-0.440,-1.251,-0.214,0.946,80.000,75820.000,1.000
18.090,-9.322,-11.615,-5.641,-11.629,-9.208,-9.301,-7.361,-0.009,0.869,-0.439,-1.251,-0.183,0.977,80.000,75821.000,1.000
19.395,-10.547,-13.590,-6.862,-11.288,-8.534,-9.223,-7.960,-0.006,0.868,-0.436,-1.282,-0.122,1.038,80.000,75822.000,1.000
26.168,-10.878,-13.901,-6.899,-9.618,-6.892,-7.554,-7.007,-0.008,0.866,-0.437,-1.221,-0.061,1.099,80.000,75823.000,1.000
36.233,-10.166,-12.574,-5.725,-7.232,-5.396,-5.467,-5.021,-0.009,0.860,-0.437,-1.099,-0.031,1.129,80.000,75824.000,1.000
45.790,-8.633,-10.299,-3.785,-4.850,-4.714,-3.852,-2.658,-0.011,0.860,-0.435,-1.099,0.000,1.221,80.000,75825.000,1.000
50.588,-6.809,-7.919,-1.837,-3.117,-4.848,-2.978,-0.701,-0.015,0.860,-0.433,-0.946,0.031,1.190,80.000,75826.000,1.000
48.490,-5.323,-6.339,-0.660,-2.502,-5.500,-2.935,-0.105,-0.017,0.860,-0.434,-0.885,0.000,1.129,80.000,75827.000,1.000
41.339,-4.655,-5.871,-0.679,-3.175,-6.483,-3.772,-1.530,-0.018,0.861,-0.432,-0.732,-0.031,1.129,80.000,75828.000,1.000
33.797,-4.846,-6.249,-1.748,-4.772,-7.638,-5.257,-4.554,-0.020,0.864,-0.434,-0.641,-0.183,1.129,80.000,75829.000,1.000
30.181,-5.352,-6.824,-3.215,-6.377,-8.660,-6.715,-7.657,-0.021,0.865,-0.436,-0.610,-0.275,1.007,80.000,75830.000,1.000
31.658,-5.414,-6.687,-4.314,-7.062,-9.353,-7.450,-9.274,-0.021,0.865,-0.434,-0.427,-0.366,0.885,80.000,75831.000,1.000
35.369,-4.667,-5.557,-4.665,-6.511,-9.865,-7.435,-8.813,-0.021,0.866,-0.436,-0.366,-0.549,0.824,80.000,75832.000,1.000
36.304,-3.338,-3.633,-4.314,-5.150,-10.425,-6.959,-6.767,-0.020,0.868,-0.438,-0.458,-0.732,0.702,80.000,75833.000,1.000
30.890,-1.962,-1.448,-3.508,-3.706,-10.872,-6.066,-4.280,-0.018,0.869,-0.437,-0.397,-0.977,0.580,80.000,75834.000,1.000
20.191,-0.953,0.462,-2.390,-2.643,-10.677,-4.553,-2.467,-0.016,0.868,-0.435,-0.427,-1.007,0.580,80.000,75835.000,1.000
10.237,-0.491,1.980,-0.955,-2.052,-9.719,-2.604,-1.920,-0.013,0.868,-0.434,-0.275,-1.038,0.610,80.000,75836.000,1.000
8.155,-0.549,2.931,0.719,-1.779,-8.429,-1.013,-2.467,-0.011,0.867,-0.435,-0.336,-1.129,0.488,80.000,75837.000,1.000
17.265,-0.777,3.428,2.593,-1.308,-6.720,0.172,-2.939,-0.013,0.867,-0.434,-0.244,-1.129,0.580,80.000,75838.000,1.000
35.133,-0.638,3.800,4.590,-0.028,-3.812,1.817,-2.064,-0.011,0.869,-0.436,-0.336,-1.251,0.488,80.000,75839.000,1.000
54.919,0.010,4.238,6.231,1.837,0.155,3.915,-0.111,-0.013,0.868,-0.435,-0.214,-1.312,0.641,80.000,75840.000,1.000
68.859,0.627,4.712,6.698,3.017,3.216,4.824,1.046,-0.013,0.868,-0.441,-0.275,-1.312,0.702,80.000,75841.000,1.000
72.481,0.480,4.667,5.511,2.424,3.167,2.937,-0.028,-0.012,0.866,-0.441,-0.214,-1.251,0.793,80.000,75842.000,1.000
66.817,-0.643,3.860,3.124,0.367,-0.192,-1.156,-2.746,-0.011,0.869,-0.438,-0.183,-1.312,0.793,80.000,75843.000,1.000
56.922,-2.342,2.499,0.531,-1.807,-4.808,-5.159,-5.314,-0.012,0.871,-0.437,-0.305,-1.312,0.946,80.000,75844.000,1.000
48.152,-4.083,0.900,-1.470,-2.945,-8.332,-7.208,-6.340,-0.011,0.872,-0.435,-0.275,-1.312,1.038,80.000,75845.000,1.000
42.779,-5.532,-0.488,-2.524,-2.750,-9.910,-7.006,-5.467,-0.010,0.874,-0.437,-0.275,-1.251,1.129,80.000,75846.000,1.000
39.335,-6.445,-1.405,-2.657,-1.501,-9.968,-5.517,-3.231,-0.014,0.873,-0.438,-0.366,-1.282,1.129,80.000,75847.000,1.000
35.139,-6.533,-1.435,-2.075,0.371,-9.182,-3.885,-0.562,-0.013,0.874,-0.438,-0.305,-1.221,1.251,80.000,75848.000,1.000
29.311,-5.613,-0.357,-1.123,2.468,-7.978,-2.846,1.736,-0.012,0.875,-0.435,-0.366,-1.251,1.251,80.000,75849.000,1.000
23.499,-3.663,1.651,-0.105,4.738,-6.079,-2.155,3.566,-0.011,0.874,-0.434,-0.488,-1.312,1.282,80.000,75850.000,1.000
19.636,-0.812,4.363,0.900,7.521,-2.596,-0.578,5.477,-0.015,0.874,-0.435,-0.610,-1.343,1.343,80.000,75851.000,1.000
17.165,2.485,7.200,1.878,10.947,2.693,2.632,7.840,-0.014,0.877,-0.433,-0.671,-1.434,1.343,80.000,75852.000,1.000
13.187,5.447,9.658,2.857,14.514,8.472,6.892,10.578,-0.015,0.874,-0.436,-0.641,-1.373,1.251,80.000,75853.000,1.000
5.456,7.342,11.391,3.951,17.375,12.789,10.801,13.482,-0.013,0.874,-0.436,-0.671,-1.495,1.190,80.000,75854.000,1.000
-5.491,7.891,12.234,5.318,18.868,14.561,13.319,16.407,-0.010,0.873,-0.437,-0.793,-1.465,1.221,80.000,75855.000,1.000
-17.802,7.247,12.280,6.816,18.638,14.068,14.265,18.884,-0.010,0.873,-0.435,-0.854,-1.434,1.251,80.000,75856.000,1.000
-30.953,5.677,11.284,7.699,16.524,12.282,13.637,19.781,-0.010,0.873,-0.431,-0.916,-1.465,1.251,80.000,75857.000,1.000
-45.525,3.450,9.136,7.151,12.700,9.889,11.319,18.004,-0.010,0.874,-0.431,-0.977,-1.282,1.190,80.000,75858.000,1.000
-61.059,0.876,6.008,4.940,7.792,6.864,7.151,13.397,-0.009,0.872,-0.435,-1.038,-1.282,1.221,80.000,75859.000,1.000
-75.132,-1.505,2.506,1.816,2.961,3.274,1.709,7.370,-0.009,0.872,-0.433,-1.160,-1.221,1.160,80.000,75860.000,1.000
-84.456,-2.833,-0.023,-0.614,-0.189,0.332,-2.879,2.847,-0.009,0.870,-0.436,-1.282,-1.221,1.099,80.000,75861.000,1.000
-86.752,-2.549,-0.664,-1.114,-0.667,-0.482,-4.582,2.087,-0.011,0.868,-0.435,-1.160,-1.221,1.038,80.000,75862.000,1.000
-82.092,-1.302,0.194,-0.185,0.505,0.403,-4.072,3.780,-0.011,0.866,-0.434,-1.251,-1.221,1.068,80.000,75863.000,1.000
-73.224,-0.771,0.771,0.114,0.729,0.558,-4.645,3.547,-0.011,0.865,-0.437,-1.221,-1.251,1.007,80.000,75864.000,1.000
-64.543,-2.163,-0.600,-1.869,-1.751,-1.834,-8.639,-1.667,-0.011,0.863,-0.436,-1.099,-1.221,0.885,80.000,75865.000,1.000
-59.665,-4.953,-3.669,-5.719,-6.117,-5.878,-14.518,-10.252,-0.011,0.863,-0.436,-1.038,-1.099,0.916,80.000,75866.000,1.000
-58.864,-7.105,-6.625,-9.240,-9.591,-8.615,-17.969,-17.003,-0.010,0.864,-0.435,-0.977,-1.190,0.793,80.000,75867.000,1.000
-59.181,-6.583,-7.245,-10.167,-9.770,-7.651,-15.585,-17.345,-0.011,0.865,-0.436,-0.824,-1.099,0.793,80.000,75868.000,1.000
-58.076,-3.091,-4.871,-8.194,-6.856,-3.381,-8.331,-11.572,-0.010,0.865,-0.437,-0.702,-1.038,0.732,80.000,75869.000,1.000
-55.990,1.683,-0.915,-5.121,-3.391,1.408,-0.872,-4.536,-0.008,0.864,-0.434,-0.671,-1.038,0.671,80.000,75870.000,1.000
-54.469,5.547,2.774,-2.909,-1.736,3.887,2.736,-0.860,-0.010,0.865,-0.434,-0.641,-1.007,0.671,80.000,75871.000,1.000
-53.002,7.240,4.958,-2.196,-2.299,3.028,1.758,-1.474,-0.010,0.865,-0.434,-0.549,-1.160,0.610,80.000,75872.000,1.000
-48.689,6.924,5.742,-2.260,-3.755,0.043,-1.457,-4.058,-0.011,0.866,-0.437,-0.488,-1.190,0.549,80.000,75873.000,1.000
-39.117,5.724,5.993,-1.936,-4.356,-2.678,-3.770,-5.587,-0.011,0.869,-0.438,-0.580,-1.068,0.549,80.000,75874.000,1.000
-25.217,4.740,6.357,-0.616,-3.244,-3.523,-3.612,-4.642,-0.012,0.869,-0.438,-0.580,-1.038,0.519,80.000,75875.000,1.000
-11.090,4.367,6.956,1.348,-0.888,-2.603,-1.623,-2.078,-0.010,0.870,-0.436,-0.488,-1.129,0.458,80.000,75876.000,1.000
-1.434,4.440,7.252,3.000,1.552,-1.029,0.324,0.064,-0.011,0.870,-0.437,-0.519,-1.068,0.519,80.000,75877.000,1.000
1.020,4.843,7.082,3.780,3.364,0.313,1.121,0.704,-0.012,0.872,-0.435,-0.488,-1.190,0.580,80.000,75878.000,1.000
-3.476,5.824,6.906,4.063,4.855,1.465,1.337,0.729,-0.011,0.871,-0.438,-0.580,-1.129,0.519,80.000,75879.000,1.000
-12.076,7.670,7.355,4.706,6.784,3.068,2.291,1.769,-0.011,0.873,-0.435,-0.519,-1.099,0.488,80.000,75880.000,1.000
-20.757,10.192,8.864,6.191,9.309,5.309,4.564,4.371,-0.014,0.871,-0.437,-0.488,-1.190,0.488,80.000,75881.000,1.000
-26.490,12.627,10.982,8.216,11.705,7.494,7.362,7.546,-0.012,0.872,-0.437,-0.641,-1.190,0.458,80.000,75882.000,1.000
-28.970,14.141,12.953,10.144,13.121,8.893,9.599,9.977,-0.014,0.870,-0.434,-0.671,-1.343,0.458,80.000,75883.000,1.000
-30.518,14.415,14.120,11.510,13.345,9.533,10.869,11.123,-0.014,0.872,-0.435,-0.793,-1.343,0.427,80.000,75884.000,1.000
-33.943,13.733,14.149,12.137,12.692,9.731,11.147,11.102,-0.013,0.874,-0.438,-0.793,-1.373,0.427,80.000,75885.000,1.000
-40.241,12.565,13.264,11.983,11.392,9.264,10.102,9.979,-0.013,0.874,-0.436,-0.793,-1.434,0.519,80.000,75886.000,1.000
-48.261,11.205,11.690,11.004,9.441,7.668,7.239,7.679,-0.015,0.874,-0.435,-0.946,-1.495,0.519,80.000,75887.000,1.000
-55.979,9.888,9.904,9.419,7.130,5.303,3.244,4.818,-0.015,0.876,-0.432,-1.007,-1.465,0.580,80.000,75888.000,1.000
-61.796,8.937,8.448,7.803,5.383,3.596,0.275,3.023,-0.012,0.875,-0.434,-1.038,-1.495,0.580,80.000,75889.000,1.000
-65.133,8.538,7.508,6.636,5.108,3.908,0.397,3.753,-0.014,0.873,-0.433,-1.099,-1.465,0.641,80.000,75890.000,1.000
-66.639,8.376,6.837,5.726,6.072,6.090,3.515,6.516,-0.011,0.873,-0.432,-1.099,-1.617,0.641,80.000,75891.000,1.000
-67.472,7.735,5.615,4.270,6.848,8.360,6.906,8.839,-0.011,0.873,-0.432,-1.129,-1.678,0.793,80.000,75892.000,1.000
-67.871,6.130,3.449,1.797,6.077,8.664,7.618,8.563,-0.011,0.874,-0.430,-1.251,-1.617,0.763,80.000,75893.000,1.000
-67.371,3.765,0.700,-1.296,3.615,6.216,4.841,5.697,-0.011,0.875,-0.432,-1.282,-1.648,0.885,80.000,75894.000,1.000
-66.260,1.534,-1.671,-3.963,0.633,2.096,0.232,2.241,-0.010,0.874,-0.432,-1.190,-1.678,0.824,80.000,75895.000,1.000
-65.697,0.479,-2.464,-5.244,-1.330,-1.514,-3.549,0.378,-0.011,0.871,-0.438,-1.343,-1.617,0.946,80.000,75896.000,1.000
-66.744,1.077,-1.468,-5.026,-1.509,-2.781,-4.799,0.650,-0.010,0.872,-0.437,-1.343,-1.648,1.007,80.000,75897.000,1.000
-69.500,3.118,0.762,-3.776,-0.065,-1.062,-3.212,2.215,-0.008,0.871,-0.438,-1.312,-1.648,1.129,80.000,75898.000,1.000
-72.398,6.035,3.460,-1.891,2.502,3.196,0.539,4.222,-0.009,0.871,-0.435,-1.312,-1.587,1.099,80.000,75899.000,1.000
-72.593,9.117,6.002,0.416,5.611,8.691,5.141,6.281,-0.010,0.871,-0.436,-1.190,-1.495,1.129,80.000,75900.000,1.000
-68.398,11.505,8.100,2.753,8.353,13.236,8.784,7.875,-0.012,0.869,-0.434,-1.190,-1.404,1.129,80.000,75901.000,1.000
-61.295,12.401,9.351,4.391,9.651,14.611,9.659,8.188,-0.011,0.867,-0.433,-1.251,-1.495,1.190,80.000,75902.000,1.000
-54.656,11.616,9.751,4.849,9.081,12.310,7.544,7.084,-0.010,0.867,-0.433,-1.221,-1.434,1.099,80.000,75903.000,1.000
-50.795,9.720,9.596,4.267,7.234,8.054,4.210,5.522,-0.008,0.868,-0.435,-1.251,-1.373,1.190,80.000,75904.000,1.000
-49.603,7.631,9.106,3.220,5.221,4.473,2.072,4.837,-0.008,0.867,-0.435,-1.190,-1.312,1.251,80.000,75905.000,1.000
-49.395,6.069,8.497,2.260,3.907,3.446,2.577,5.648,-0.008,0.868,-0.435,-1.190,-1.190,1.251,80.000,75906.000,1.000
-48.492,5.205,7.616,1.456,3.424,5.031,5.087,7.157,-0.009,0.867,-0.437,-1.160,-1.190,1.312,80.000,75907.000,1.000
-46.159,4.774,6.400,0.549,3.280,7.495,7.497,7.819,-0.010,0.867,-0.436,-1.099,-1.221,1.312,80.000,75908.000,1.000
-42.766,4.377,4.820,-0.695,2.750,8.455,7.592,6.505,-0.008,0.869,-0.437,-1.099,-1.160,1.221,80.000,75909.000,1.000
-39.393,3.658,2.688,-2.326,1.231,6.435,4.291,3.043,-0.008,0.869,-0.435,-1.007,-1.099,1.221,80.000,75910.000,1.000
-37.105,2.407,-0.020,-4.051,-1.315,1.955,-1.389,-1.545,-0.010,0.870,-0.435,-0.885,-0.946,1.221,80.000,75911.000,1.000
-36.225,0.671,-3.283,-5.270,-4.114,-2.706,-6.669,-5.240,-0.008,0.868,-0.436,-0.916,-0.916,1.160,80.000,75912.000,1.000
-35.972,-1.339,-6.671,-5.421,-6.104,-5.222,-8.643,-6.136,-0.009,0.867,-0.435,-0.854,-0.946,1.160,80.000,75913.000,1.000
-35.063,-3.497,-9.723,-4.539,-6.799,-4.932,-6.437,-3.977,-0.009,0.867,-0.435,-0.793,-0.793,1.099,80.000,75914.000,1.000
-32.957,-5.768,-12.286,-3.311,-6.540,-2.944,-1.799,-0.490,-0.007,0.867,-0.436,-0.671,-0.763,1.190,80.000,75915.000,1.000
-30.296,-8.004,-14.217,-2.536,-6.005,-0.954,2.446,1.914,-0.008,0.868,-0.435,-0.671,-0.854,1.007,80.000,75916.000,1.000
-28.116,-9.815,-15.422,-2.548,-5.563,-0.083,4.269,1.892,-0.008,0.870,-0.437,-0.519,-0.763,1.038,80.000,75917.000,1.000
-27.018,-10.606,-15.348,-2.922,-5.016,-0.387,3.574,-0.067,-0.007,0.871,-0.432,-0.610,-0.702,0.977,80.000,75918.000,1.000
-27.035,-9.966,-13.547,-2.989,-4.023,-1.219,1.499,-2.620,-0.007,0.870,-0.437,-0.610,-0.763,1.007,80.000,75919.000,1.000
-27.532,-7.930,-10.247,-2.340,-2.416,-1.734,-0.556,-4.486,-0.008,0.870,-0.438,-0.549,-0.610,1.007,80.000,75920.000,1.000
-27.316,-4.723,-5.808,-0.650,0.121,-0.800,-0.861,-4.244,-0.008,0.871,-0.436,-0.580,-0.549,1.007,80.000,75921.000,1.000
-25.593,-0.631,-0.793,2.316,4.000,2.729,2.132,-0.651,-0.007,0.871,-0.432,-0.488,-0.610,1.038,80.000,75922.000,1.000
-22.812,3.604,4.050,6.189,8.808,8.552,8.262,5.928,-0.008,0.872,-0.433,-0.610,-0.610,0.977,80.000,75923.000,1.000
-20.364,6.585,7.416,9.539,12.729,14.029,14.550,12.570,-0.006,0.871,-0.436,-0.549,-0.549,1.129,80.000,75924.000,1.000
-19.166,7.064,7.995,10.558,13.616,15.886,16.940,15.351,-0.008,0.872,-0.435,-0.641,-0.519,1.129,80.000,75925.000,1.000
-18.698,5.107,5.837,8.612,10.903,13.090,13.844,12.603,-0.008,0.870,-0.437,-0.641,-0.397,0.977,80.000,75926.000,1.000
-17.770,2.150,2.139,4.775,6.206,7.697,7.301,6.229,-0.006,0.870,-0.433,-0.519,-0.580,0.946,80.000,75927.000,1.000
-16.033,-0.131,-1.435,0.908,1.948,2.922,0.996,-0.184,-0.009,0.870,-0.433,-0.580,-0.549,0.946,80.000,75928.000,1.000
-14.767,-0.927,-3.801,-1.644,-0.366,0.756,-2.560,-4.063,-0.009,0.870,-0.436,-0.549,-0.549,0.946,80.000,75929.000,1.000
-16.123,-0.540,-4.818,-2.474,-0.706,1.164,-3.002,-4.766,-0.011,0.868,-0.437,-0.549,-0.580,0.946,80.000,75930.000,1.000
-21.299,-0.002,-4.885,-1.899,-0.111,2.577,-1.488,-3.066,-0.012,0.869,-0.435,-0.488,-0.580,0.885,80.000,75931.000,1.000
-29.519,-0.364,-4.908,-0.740,0.132,3.147,0.095,-0.457,-0.012,0.870,-0.434,-0.549,-0.610,0.885,80.000,75932.000,1.000
-38.704,-1.927,-5.430,0.094,-0.670,2.286,0.445,1.613,-0.011,0.870,-0.434,-0.549,-0.702,0.977,80.000,75933.000,1.000
-46.596,-4.121,-6.450,-0.001,-2.341,0.874,-0.527,2.264,-0.012,0.870,-0.435,-0.519,-0.763,0.885,80.000,75934.000,1.000
-51.177,-6.062,-7.722,-1.084,-4.184,-0.146,-2.177,1.464,-0.012,0.872,-0.435,-0.641,-0.793,0.763,80.000,75935.000,1.000
-50.857,-7.180,-8.876,-2.751,-5.535,-0.817,-3.871,-0.127,-0.011,0.871,-0.436,-0.610,-0.824,0.824,80.000,75936.000,1.000
-45.125,-7.477,-10.004,-4.578,-6.153,-1.732,-5.543,-1.940,-0.012,0.871,-0.435,-0.549,-0.946,0.854,80.000,75937.000,1.000
-35.030,-7.270,-11.147,-6.231,-6.206,-3.104,-7.333,-3.876,-0.012,0.872,-0.431,-0.488,-1.007,0.824,80.000,75938.000,1.000
-22.563,-6.856,-12.074,-7.412,-5.970,-4.492,-9.161,-5.993,-0.012,0.870,-0.434,-0.580,-1.007,0.854,80.000,75939.000,1.000
-9.269,-6.297,-12.349,-7.827,-5.467,-5.132,-10.558,-7.900,-0.010,0.869,-0.437,-0.580,-0.977,0.885,80.000,75940.000,1.000
4.087,-5.368,-11.342,-7.247,-4.353,-4.314,-10.706,-8.626,-0.010,0.870,-0.437,-0.641,-1.099,0.824,80.000,75941.000,1.000
16.427,-3.787,-9.008,-5.731,-2.241,-1.698,-9.038,-7.322,-0.012,0.870,-0.435,-0.610,-1.129,0.824,80.000,75942.000,1.000
25.693,-1.561,-5.748,-3.600,0.841,2.185,-5.633,-3.953,-0.012,0.870,-0.433,-0.610,-1.312,0.732,80.000,75943.000,1.000
29.249,0.879,-2.403,-1.413,4.193,5.747,-1.603,0.373,-0.011,0.869,-0.429,-0.732,-1.190,0.824,80.000,75944.000,1.000
25.293,3.002,0.111,0.194,6.782,7.359,1.414,3.935,-0.011,0.869,-0.434,-0.732,-1.282,0.763,80.000,75945.000,1.000
15.390,4.638,1.636,0.883,8.052,6.810,2.720,5.706,-0.012,0.870,-0.435,-0.763,-1.251,0.824,80.000,75946.000,1.000
5.644,5.844,2.357,0.641,8.144,5.208,2.718,5.692,-0.011,0.869,-0.432,-0.763,-1.373,0.854,80.000,75947.000,1.000
3.884,6.475,2.517,-0.457,7.309,3.568,1.930,4.129,-0.012,0.871,-0.433,-0.763,-1.434,0.732,80.000,75948.000,1.000
14.931,6.214,2.070,-2.293,5.672,2.234,0.494,1.228,-0.010,0.870,-0.433,-0.793,-1.526,0.824,80.000,75949.000,1.000
37.902,5.087,0.992,-4.330,3.707,1.460,-1.152,-2.073,-0.010,0.870,-0.434,-0.854,-1.556,0.824,80.000,75950.000,1.000
66.437,3.665,-0.088,-5.525,2.297,1.563,-1.978,-4.134,-0.011,0.870,-0.434,-0.916,-1.495,0.854,80.000,75951.000,1.000
91.323,2.613,-0.572,-5.047,2.058,2.411,-1.492,-3.928,-0.011,0.871,-0.432,-0.885,-1.617,0.793,80.000,75952.000,1.000
105.167,2.238,-0.206,-2.918,2.788,3.331,-0.342,-1.884,-0.011,0.872,-0.433,-1.038,-1.617,0.793,80.000,75953.000,1.000
106.376,2.426,0.591,-0.070,3.739,3.741,0.292,0.658,-0.012,0.870,-0.430,-1.099,-1.709,0.763,80.000,75954.000,1.000
99.168,2.839,0.960,2.261,4.288,3.682,-0.125,2.649,-0.010,0.871,-0.433,-0.977,-1.709,0.763,80.000,75955.000,1.000
90.084,2.964,0.215,3.123,4.012,3.294,-1.357,3.519,-0.012,0.870,-0.434,-1.007,-1.587,0.763,80.000,75956.000,1.000
84.236,2.194,-2.206,2.045,2.490,2.243,-3.266,2.739,-0.012,0.870,-0.433,-1.007,-1.709,0.702,80.000,75957.000,1.000
83.536,0.376,-5.942,-0.577,-0.178,0.439,-5.390,0.511,-0.010,0.871,-0.434,-1.068,-1.770,0.702,80.000,75958.000,1.000
87.048,-1.881,-9.713,-3.495,-2.991,-1.306,-6.682,-1.807,-0.008,0.870,-0.433,-1.129,-1.770,0.610,80.000,75959.000,1.000
92.602,-3.702,-12.135,-5.331,-4.763,-2.116,-6.512,-2.830,-0.008,0.870,-0.431,-1.068,-1.923,0.671,80.000,75960.000,1.000
98.233,-4.618,-12.373,-5.434,-5.080,-2.052,-5.379,-2.359,-0.010,0.872,-0.432,-0.977,-1.923,0.732,80.000,75961.000,1.000
102.728,-4.622,-10.733,-4.128,-4.288,-1.739,-4.313,-1.080,-0.010,0.869,-0.433,-1.099,-2.014,0.671,80.000,75962.000,1.000
105.428,-3.749,-7.843,-2.095,-2.783,-1.356,-3.472,0.692,-0.008,0.870,-0.434,-1.068,-1.831,0.763,80.000,75963.000,1.000
105.430,-2.140,-4.483,-0.149,-0.985,-0.729,-2.512,2.726,-0.008,0.869,-0.433,-1.038,-1.862,0.793,80.000,75964.000,1.000
101.219,-0.378,-1.760,0.662,0.248,-0.075,-1.844,3.762,-0.010,0.871,-0.433,-1.129,-1.862,0.824,80.000,75965.000,1.000
91.700,0.852,-0.351,-0.295,0.198,0.216,-2.133,2.494,-0.011,0.871,-0.430,-1.038,-2.014,0.793,80.000,75966.000,1.000
77.602,1.378,-0.175,-2.447,-0.821,0.201,-3.130,-0.482,-0.011,0.870,-0.430,-1.129,-1.984,0.824,80.000,75967.000,1.000
61.615,1.476,-0.316,-4.365,-1.785,0.225,-3.709,-2.959,-0.011,0.869,-0.433,-1.160,-1.984,0.793,80.000,75968.000,1.000
46.895,1.341,0.018,-5.098,-2.108,0.460,-3.238,-3.482,-0.011,0.870,-0.432,-1.190,-1.953,0.824,80.000,75969.000,1.000
35.434,0.932,0.918,-4.828,-2.145,0.718,-2.277,-2.682,-0.010,0.870,-0.432,-1.099,-1.862,0.824,80.000,75970.000,1.000
27.553,0.192,2.160,-4.425,-2.772,0.497,-1.960,-2.490,-0.011,0.870,-0.435,-1.190,-1.862,0.793,80.000,75971.000,1.000
22.303,-0.722,3.198,-4.706,-4.576,-0.597,-3.194,-4.464,-0.012,0.870,-0.437,-1.129,-1.953,0.854,80.000,75972.000,1.000
18.334,-1.401,3.815,-5.725,-7.267,-2.472,-5.911,-8.387,-0.010,0.869,-0.436,-1.160,-1.892,0.763,80.000,75973.000,1.000
14.737,-1.406,4.193,-6.721,-9.723,-4.496,-9.001,-12.227,-0.011,0.870,-0.434,-1.160,-1.984,0.641,80.000,75974.000,1.000
11.140,-0.453,4.688,-6.643,-10.504,-5.358,-10.467,-13.304,-0.011,0.871,-0.433,-1.068,-1.984,0.641,80.000,75975.000,1.000
7.166,1.432,5.704,-4.881,-8.689,-3.462,-8.324,-10.073,-0.012,0.871,-0.434,-1.068,-1.984,0.580,80.000,75976.000,1.000
2.439,3.621,6.837,-1.916,-4.757,1.405,-2.678,-3.589,-0.011,0.872,-0.432,-0.977,-1.953,0.580,80.000,75977.000,1.000
-2.535,4.925,7.161,0.918,-0.606,6.897,3.773,3.037,-0.011,0.872,-0.434,-1.099,-2.014,0.549,80.000,75978.000,1.000
-6.086,4.356,5.903,2.404,1.738,9.711,7.816,6.982,-0.010,0.871,-0.437,-1.099,-1.953,0.580,80.000,75979.000,1.000
-6.495,2.028,3.168,2.337,1.618,8.564,8.427,7.792,-0.010,0.869,-0.433,-1.068,-1.984,0.671,80.000,75980.000,1.000
-3.573,-0.987,0.012,1.392,-0.247,4.795,6.970,6.951,-0.010,0.869,-0.432,-1.068,-1.862,0.671,80.000,75981.000,1.000
0.755,-3.727,-2.913,0.064,-3.076,0.345,4.706,5.374,-0.010,0.869,-0.434,-1.099,-1.923,0.580,80.000,75982.000,1.000
3.559,-5.821,-5.396,-1.588,-6.546,-3.587,1.872,2.605,-0.010,0.869,-0.435,-1.068,-1.953,0.641,80.000,75983.000,1.000
3.123,-7.110,-7.250,-3.325,-10.064,-6.246,-1.108,-1.385,-0.010,0.870,-0.438,-1.068,-1.862,0.580,80.000,75984.000,1.000
0.272,-7.517,-8.280,-4.589,-12.696,-7.355,-3.345,-5.268,-0.012,0.870,-0.437,-1.068,-1.831,0.549,80.000,75985.000,1.000
-3.010,-7.350,-8.502,-5.135,-14.087,-7.671,-4.714,-7.836,-0.011,0.869,-0.434,-0.977,-1.770,0.519,80.000,75986.000,1.000
-5.849,-7.148,-8.525,-5.329,-14.694,-8.401,-6.225,-9.196,-0.012,0.870,-0.432,-1.038,-1.709,0.580,80.000,75987.000,1.000
-8.276,-7.086,-8.629,-5.559,-14.961,-9.883,-8.417,-9.905,-0.010,0.868,-0.436,-0.916,-1.709,0.610,80.000,75988.000,1.000
-9.519,-6.819,-8.546,-5.793,-14.741,-11.189,-10.439,-9.870,-0.011,0.869,-0.438,-0.977,-1.587,0.610,80.000,75989.000,1.000
-7.897,-5.799,-7.804,-5.636,-13.453,-10.863,-10.660,-8.405,-0.010,0.870,-0.436,-0.885,-1.678,0.610,80.000,75990.000,1.000
-2.308,-3.703,-5.895,-4.709,-10.688,-8.026,-7.836,-5.120,-0.010,0.871,-0.432,-0.916,-1.617,0.580,80.000,75991.000,1.000
6.753,-0.835,-3.133,-3.222,-6.855,-3.263,-2.372,-0.796,-0.011,0.871,-0.432,-0.885,-1.587,0.519,80.000,75992.000,1.000
17.382,1.769,-0.528,-2.108,-3.370,1.266,3.276,2.406,-0.013,0.871,-0.433,-0.916,-1.678,0.610,80.000,75993.000,1.000
27.058,2.892,0.719,-2.481,-1.950,2.934,5.549,1.888,-0.013,0.871,-0.433,-0.885,-1.617,0.610,80.000,75994.000,1.000
33.874,2.173,0.234,-4.479,-3.101,0.643,2.570,-2.960,-0.011,0.870,-0.433,-0.854,-1.526,0.610,80.000,75995.000,1.000
37.365,0.483,-0.908,-6.861,-5.515,-4.285,-3.958,-9.596,-0.011,0.871,-0.431,-0.885,-1.526,0.641,80.000,75996.000,1.000
38.026,-0.833,-1.410,-8.083,-7.199,-9.176,-10.363,-14.397,-0.010,0.871,-0.430,-0.824,-1.404,0.610,80.000,75997.000,1.000
36.235,-0.803,-0.407,-7.300,-6.768,-11.568,-13.415,-15.089,-0.010,0.873,-0.431,-0.885,-1.465,0.671,80.000,75998.000,1.000
31.673,0.688,1.988,-4.724,-4.042,-10.409,-11.855,-11.627,-0.010,0.870,-0.434,-0.885,-1.495,0.641,80.000,75999.000,1.000
23.837,2.725,4.566,-1.558,-0.185,-6.694,-6.921,-5.951,-0.010,0.870,-0.435,-0.854,-1.465,0.580,80.000,76000.000,1.000
13.207,3.821,5.905,0.588,2.890,-2.878,-1.483,-0.909,-0.011,0.872,-0.434,-0.824,-1.495,0.549,80.000,76001.000,1.000
1.890,2.850,4.992,0.561,3.765,-1.074,1.845,1.392,-0.009,0.873,-0.436,-0.946,-1.343,0.641,80.000,76002.000,1.000
-6.986,-0.148,2.162,-1.486,2.516,-1.425,2.678,0.966,-0.008,0.872,-0.436,-0.916,-1.282,0.671,80.000,76003.000,1.000
-11.201,-4.077,-1.296,-4.242,0.368,-2.426,2.503,-0.491,-0.009,0.873,-0.433,-0.946,-1.251,0.671,80.000,76004.000,1.000
-11.115,-7.703,-4.262,-6.316,-1.617,-2.926,2.512,-1.455,-0.010,0.873,-0.431,-0.977,-1.221,0.671,80.000,76005.000,1.000
-9.194,-10.360,-6.190,-7.061,-3.209,-3.194,2.591,-1.646,-0.009,0.872,-0.432,-1.007,-1.251,0.610,80.000,76006.000,1.000
-7.981,-11.806,-7.222,-6.465,-4.414,-3.792,2.278,-1.323,-0.010,0.874,-0.431,-1.007,-1.251,0.702,80.000,76007.000,1.000
-8.350,-11.869,-7.444,-4.652,-4.897,-4.396,2.052,-0.292,-0.010,0.872,-0.434,-1.038,-1.129,0.641,80.000,76008.000,1.000
-9.279,-10.688,-7.130,-2.195,-4.583,-4.482,2.398,1.225,-0.011,0.872,-0.432,-1.068,-1.251,0.641,80.000,76009.000,1.000
-8.982,-8.853,-6.967,-0.277,-4.162,-4.327,2.610,1.800,-0.012,0.869,-0.432,-1.160,-1.251,0.671,80.000,76010.000,1.000
-6.105,-6.766,-7.137,0.294,-4.208,-4.378,1.878,0.356,-0.013,0.871,-0.433,-1.068,-1.282,0.671,80.000,76011.000,1.000
0.035,-4.211,-7.181,-0.170,-4.288,-4.162,0.636,-2.316,-0.014,0.872,-0.430,-1.099,-1.312,0.641,80.000,76012.000,1.000
9.661,-0.779,-6.137,-0.528,-3.296,-2.501,0.629,-3.980,-0.012,0.870,-0.430,-1.160,-1.251,0.671,80.000,76013.000,1.000
22.070,3.425,-3.483,0.275,-0.404,1.309,3.559,-2.523,-0.011,0.870,-0.433,-1.099,-1.282,0.610,80.000,76014.000,1.000
35.106,7.539,0.247,2.438,4.130,6.599,9.453,2.368,-0.013,0.870,-0.432,-1.129,-1.221,0.671,80.000,76015.000,1.000
45.998,10.292,3.909,5.114,8.764,11.439,16.138,8.497,-0.013,0.869,-0.432,-1.190,-1.221,0.671,80.000,76016.000,1.000
52.921,10.679,6.127,6.893,11.453,13.710,20.317,12.444,-0.012,0.870,-0.431,-1.190,-1.221,0.702,80.000,76017.000,1.000
55.366,8.601,6.342,6.781,10.935,12.283,19.824,11.974,-0.010,0.868,-0.434,-1.068,-1.190,0.671,80.000,76018.000,1.000
53.441,4.975,4.960,4.746,7.512,7.603,14.980,7.413,-0.013,0.869,-0.431,-1.099,-1.190,0.671,80.000,76019.000,1.000
48.023,1.262,2.934,1.733,2.935,1.578,8.334,1.469,-0.013,0.868,-0.430,-1.190,-1.251,0.671,80.000,76020.000,1.000
41.204,-1.345,1.385,-0.896,-0.675,-3.421,2.983,-2.637,-0.012,0.867,-0.430,-1.190,-1.221,0.763,80.000,76021.000,1.000
35.168,-2.619,0.607,-2.423,-2.399,-6.104,0.161,-3.851,-0.010,0.868,-0.430,-1.221,-1.190,0.824,80.000,76022.000,1.000
30.643,-3.182,0.316,-3.038,-2.969,-6.987,-1.085,-3.649,-0.010,0.865,-0.430,-1.038,-1.190,0.916,80.000,76023.000,1.000
27.101,-3.708,0.182,-3.166,-3.512,-7.354,-2.017,-3.627,-0.009,0.867,-0.430,-0.946,-1.190,0.885,80.000,76024.000,1.000
24.250,-4.252,0.314,-2.812,-4.177,-7.539,-2.428,-3.689,-0.009,0.865,-0.430,-0.793,-1.251,0.946,80.000,76025.000,1.000
22.615,-4.426,1.328,-1.666,-4.245,-6.814,-1.079,-2.812,-0.010,0.866,-0.431,-0.732,-1.221,0.946,80.000,76026.000,1.000
22.816,-4.083,3.289,0.276,-3.217,-4.857,2.275,-0.675,-0.013,0.869,-0.431,-0.580,-1.221,0.946,80.000,76027.000,1.000
24.753,-3.451,5.721,2.584,-1.315,-2.460,6.352,2.030,-0.013,0.870,-0.433,-0.580,-1.129,0.916,80.000,76028.000,1.000
27.222,-2.827,7.830,4.639,0.783,-0.849,9.132,4.032,-0.012,0.871,-0.432,-0.580,-1.221,1.038,80.000,76029.000,1.000
28.353,-2.431,8.890,6.065,2.430,-0.747,9.155,4.282,-0.011,0.870,-0.430,-0.519,-1.251,0.977,80.000,76030.000,1.000
26.858,-2.354,8.915,7.117,3.478,-1.815,6.790,3.105,-0.010,0.870,-0.434,-0.549,-1.221,1.007,80.000,76031.000,1.000
22.884,-2.500,8.297,8.372,4.333,-2.931,3.941,2.158,-0.012,0.871,-0.436,-0.610,-1.190,0.977,80.000,76032.000,1.000
17.722,-2.572,7.729,10.126,5.538,-3.004,2.695,3.015,-0.012,0.871,-0.433,-0.580,-1.160,0.946,80.000,76033.000,1.000
12.946,-2.130,7.836,12.116,7.414,-1.448,4.006,5.931,-0.013,0.872,-0.432,-0.549,-1.282,0.946,80.000,76034.000,1.000
9.969,-0.769,8.879,13.807,9.914,1.574,7.246,9.873,-0.013,0.869,-0.435,-0.549,-1.282,0.885,80.000,76035.000,1.000
9.598,1.482,10.714,14.670,12.401,4.843,10.522,13.085,-0.010,0.867,-0.438,-0.580,-1.221,0.916,80.000,76036.000,1.000
11.352,4.062,12.425,14.267,13.845,6.650,11.681,13.887,-0.007,0.867,-0.437,-0.641,-1.221,0.854,80.000,76037.000,1.000
13.661,6.476,13.300,12.804,13.828,6.437,10.346,12.192,-0.007,0.867,-0.432,-0.610,-1.038,0.885,80.000,76038.000,1.000
14.848,8.616,13.244,11.184,12.984,5.385,8.285,9.807,-0.007,0.867,-0.431,-0.549,-0.946,0.885,80.000,76039.000,1.000
13.698,10.312,12.291,10.013,11.956,4.877,7.190,8.341,-0.008,0.868,-0.428,-0.397,-0.916,0.977,80.000,76040.000,1.000
9.492,11.070,10.458,8.943,10.543,5.096,7.018,7.572,-0.007,0.868,-0.429,-0.427,-0.977,0.916,80.000,76041.000,1.000
2.494,10.611,7.777,7.311,8.408,5.532,6.804,6.501,-0.008,0.868,-0.430,-0.519,-0.946,0.946,80.000,76042.000,1.000
-5.215,9.397,5.031,5.211,5.988,5.908,6.204,4.967,-0.009,0.869,-0.431,-0.458,-0.763,0.977,80.000,76043.000,1.000
-10.388,8.270,3.255,3.446,4.103,6.030,5.162,3.304,-0.009,0.872,-0.429,-0.458,-0.793,1.068,80.000,76044.000,1.000
-11.038,7.884,2.951,2.836,3.285,5.574,3.490,1.720,-0.011,0.873,-0.435,-0.427,-0.824,1.038,80.000,76045.000,1.000
-8.234,8.582,4.212,3.802,3.741,4.587,1.562,0.647,-0.009,0.873,-0.438,-0.519,-0.824,1.068,80.000,76046.000,1.000
-5.194,10.401,6.613,6.198,5.491,3.826,0.376,0.879,-0.010,0.874,-0.438,-0.458,-0.824,1.068,80.000,76047.000,1.000
-4.751,12.969,9.659,9.480,8.281,4.267,0.949,3.107,-0.008,0.873,-0.436,-0.458,-0.824,1.099,80.000,76048.000,1.000
-7.873,15.344,12.556,12.627,11.245,6.075,3.102,6.729,-0.007,0.871,-0.436,-0.427,-0.763,1.190,80.000,76049.000,1.000
-13.558,16.270,14.151,14.256,12.896,8.107,4.995,9.390,-0.008,0.872,-0.438,-0.397,-0.732,1.190,80.000,76050.000,1.000
-19.213,15.025,13.891,13.616,12.149,8.733,4.672,8.893,-0.009,0.871,-0.433,-0.275,-0.763,1.190,80.000,76051.000,1.000
-21.877,12.041,12.132,11.396,9.385,7.221,1.723,5.407,-0.011,0.874,-0.435,-0.244,-0.763,1.129,80.000,76052.000,1.000
-20.069,8.600,10.148,9.311,6.176,4.321,-2.419,1.248,-0.013,0.876,-0.434,-0.275,-0.793,1.099,80.000,76053.000,1.000
-14.646,5.984,9.181,8.809,4.115,1.787,-5.500,-1.053,-0.013,0.878,-0.433,-0.305,-0.854,1.068,80.000,76054.000,1.000
-7.908,4.837,9.715,10.218,3.911,1.117,-5.766,-0.211,-0.014,0.882,-0.432,-0.458,-0.916,0.977,80.000,76055.000,1.000
-2.010,4.885,11.473,12.707,4.988,2.072,-3.294,3.188,-0.013,0.882,-0.431,-0.702,-1.068,0.763,80.000,76056.000,1.000
1.711,5.087,13.067,14.658,5.733,2.643,-0.483,6.753,-0.011,0.884,-0.433,-0.732,-1.038,0.732,80.000,76057.000,1.000
2.388,4.331,12.910,14.570,4.576,0.889,-0.144,7.748,-0.011,0.885,-0.431,-0.977,-1.099,0.671,80.000,76058.000,1.000
-0.402,2.256,10.242,12.000,1.167,-3.364,-3.194,5.113,-0.012,0.885,-0.432,-1.190,-1.221,0.671,80.000,76059.000,1.000
-5.665,-0.378,5.643,7.871,-3.324,-8.333,-8.050,0.232,-0.011,0.883,-0.434,-1.373,-1.282,0.732,80.000,76060.000,1.000
-10.646,-2.167,0.801,3.824,-7.115,-11.519,-11.958,-4.352,-0.009,0.881,-0.435,-1.556,-1.282,0.641,80.000,76061.000,1.000
-12.407,-2.161,-2.896,1.100,-9.032,-11.482,-13.095,-6.810,-0.008,0.880,-0.435,-1.678,-1.221,0.732,80.000,76062.000,1.000
-9.769,-0.626,-4.846,-0.028,-9.124,-8.823,-11.453,-6.914,-0.008,0.876,-0.432,-1.862,-1.221,0.671,80.000,76063.000,1.000
-3.758,1.072,-5.470,-0.259,-8.542,-5.658,-8.634,-5.970,-0.009,0.877,-0.430,-1.831,-1.221,0.702,80.000,76064.000,1.000
3.429,1.515,-5.731,-0.516,-8.545,-3.902,-6.406,-5.474,-0.008,0.873,-0.430,-1.801,-1.099,0.763,80.000,76065.000,1.000
9.625,0.395,-5.975,-1.011,-9.367,-3.721,-4.975,-5.546,-0.007,0.871,-0.431,-1.801,-1.129,0.641,80.000,76066.000,1.000
13.246,-1.375,-6.005,-1.290,-10.251,-3.716,-3.304,-5.186,-0.007,0.870,-0.429,-1.770,-1.068,0.610,80.000,76067.000,1.000
13.583,-2.582,-5.370,-0.884,-10.456,-2.610,-0.621,-3.664,-0.009,0.869,-0.429,-1.801,-1.038,0.580,80.000,76068.000,1.000
10.910,-2.666,-4.124,0.149,-9.976,-0.438,2.538,-1.313,-0.010,0.866,-0.430,-1.801,-1.068,0.488,80.000,76069.000,1.000
6.128,-1.915,-2.930,1.285,-9.348,1.878,4.869,0.930,-0.011,0.866,-0.430,-1.770,-0.916,0.610,80.000,76070.000,1.000
-0.130,-1.093,-2.343,1.930,-9.098,3.441,5.512,2.314,-0.012,0.865,-0.430,-1.770,-0.854,0.519,80.000,76071.000,1.000
-8.143,-0.937,-2.728,1.680,-9.460,3.808,4.436,2.592,-0.012,0.866,-0.429,-1.617,-0.977,0.580,80.000,76072.000,1.000
-18.477,-1.727,-3.812,0.588,-10.406,3.181,2.505,2.113,-0.012,0.867,-0.429,-1.495,-1.038,0.549,80.000,76073.000,1.000
-30.899,-3.319,-5.084,-1.022,-11.977,2.088,0.695,1.184,-0.013,0.864,-0.429,-1.495,-1.129,0.488,80.000,76074.000,1.000
-44.211,-5.438,-6.294,-2.866,-14.445,0.758,-0.794,-0.516,-0.013,0.864,-0.427,-1.465,-1.160,0.488,80.000,76075.000,1.000
-56.708,-7.784,-7.154,-4.580,-17.777,-0.952,-2.209,-3.191,-0.013,0.862,-0.427,-1.465,-1.160,0.488,80.000,76076.000,1.000
-66.366,-10.059,-7.562,-5.693,-21.197,-3.197,-3.698,-6.196,-0.014,0.860,-0.423,-1.312,-1.221,0.519,80.000,76077.000,1.000
-71.348,-12.035,-7.444,-5.916,-23.632,-5.975,-5.260,-8.720,-0.014,0.859,-0.425,-1.099,-1.251,0.488,80.000,76078.000,1.000
-71.383,-13.543,-6.925,-5.423,-24.404,-8.960,-6.916,-10.590,-0.013,0.859,-0.428,-0.885,-1.282,0.427,80.000,76079.000,1.000
-68.268,-14.230,-6.149,-4.506,-23.164,-11.038,-8.055,-11.536,-0.011,0.858,-0.429,-0.763,-1.190,0.488,80.000,76080.000,1.000
-64.426,-13.571,-4.836,-3.239,-19.753,-10.603,-7.269,-10.662,-0.012,0.859,-0.426,-0.641,-1.312,0.519,80.000,76081.000,1.000
-61.296,-11.427,-3.062,-1.899,-14.703,-7.037,-4.054,-7.693,-0.012,0.858,-0.423,-0.488,-1.282,0.488,80.000,76082.000,1.000
-59.232,-8.382,-1.358,-1.169,-9.411,-1.644,0.249,-3.794,-0.011,0.862,-0.430,-0.397,-1.221,0.519,80.000,76083.000,1.000
-58.522,-5.334,-0.414,-1.594,-5.233,3.316,3.663,-0.426,-0.011,0.862,-0.431,-0.275,-1.221,0.610,80.000,76084.000,1.000
-59.792,-2.915,-0.577,-2.907,-2.521,6.363,5.394,2.117,-0.011,0.864,-0.426,-0.183,-1.282,0.641,80.000,76085.000,1.000
-63.527,-1.478,-1.593,-4.308,-0.981,7.265,5.805,4.081,-0.013,0.862,-0.430,0.000,-1.251,0.702,80.000,76086.000,1.000
-69.613,-1.394,-3.349,-5.445,-0.677,6.221,4.847,4.671,-0.011,0.865,-0.431,0.153,-1.312,0.702,80.000,76087.000,1.000
-76.845,-2.791,-5.593,-6.454,-1.868,3.513,2.170,2.691,-0.012,0.866,-0.430,0.214,-1.251,0.702,80.000,76088.000,1.000
-82.911,-5.153,-7.803,-7.369,-4.180,-0.283,-1.900,-1.773,-0.012,0.868,-0.431,0.153,-1.282,0.793,80.000,76089.000,1.000
-85.594,-7.483,-9.391,-7.920,-6.593,-4.485,-6.370,-7.207,-0.013,0.869,-0.431,0.183,-1.190,0.824,80.000,76090.000,1.000
-84.461,-8.874,-9.774,-7.760,-8.078,-8.485,-10.034,-11.612,-0.008,0.870,-0.432,0.244,-1.221,0.854,80.000,76091.000,1.000
-81.311,-8.901,-8.947,-6.802,-8.045,-11.488,-11.815,-13.256,-0.009,0.872,-0.430,0.305,-1.312,0.946,80.000,76092.000,1.000
-78.541,-7.553,-7.149,-5.143,-6.306,-12.379,-10.794,-11.078,-0.009,0.871,-0.431,0.214,-1.160,0.946,80.000,76093.000,1.000
-76.806,-5.114,-4.866,-3.040,-3.036,-10.330,-6.809,-5.360,-0.009,0.873,-0.429,0.275,-1.160,1.068,80.000,76094.000,1.000
-74.556,-2.344,-2.981,-1.119,0.891,-5.936,-1.348,1.656,-0.007,0.874,-0.432,0.183,-1.129,1.129,80.000,76095.000,1.000
-69.930,-0.491,-2.338,-0.334,3.800,-1.588,2.633,6.385,-0.009,0.874,-0.433,0.275,-0.977,1.251,80.000,76096.000,1.000
-62.546,-0.591,-3.450,-1.307,4.233,0.152,2.640,6.254,-0.008,0.873,-0.435,0.183,-0.946,1.190,80.000,76097.000,1.000
-53.424,-2.575,-5.681,-3.441,2.308,-1.269,-0.957,1.956,-0.009,0.875,-0.434,0.122,-0.977,1.251,80.000,76098.000,1.000
-44.109,-5.345,-7.636,-5.195,-0.341,-4.168,-5.300,-3.166,-0.009,0.877,-0.437,0.122,-0.916,1.221,80.000,76099.000,1.000
-36.253,-7.644,-8.216,-5.254,-1.883,-6.210,-7.463,-5.769,-0.009,0.876,-0.434,0.000,-0.946,1.221,80.000,76100.000,1.000
-31.450,-8.863,-7.159,-3.435,-1.608,-6.200,-6.400,-4.797,-0.010,0.877,-0.433,0.000,-0.885,1.221,80.000,76101.000,1.000
-30.698,-9.337,-5.528,-0.884,-0.418,-5.009,-3.799,-2.208,-0.010,0.878,-0.436,-0.031,-0.946,1.190,80.000,76102.000,1.000
-33.569,-9.897,-4.761,0.698,-0.046,-4.819,-2.852,-1.362,-0.010,0.879,-0.436,-0.153,-0.916,1.099,80.000,76103.000,1.000
-38.118,-11.057,-5.690,0.142,-1.559,-7.111,-5.772,-4.260,-0.010,0.880,-0.433,-0.336,-0.916,1.190,80.000,76104.000,1.000
-41.812,-12.469,-7.986,-2.417,-4.339,-11.162,-11.830,-9.854,-0.012,0.880,-0.436,-0.458,-0.916,1.038,80.000,76105.000,1.000
-42.616,-13.047,-10.147,-5.548,-6.360,-14.377,-17.488,-14.708,-0.012,0.882,-0.435,-0.610,-0.946,1.068,80.000,76106.000,1.000
-39.569,-11.706,-10.787,-7.502,-5.631,-14.191,-19.029,-15.551,-0.012,0.880,-0.435,-0.702,-1.007,0.977,80.000,76107.000,1.000
-33.141,-8.229,-9.308,-7.320,-1.748,-10.117,-15.317,-11.666,-0.011,0.878,-0.432,-0.977,-0.916,0.854,80.000,76108.000,1.000
-25.295,-3.636,-6.357,-5.463,3.692,-4.188,-8.776,-5.507,-0.007,0.875,-0.432,-0.916,-0.977,0.916,80.000,76109.000,1.000
-18.129,0.648,-3.299,-3.264,8.443,0.897,-3.362,-0.774,-0.006,0.871,-0.431,-0.885,-1.007,0.885,80.000,76110.000,1.000
-12.056,4.071,-0.746,-1.649,11.552,4.112,-1.054,0.663,-0.003,0.869,-0.435,-0.977,-0.946,0.854,80.000,76111.000,1.000
-6.042,6.997,1.410,-0.698,13.633,6.139,-0.994,-0.263,-0.003,0.870,-0.437,-0.885,-0.793,0.854,80.000,76112.000,1.000
0.381,9.620,3.335,-0.280,15.310,7.465,-1.596,-1.732,-0.004,0.871,-0.437,-0.977,-0.702,0.824,80.000,76113.000,1.000
6.055,11.380,4.483,-0.679,16.119,7.547,-2.512,-3.130,-0.003,0.871,-0.434,-0.763,-0.580,0.824,80.000,76114.000,1.000
9.486,11.625,4.045,-2.217,15.250,5.925,-4.013,-4.682,-0.003,0.872,-0.431,-0.671,-0.549,0.854,80.000,76115.000,1.000
10.826,10.500,2.183,-4.489,12.816,3.275,-5.533,-6.031,-0.003,0.869,-0.432,-0.732,-0.519,0.885,80.000,76116.000,1.000
12.156,9.025,-0.123,-6.405,10.025,1.190,-5.841,-6.216,-0.005,0.866,-0.434,-0.763,-0.397,0.946,80.000,76117.000,1.000
15.903,8.376,-1.554,-6.836,8.295,1.101,-4.028,-4.631,-0.008,0.864,-0.432,-0.671,-0.244,0.977,80.000,76118.000,1.000
22.830,9.024,-1.424,-5.396,8.225,3.072,-0.519,-1.760,-0.010,0.863,-0.431,-0.458,-0.183,1.007,80.000,76119.000,1.000
31.334,10.404,-0.111,-2.782,9.196,5.512,2.819,0.935,-0.012,0.864,-0.431,-0.427,-0.183,0.854,80.000,76120.000,1.000
38.568,11.251,1.447,-0.401,9.907,6.364,3.888,1.844,-0.014,0.866,-0.429,-0.366,-0.183,0.793,80.000,76121.000,1.000
42.104,10.420,2.028,0.524,9.523,4.810,1.831,0.386,-0.015,0.866,-0.430,-0.427,-0.366,0.763,80.000,76122.000,1.000
41.050,7.784,1.241,-0.043,8.459,1.876,-2.017,-2.196,-0.017,0.866,-0.429,-0.336,-0.519,0.671,80.000,76123.000,1.000
36.305,4.311,-0.211,-1.006,7.902,-0.615,-5.192,-3.767,-0.015,0.867,-0.433,-0.305,-0.580,0.519,80.000,76124.000,1.000
29.923,1.373,-1.220,-1.068,8.677,-1.484,-6.189,-3.174,-0.016,0.870,-0.432,-0.275,-0.641,0.336,80.000,76125.000,1.000
23.974,-0.053,-0.916,0.534,10.780,-0.703,-5.149,-0.786,-0.016,0.870,-0.431,-0.305,-0.732,0.336,80.000,76126.000,1.000
19.703,0.193,0.527,3.704,13.673,1.014,-3.148,2.327,-0.015,0.870,-0.432,-0.397,-0.854,0.366,80.000,76127.000,1.000
17.294,1.516,2.327,7.571,16.619,2.801,-1.199,5.056,-0.014,0.870,-0.431,-0.366,-0.916,0.336,80.000,76128.000,1.000
15.857,2.930,3.557,10.730,18.811,3.829,-0.203,6.242,-0.015,0.870,-0.430,-0.336,-0.977,0.244,80.000,76129.000,1.000
13.483,3.636,3.610,11.970,19.730,3.443,-0.806,5.226,-0.010,0.869,-0.431,-0.366,-1.129,0.336,80.000,76130.000,1.000
7.729,3.578,2.818,11.137,19.708,1.821,-2.524,2.766,-0.010,0.870,-0.432,-0.397,-1.251,0.366,80.000,76131.000,1.000
-2.766,3.480,2.074,9.167,19.921,0.345,-3.730,0.728,-0.010,0.867,-0.431,-0.427,-1.190,0.305,80.000,76132.000,1.000
-16.417,4.217,2.516,7.370,21.493,0.479,-2.933,0.648,-0.008,0.870,-0.430,-0.336,-1.190,0.275,80.000,76133.000,1.000
-29.000,6.010,4.579,6.523,24.532,2.283,-0.235,2.545,-0.008,0.872,-0.429,-0.366,-1.129,0.427,80.000,76134.000,1.000
-36.243,8.391,7.599,6.627,28.184,4.700,3.014,5.221,-0.006,0.872,-0.429,-0.427,-1.190,0.519,80.000,76135.000,1.000
-36.415,10.787,10.610,7.319,31.430,6.826,5.707,7.457,-0.011,0.873,-0.433,-0.366,-1.160,0.641,80.000,76136.000,1.000
-31.185,12.740,12.548,7.986,33.509,8.163,7.222,8.508,-0.010,0.873,-0.433,-0.519,-1.221,0.763,80.000,76137.000,1.000
-24.314,13.703,12.671,7.786,33.888,8.245,7.185,7.877,-0.013,0.873,-0.431,-0.610,-1.282,0.885,80.000,76138.000,1.000
-19.026,13.134,10.810,6.072,32.472,6.887,5.719,5.486,-0.011,0.873,-0.433,-0.610,-1.251,1.007,80.000,76139.000,1.000
-16.086,11.009,7.673,3.150,29.939,4.597,3.805,2.361,-0.009,0.875,-0.433,-0.397,-1.312,1.038,80.000,76140.000,1.000
-13.872,8.038,4.835,0.298,27.412,2.215,2.653,0.197,-0.008,0.874,-0.432,-0.458,-1.373,0.946,80.000,76141.000,1.000
-9.793,5.330,3.575,-1.206,25.728,0.440,2.536,-0.127,-0.008,0.875,-0.432,-0.519,-1.312,1.068,80.000,76142.000,1.000
-1.927,3.974,4.563,-0.776,25.276,-0.077,3.200,1.296,-0.010,0.875,-0.430,-0.549,-1.312,1.160,80.000,76143.000,1.000
9.615,4.501,7.504,1.343,26.170,1.193,4.745,4.299,-0.010,0.877,-0.429,-0.702,-1.282,1.221,80.000,76144.000,1.000
22.319,6.282,10.861,4.046,27.922,3.914,7.294,8.488,-0.012,0.876,-0.432,-0.702,-1.190,1.190,80.000,76145.000,1.000
32.442,7.572,12.601,5.609,29.136,6.573,10.109,12.294,-0.012,0.875,-0.434,-0.763,-1.251,1.129,80.000,76146.000,1.000
37.070,6.702,11.228,4.617,28.331,7.598,11.774,13.458,-0.012,0.875,-0.434,-0.854,-1.221,1.129,80.000,76147.000,1.000
35.532,3.481,7.186,1.184,25.253,6.680,11.684,11.076,-0.009,0.872,-0.436,-0.977,-1.343,1.129,80.000,76148.000,1.000
29.504,-0.792,2.420,-3.142,20.920,4.511,10.309,6.281,-0.008,0.873,-0.436,-0.977,-1.373,1.068,80.000,76149.000,1.000
22.416,-4.432,-1.127,-6.565,16.640,1.862,8.265,1.049,-0.006,0.871,-0.435,-0.977,-1.282,1.068,80.000,76150.000,1.000
18.116,-6.291,-2.306,-7.963,13.387,-0.627,5.885,-3.019,-0.007,0.871,-0.431,-0.916,-1.404,0.916,80.000,76151.000,1.000
18.867,-6.245,-1.441,-7.282,11.538,-2.555,3.171,-5.236,-0.010,0.871,-0.430,-1.007,-1.373,0.916,80.000,76152.000,1.000
24.194,-5.236,0.153,-5.395,10.739,-4.010,0.141,-5.772,-0.011,0.871,-0.433,-1.007,-1.312,0.885,80.000,76153.000,1.000
31.688,-4.603,0.982,-3.538,10.210,-5.269,-2.902,-5.314,-0.012,0.871,-0.434,-1.007,-1.221,0.824,80.000,76154.000,1.000
38.828,-5.024,0.412,-2.439,9.475,-6.235,-5.254,-4.449,-0.011,0.869,-0.434,-1.099,-1.190,0.702,80.000,76155.000,1.000
44.127,-6.063,-0.756,-1.881,8.760,-6.470,-5.917,-3.097,-0.011,0.869,-0.433,-1.038,-1.312,0.549,80.000,76156.000,1.000
47.152,-6.726,-1.443,-1.261,8.616,-5.672,-4.336,-0.795,-0.009,0.867,-0.434,-0.977,-1.434,0.488,80.000,76157.000,1.000
47.840,-6.326,-1.105,-0.310,9.127,-4.088,-0.984,2.343,-0.008,0.867,-0.433,-0.977,-1.343,0.488,80.000,76158.000,1.000
45.726,-4.935,-0.167,0.611,9.591,-2.428,2.477,5.081,-0.008,0.867,-0.430,-0.793,-1.495,0.427,80.000,76159.000,1.000
40.232,-3.188,0.417,0.875,9.087,-1.393,4.061,5.874,-0.007,0.867,-0.430,-0.793,-1.434,0.427,80.000,76160.000,1.000
31.865,-1.854,0.143,0.133,7.215,-1.306,2.922,4.229,-0.007,0.869,-0.431,-0.702,-1.373,0.275,80.000,76161.000,1.000
22.562,-1.326,-0.994,-1.393,4.526,-1.770,0.038,1.317,-0.010,0.868,-0.431,-0.671,-1.373,0.214,80.000,76162.000,1.000
14.380,-1.227,-2.251,-2.829,2.412,-1.641,-2.204,-0.559,-0.012,0.869,-0.432,-0.671,-1.282,0.244,80.000,76163.000,1.000
8.013,-0.837,-2.792,-3.270,2.128,-0.004,-1.883,0.271,-0.013,0.871,-0.431,-0.702,-1.282,0.214,80.000,76164.000,1.000
3.068,0.042,-2.608,-2.629,3.727,2.826,0.952,3.514,-0.011,0.872,-0.431,-0.732,-1.373,0.336,80.000,76165.000,1.000
-0.623,0.795,-2.409,-1.780,5.955,5.485,4.674,7.254,-0.010,0.870,-0.431,-0.580,-1.434,0.244,80.000,76166.000,1.000
-2.516,0.489,-3.260,-1.937,7.097,6.558,7.287,9.271,-0.010,0.869,-0.433,-0.702,-1.404,0.244,80.000,76167.000,1.000
-1.940,-1.317,-5.435,-3.632,6.195,5.489,7.826,8.554,-0.012,0.871,-0.433,-0.702,-1.495,0.183,80.000,76168.000,1.000
1.192,-4.191,-8.200,-6.353,3.677,2.940,6.857,5.973,-0.011,0.872,-0.431,-0.763,-1.526,0.183,80.000,76169.000,1.000
6.285,-7.192,-10.553,-9.058,0.791,0.297,5.656,3.381,-0.012,0.874,-0.430,-0.793,-1.526,0.183,80.000,76170.000,1.000
12.085,-9.634,-11.900,-10.913,-1.592,-1.506,4.930,1.988,-0.013,0.873,-0.426,-0.763,-1.465,0.183,80.000,76171.000,1.000
16.597,-11.483,-12.588,-11.663,-3.486,-2.581,4.371,1.767,-0.012,0.873,-0.428,-0.793,-1.495,0.244,80.000,76172.000,1.000
18.011,-12.988,-13.067,-11.410,-5.241,-3.383,3.662,2.298,-0.012,0.871,-0.431,-0.793,-1.495,0.214,80.000,76173.000,1.000
16.099,-14.187,-13.423,-10.412,-6.993,-3.939,2.966,3.294,-0.014,0.869,-0.434,-0.854,-1.678,0.336,80.000,76174.000,1.000
12.119,-14.901,-13.483,-9.036,-8.708,-4.078,2.491,4.323,-0.015,0.871,-0.431,-0.793,-1.648,0.366,80.000,76175.000,1.000
7.284,-15.144,-13.002,-7.806,-10.627,-4.118,1.985,4.464,-0.014,0.871,-0.431,-0.763,-1.617,0.336,80.000,76176.000,1.000
1.823,-15.342,-12.311,-7.441,-13.373,-4.847,0.562,2.565,-0.013,0.872,-0.427,-0.824,-1.648,0.397,80.000,76177.000,1.000
-4.394,-15.784,-11.727,-8.232,-17.167,-6.468,-2.105,-1.458,-0.014,0.872,-0.427,-0.763,-1.709,0.488,80.000,76178.000,1.000
-11.184,-16.036,-11.119,-9.605,-21.137,-7.913,-4.947,-6.016,-0.013,0.872,-0.429,-0.946,-1.740,0.458,80.000,76179.000,1.000
-18.046,-15.170,-10.074,-10.485,-23.843,-7.732,-6.374,-8.973,-0.014,0.872,-0.429,-0.946,-1.801,0.366,80.000,76180.000,1.000
-24.112,-12.602,-8.127,-10.047,-24.374,-5.521,-5.590,-9.150,-0.013,0.873,-0.429,-1.007,-1.770,0.305,80.000,76181.000,1.000
-28.253,-8.688,-5.457,-8.301,-22.915,-2.175,-3.101,-6.956,-0.012,0.874,-0.431,-1.007,-1.831,0.427,80.000,76182.000,1.000
-29.692,-4.481,-2.554,-5.938,-20.427,1.068,0.093,-3.756,-0.011,0.873,-0.430,-0.977,-1.770,0.519,80.000,76183.000,1.000
-28.548,-1.090,0.052,-3.831,-18.051,3.385,3.101,-0.915,-0.013,0.874,-0.431,-1.038,-2.014,0.610,80.000,76184.000,1.000
-25.628,0.838,1.976,-2.625,-16.716,4.411,5.160,0.628,-0.011,0.874,-0.431,-1.160,-1.923,0.702,80.000,76185.000,1.000
-21.831,1.318,3.295,-2.533,-16.917,4.211,5.839,0.361,-0.012,0.875,-0.431,-1.160,-1.953,0.732,80.000,76186.000,1.000
-17.972,0.841,4.037,-3.383,-18.634,3.187,5.047,-1.817,-0.010,0.874,-0.431,-1.190,-1.831,0.671,80.000,76187.000,1.000
-14.549,0.026,4.281,-4.626,-21.366,1.750,3.125,-5.305,-0.011,0.873,-0.429,-1.282,-1.831,0.671,80.000,76188.000,1.000
-11.081,-0.641,4.204,-5.519,-24.277,0.237,0.897,-8.723,-0.010,0.875,-0.428,-1.312,-1.770,0.732,80.000,76189.000,1.000
-6.480,-0.835,4.030,-5.477,-26.422,-0.889,-0.500,-10.455,-0.009,0.871,-0.427,-1.373,-1.770,0.763,80.000,76190.000,1.000
-0.814,-0.429,4.098,-4.378,-27.189,-1.186,-0.262,-9.685,-0.009,0.872,-0.429,-1.251,-1.709,0.824,80.000,76191.000,1.000
4.136,0.428,4.391,-2.679,-26.654,-0.590,1.236,-7.040,-0.008,0.871,-0.431,-1.221,-1.648,0.946,80.000,76192.000,1.000
6.487,1.344,4.759,-1.053,-25.462,0.460,2.798,-4.012,-0.008,0.872,-0.428,-1.404,-1.495,0.916,80.000,76193.000,1.000
5.594,1.716,4.777,-0.113,-24.493,1.126,3.160,-2.117,-0.006,0.872,-0.429,-1.495,-1.465,0.977,80.000,76194.000,1.000
2.106,0.940,3.766,-0.237,-24.393,0.636,1.641,-2.267,-0.007,0.873,-0.430,-1.434,-1.373,0.946,80.000,76195.000,1.000
-2.245,-1.089,1.690,-1.202,-25.004,-1.030,-1.164,-4.016,-0.008,0.874,-0.430,-1.495,-1.312,1.038,80.000,76196.000,1.000
-5.170,-3.690,-0.705,-2.157,-25.303,-2.923,-3.583,-5.574,-0.009,0.872,-0.431,-1.434,-1.190,1.160,80.000,76197.000,1.000
-5.008,-5.681,-2.142,-2.105,-24.159,-3.761,-3.927,-5.110,-0.008,0.871,-0.432,-1.404,-1.160,1.129,80.000,76198.000,1.000
-1.633,-6.135,-1.922,-0.708,-21.245,-2.998,-1.916,-2.396,-0.007,0.871,-0.431,-1.495,-1.099,1.160,80.000,76199.000,1.000
3.740,-4.949,-0.509,1.428,-17.277,-1.281,1.013,0.949,-0.009,0.872,-0.431,-1.404,-1.007,1.190,80.000,76200.000,1.000
9.229,-2.831,1.128,3.248,-13.471,0.217,2.964,2.858,-0.009,0.869,-0.435,-1.434,-0.977,1.129,80.000,76201.000,1.000
12.866,-0.786,1.911,3.889,-10.781,0.794,2.880,2.314,-0.009,0.869,-0.433,-1.221,-0.977,1.160,80.000,76202.000,1.000
13.434,0.515,1.402,3.179,-9.456,0.594,1.164,-0.131,-0.008,0.869,-0.432,-1.282,-0.885,1.129,80.000,76203.000,1.000
11.159,1.107,-0.056,1.685,-9.023,0.487,-0.648,-2.804,-0.008,0.869,-0.433,-1.099,-0.793,1.038,80.000,76204.000,1.000
7.598,1.711,-1.513,0.535,-8.548,1.661,-0.579,-3.556,-0.007,0.870,-0.433,-1.160,-0.671,0.977,80.000,76205.000,1.000
4.770,3.088,-1.773,0.777,-7.391,4.546,2.569,-0.942,-0.006,0.871,-0.433,-1.190,-0.671,0.946,80.000,76206.000,1.000
3.939,5.125,-0.687,2.316,-6.025,7.934,7.588,4.070,-0.009,0.871,-0.429,-1.190,-0.549,0.946,80.000,76207.000,1.000
4.799,6.764,0.839,3.862,-5.759,9.673,11.378,8.269,-0.009,0.872,-0.432,-1.129,-0.549,0.885,80.000,76208.000,1.000
5.776,6.887,1.553,4.052,-7.391,8.412,11.448,8.836,-0.009,0.872,-0.433,-1.068,-0.458,0.946,80.000,76209.000,1.000
5.556,5.237,0.688,2.541,-10.263,4.647,7.810,5.617,-0.007,0.872,-0.429,-0.977,-0.427,0.916,80.000,76210.000,1.000
4.464,2.578,-1.440,0.003,-12.785,0.176,2.570,0.644,-0.007,0.871,-0.426,-0.977,-0.427,1.007,80.000,76211.000,1.000
4.335,0.091,-4.050,-2.676,-13.769,-3.322,-2.075,-3.998,-0.007,0.871,-0.429,-0.885,-0.336,0.977,80.000,76212.000,1.000
7.281,-1.325,-6.195,-4.877,-13.116,-5.141,-4.881,-7.244,-0.008,0.873,-0.429,-0.793,-0.366,1.038,80.000,76213.000,1.000
14.196,-1.468,-7.274,-6.357,-11.529,-5.401,-5.671,-9.015,-0.008,0.873,-0.432,-0.854,-0.336,0.916,80.000,76214.000,1.000
23.868,-0.784,-7.311,-7.131,-9.792,-4.511,-5.045,-9.793,-0.011,0.872,-0.431,-0.946,-0.275,0.946,80.000,76215.000,1.000
33.490,0.030,-6.475,-7.149,-8.166,-2.886,-3.633,-9.799,-0.011,0.872,-0.429,-0.946,-0.214,0.916,80.000,76216.000,1.000
40.108,0.401,-5.167,-6.245,-6.404,-1.057,-1.842,-8.693,-0.010,0.873,-0.430,-1.099,-0.214,0.977,80.000,76217.000,1.000
42.110,0.058,-3.752,-4.390,-4.298,0.300,-0.040,-6.301,-0.009,0.872,-0.429,-0.946,-0.183,0.946,80.000,76218.000,1.000
40.235,-0.912,-2.525,-1.904,-1.939,0.833,1.383,-3.226,-0.010,0.874,-0.425,-0.946,-0.183,0.885,80.000,76219.000,1.000
37.266,-2.025,-1.616,0.741,0.603,0.991,2.486,-0.305,-0.009,0.874,-0.430,-0.916,-0.092,0.885,80.000,76220.000,1.000
36.046,-2.534,-0.665,3.264,3.517,1.814,4.034,2.256,-0.011,0.872,-0.431,-0.793,-0.092,0.946,80.000,76221.000,1.000
37.702,-1.891,0.605,5.524,6.950,4.024,6.667,4.785,-0.010,0.871,-0.431,-0.916,-0.183,0.946,80.000,76222.000,1.000
41.813,-0.190,2.160,7.257,10.427,6.969,9.860,7.149,-0.009,0.871,-0.431,-0.916,-0.092,0.916,80.000,76223.000,1.000
47.007,1.834,3.388,7.936,12.762,8.659,11.718,8.251,-0.009,0.871,-0.428,-0.885,-0.092,0.824,80.000,76224.000,1.000
50.899,3.429,3.493,7.235,12.997,7.556,10.655,7.277,-0.009,0.872,-0.428,-0.916,-0.092,0.885,80.000,76225.000,1.000
50.692,4.343,2.368,5.461,11.233,4.015,7.039,4.780,-0.010,0.870,-0.427,-0.793,-0.061,0.824,80.000,76226.000,1.000
44.812,4.642,0.242,3.167,8.217,-0.423,2.207,1.649,-0.010,0.870,-0.426,-0.763,-0.122,0.854,80.000,76227.000,1.000
34.268,4.445,-2.365,0.837,4.748,-4.266,-2.715,-1.823,-0.012,0.868,-0.427,-0.824,-0.153,0.885,80.000,76228.000,1.000
22.438,3.940,-4.759,-1.056,1.683,-6.428,-6.645,-5.247,-0.013,0.871,-0.429,-0.793,-0.305,0.977,80.000,76229.000,1.000
13.204,3.398,-6.375,-2.072,-0.172,-6.423,-8.435,-7.589,-0.011,0.870,-0.431,-0.641,-0.305,0.977,80.000,76230.000,1.000
8.827,3.115,-6.799,-1.937,-0.463,-4.558,-7.443,-7.818,-0.011,0.870,-0.431,-0.641,-0.366,0.977,80.000,76231.000,1.000
9.345,3.330,-6.084,-0.693,0.553,-1.574,-4.052,-5.761,-0.009,0.870,-0.430,-0.580,-0.336,0.824,80.000,76232.000,1.000
13.549,4.175,-4.309,1.341,2.245,1.944,0.730,-2.142,-0.010,0.871,-0.429,-0.488,-0.244,0.885,80.000,76233.000,1.000
19.845,5.581,-1.618,3.624,3.860,5.593,5.662,1.783,-0.010,0.872,-0.429,-0.549,-0.336,0.885,80.000,76234.000,1.000
26.618,7.110,1.422,5.460,4.565,8.656,9.310,4.538,-0.011,0.871,-0.433,-0.519,-0.427,0.916,80.000,76235.000,1.000
32.689,7.956,3.974,6.165,3.546,9.856,10.251,4.794,-0.011,0.870,-0.429,-0.519,-0.458,0.916,80.000,76236.000,1.000
37.328,7.412,5.141,5.433,0.571,8.090,7.716,2.090,-0.011,0.873,-0.430,-0.610,-0.458,0.946,80.000,76237.000,1.000
39.442,5.467,4.830,3.801,-3.478,3.573,2.617,-2.463,-0.013,0.871,-0.432,-0.549,-0.519,0.885,80.000,76238.000,1.000
37.009,2.707,3.620,2.290,-7.103,-2.167,-2.942,-6.883,-0.012,0.872,-0.429,-0.488,-0.641,0.885,80.000,76239.000,1.000
28.202,-0.126,2.180,1.672,-9.213,-7.310,-7.197,-9.662,-0.012,0.871,-0.433,-0.519,-0.702,0.885,80.000,76240.000,1.000
13.633,-2.166,1.421,2.334,-9.394,-10.333,-9.053,-9.973,-0.012,0.872,-0.434,-0.549,-0.641,0.854,80.000,76241.000,1.000
-2.960,-2.543,2.051,4.337,-7.646,-10.121,-7.789,-7.315,-0.010,0.872,-0.432,-0.427,-0.763,0.793,80.000,76242.000,1.000
-16.947,-1.016,4.180,7.227,-4.563,-6.569,-3.366,-1.901,-0.009,0.873,-0.434,-0.488,-0.702,0.763,80.000,76243.000,1.000
-25.871,1.457,6.793,9.758,-1.750,-1.334,2.473,4.322,-0.008,0.874,-0.431,-0.519,-0.641,0.702,80.000,76244.000,1.000
-30.043,3.201,8.204,10.375,-1.257,2.718,6.445,8.027,-0.008,0.873,-0.427,-0.427,-0.732,0.732,80.000,76245.000,1.000
-30.810,3.183,7.618,8.490,-3.913,3.565,6.286,7.098,-0.008,0.873,-0.428,-0.488,-0.885,0.732,80.000,76246.000,1.000
-29.283,1.823,5.526,5.093,-8.401,1.460,2.568,2.635,-0.007,0.875,-0.431,-0.397,-0.885,0.763,80.000,76247.000,1.000
-26.408,0.589,3.416,2.104,-12.220,-1.606,-2.008,-2.046,-0.009,0.874,-0.433,-0.427,-0.916,0.702,80.000,76248.000,1.000
-23.344,0.989,2.724,1.101,-13.355,-3.234,-4.601,-3.987,-0.008,0.873,-0.433,-0.488,-0.885,0.702,80.000,76249.000,1.000
-21.306,3.635,3.929,2.416,-11.370,-1.901,-3.795,-2.385,-0.008,0.873,-0.429,-0.427,-0.824,0.671,80.000,76250.000,1.000
-20.811,7.717,6.412,4.933,-7.699,1.928,-0.467,0.961,-0.009,0.869,-0.432,-0.397,-0.793,0.702,80.000,76251.000,1.000
-20.800,11.449,8.606,6.860,-4.651,6.026,2.785,3.141,-0.009,0.869,-0.427,-0.397,-0.793,0.702,80.000,76252.000,1.000
-18.848,13.299,9.350,7.125,-3.705,8.012,3.854,2.700,-0.007,0.871,-0.431,-0.427,-0.793,0.732,80.000,76253.000,1.000
-12.830,12.744,8.464,5.791,-4.925,6.691,2.201,0.209,-0.009,0.871,-0.431,-0.458,-0.793,0.702,80.000,76254.000,1.000
-2.484,10.242,6.426,3.535,-7.468,2.562,-1.454,-2.939,-0.008,0.870,-0.432,-0.366,-0.793,0.641,80.000,76255.000,1.000
10.286,6.856,4.124,1.197,-10.126,-2.368,-5.491,-5.398,-0.006,0.870,-0.432,-0.336,-0.732,0.641,80.000,76256.000,1.000
22.338,3.780,2.228,-0.480,-11.709,-5.546,-8.007,-6.128,-0.007,0.872,-0.430,-0.214,-0.763,0.610,80.000,76257.000,1.000
30.798,1.952,1.276,-0.924,-11.394,-5.175,-7.450,-4.439,-0.007,0.871,-0.432,-0.366,-0.793,0.549,80.000,76258.000,1.000
33.992,1.630,1.412,-0.030,-9.158,-1.308,-3.632,-0.393,-0.007,0.873,-0.432,-0.305,-0.885,0.580,80.000,76259.000,1.000
31.915,2.160,2.032,1.571,-5.993,4.075,1.802,4.778,-0.007,0.873,-0.429,-0.366,-0.793,0.549,80.000,76260.000,1.000
26.467,2.386,2.258,2.802,-3.413,8.446,6.487,9.039,-0.007,0.874,-0.430,-0.366,-0.732,0.488,80.000,76261.000,1.000
20.680,1.477,1.329,2.768,-2.508,10.421,8.794,10.628,-0.009,0.873,-0.429,-0.336,-0.732,0.458,80.000,76262.000,1.000
17.267,-0.534,-0.582,1.450,-3.272,10.210,8.677,9.286,-0.009,0.873,-0.432,-0.427,-0.732,0.366,80.000,76263.000,1.000
17.490,-2.898,-2.510,-0.199,-4.667,8.780,7.333,6.684,-0.010,0.874,-0.432,-0.519,-0.732,0.427,80.000,76264.000,1.000
20.518,-4.651,-3.471,-0.882,-5.311,7.056,6.261,5.328,-0.007,0.873,-0.430,-0.671,-0.793,0.488,80.000,76265.000,1.000
23.453,-5.147,-2.907,0.060,-4.525,5.672,6.161,6.295,-0.009,0.872,-0.429,-0.549,-0.854,0.397,80.000,76266.000,1.000
22.866,-4.476,-1.283,1.981,-2.985,4.751,6.033,7.953,-0.008,0.872,-0.429,-0.519,-0.885,0.275,80.000,76267.000,1.000
17.485,-3.330,0.486,3.568,-2.044,3.974,4.285,7.785,-0.010,0.872,-0.432,-0.488,-0.946,0.305,80.000,76268.000,1.000
9.370,-2.481,1.636,3.909,-2.553,2.926,0.425,4.984,-0.011,0.872,-0.430,-0.580,-0.977,0.244,80.000,76269.000,1.000
2.276,-2.344,1.781,2.887,-4.452,1.249,-4.713,0.808,-0.012,0.871,-0.428,-0.519,-0.946,0.183,80.000,76270.000,1.000
-1.217,-2.794,1.176,1.049,-6.937,-0.953,-9.467,-2.590,-0.010,0.870,-0.432,-0.580,-0.916,0.122,80.000,76271.000,1.000
-1.531,-3.306,0.253,-0.730,-8.808,-2.824,-12.048,-3.337,-0.010,0.870,-0.430,-0.519,-1.068,0.122,80.000,76272.000,1.000
-1.358,-3.361,-0.506,-1.665,-9.145,-3.379,-11.352,-0.752,-0.009,0.871,-0.432,-0.580,-1.099,0.061,80.000,76273.000,1.000
-3.269,-2.815,-0.990,-1.644,-7.978,-2.303,-7.901,3.913,-0.010,0.873,-0.432,-0.549,-1.099,0.092,80.000,76274.000,1.000
-8.216,-1.852,-1.460,-1.209,-6.164,-0.074,-3.749,8.089,-0.011,0.873,-0.431,-0.702,-1.221,0.153,80.000,76275.000,1.000
-15.895,-0.638,-1.777,-0.789,-4.527,2.413,-0.952,9.955,-0.012,0.872,-0.429,-0.671,-1.343,0.183,80.000,76276.000,1.000
-25.507,0.867,-1.549,-0.310,-3.263,4.343,-0.310,9.675,-0.011,0.871,-0.430,-0.702,-1.312,0.214,80.000,76277.000,1.000
-35.574,2.774,-0.439,0.492,-2.130,5.349,-1.185,8.654,-0.010,0.872,-0.430,-0.671,-1.312,0.275,80.000,76278.000,1.000
-43.686,4.978,1.336,1.585,-0.912,5.711,-2.204,8.135,-0.009,0.873,-0.430,-0.702,-1.434,0.366,80.000,76279.000,1.000
-47.538,7.091,3.074,2.607,0.384,6.218,-2.086,8.586,-0.008,0.872,-0.430,-0.854,-1.404,0.336,80.000,76280.000,1.000
-46.846,8.593,4.321,3.174,1.496,7.408,-0.407,9.689,-0.010,0.873,-0.431,-0.824,-1.404,0.366,80.000,76281.000,1.000
-44.119,8.959,4.827,3.015,1.888,8.738,1.742,10.429,-0.008,0.872,-0.428,-0.824,-1.373,0.397,80.000,76282.000,1.000
-43.204,7.862,4.689,2.138,1.047,8.832,2.541,9.760,-0.009,0.872,-0.430,-0.977,-1.434,0.458,80.000,76283.000,1.000
-46.914,5.429,4.160,0.903,-0.965,6.763,0.973,7.551,-0.010,0.872,-0.432,-0.885,-1.434,0.458,80.000,76284.000,1.000
-55.280,2.275,3.413,-0.117,-3.378,2.957,-2.514,4.712,-0.010,0.874,-0.430,-0.916,-1.526,0.458,80.000,76285.000,1.000
-65.209,-0.868,2.620,-0.540,-5.335,-1.297,-6.683,2.220,-0.009,0.874,-0.429,-1.007,-1.587,0.519,80.000,76286.000,1.000
-72.114,-3.545,1.648,-0.448,-6.479,-4.927,-10.541,0.317,-0.009,0.872,-0.428,-1.038,-1.526,0.580,80.000,76287.000,1.000
-72.802,-5.492,0.548,-0.025,-6.790,-7.342,-13.189,-0.987,-0.009,0.872,-0.431,-0.977,-1.556,0.610,80.000,76288.000,1.000
-67.460,-6.536,-0.330,0.751,-6.224,-8.101,-13.574,-1.328,-0.010,0.871,-0.432,-1.038,-1.526,0.580,80.000,76289.000,1.000
-59.277,-6.886,-0.821,1.900,-4.904,-7.104,-11.079,-0.355,-0.009,0.873,-0.431,-1.038,-1.617,0.641,80.000,76290.000,1.000
-52.524,-7.349,-1.213,3.047,-3.483,-5.014,-6.196,1.599,-0.010,0.872,-0.430,-1.068,-1.709,0.580,80.000,76291.000,1.000
-50.704,-8.877,-2.418,3.342,-2.977,-3.030,-0.742,3.308,-0.011,0.871,-0.429,-1.007,-1.587,0.488,80.000,76292.000,1.000
-55.283,-11.750,-4.984,2.084,-4.115,-2.241,2.966,3.368,-0.009,0.871,-0.429,-1.007,-1.587,0.549,80.000,76293.000,1.000
-65.292,-15.261,-8.569,-0.709,-6.837,-3.184,3.339,1.210,-0.009,0.870,-0.426,-0.977,-1.678,0.641,80.000,76294.000,1.000
-77.678,-18.070,-12.228,-4.290,-10.325,-5.620,0.404,-2.477,-0.011,0.869,-0.426,-0.977,-1.678,0.610,80.000,76295.000,1.000
-88.187,-18.936,-14.752,-7.611,-13.513,-8.670,-4.235,-6.224,-0.009,0.866,-0.429,-0.946,-1.709,0.488,80.000,76296.000,1.000
-92.902,-17.425,-15.517,-9.896,-15.674,-11.402,-8.641,-8.736,-0.010,0.866,-0.430,-0.854,-1.678,0.549,80.000,76297.000,1.000
-89.991,-14.062,-14.553,-10.824,-16.634,-13.288,-11.589,-9.501,-0.011,0.866,-0.428,-0.824,-1.617,0.549,80.000,76298.000,1.000
-80.429,-9.868,-12.418,-10.502,-16.543,-14.033,-12.838,-8.876,-0.012,0.864,-0.428,-0.702,-1.709,0.488,80.000,76299.000,1.000
-67.108,-5.716,-9.810,-9.199,-15.509,-13.277,-12.558,-7.474,-0.010,0.866,-0.429,-0.580,-1.801,0.580,80.000,76300.000,1.000
-53.242,-2.049,-6.980,-6.986,-13.453,-10.702,-10.550,-5.273,-0.009,0.867,-0.431,-0.427,-1.770,0.549,80.000,76301.000,1.000
