EEG 1,EEG 2,EEG 3,EEG 4,EEG 5,EEG 6,EEG 7,EEG 8,Accelerometer X,Accelerometer Y,Accelerometer Z,Gyroscope X,Gyroscope Y,Gyroscope Z,Battery Level,Counter,Validation Indicator
-9.924,-11.286,-12.836,-8.036,-7.243,2.561,2.107,-8.593,-0.104,0.983,-0.126,-4.944,-3.113,1.984,73.333,499609.000,1.000
-12.232,-15.184,-16.184,-10.589,-13.288,-14.101,-14.320,-13.990,-0.104,0.978,-0.126,-5.096,-3.174,2.319,73.333,499610.000,1.000
-13.678,-18.363,-17.956,-12.249,-17.346,-26.861,-25.932,-17.562,-0.102,0.973,-0.128,-4.974,-3.204,2.380,73.333,499611.000,1.000
-14.396,-20.280,-18.018,-13.204,-19.213,-31.943,-31.671,-20.903,-0.103,0.971,-0.126,-4.852,-3.143,2.380,73.333,499612.000,1.000
-14.543,-20.974,-16.959,-13.806,-19.911,-31.101,-34.917,-25.140,-0.103,0.969,-0.130,-4.639,-3.021,2.563,73.333,499613.000,1.000
-14.409,-20.939,-15.604,-14.241,-20.391,-28.810,-38.722,-29.229,-0.101,0.968,-0.130,-4.395,-2.991,2.594,73.333,499614.000,1.000
-14.198,-20.621,-14.428,-14.274,-20.538,-28.034,-42.550,-30.291,-0.100,0.966,-0.132,-4.181,-3.021,2.472,73.333,499615.000,1.000
-13.517,-19.717,-12.990,-13.148,-19.128,-28.149,-42.663,-25.583,-0.098,0.966,-0.130,-3.876,-2.930,2.502,73.333,499616.000,1.000
-11.408,-17.160,-10.201,-10.138,-14.994,-26.077,-35.735,-15.271,-0.094,0.966,-0.127,-3.632,-2.869,2.563,73.333,499617.000,1.000
-7.408,-12.369,-5.652,-5.663,-8.679,-19.456,-22.937,-3.715,-0.093,0.964,-0.125,-3.326,-2.747,2.533,73.333,499618.000,1.000
-2.773,-6.698,-0.713,-1.721,-2.823,-9.376,-10.117,3.098,-0.092,0.965,-0.127,-2.991,-2.502,2.350,73.333,499619.000,1.000
-0.021,-2.977,2.082,-0.706,-0.475,-0.191,-3.564,1.828,-0.090,0.966,-0.126,-2.716,-2.350,2.197,73.333,499620.000,1.000
-0.740,-3.018,1.325,-3.398,-2.468,4.512,-4.669,-6.026,-0.091,0.967,-0.123,-2.563,-2.106,2.136,73.333,499621.000,1.000
-4.144,-5.842,-1.865,-8.115,-6.393,5.837,-8.210,-15.180,-0.087,0.969,-0.123,-2.197,-1.984,2.045,73.333,499622.000,1.000
-7.970,-8.834,-4.998,-12.092,-8.822,7.280,-7.577,-20.004,-0.089,0.971,-0.120,-2.045,-1.678,1.770,73.333,499623.000,1.000
-10.262,-10.202,-6.348,-13.560,-8.496,8.936,-2.074,-17.919,-0.090,0.975,-0.119,-1.770,-1.404,1.587,73.333,499624.000,1.000
-10.131,-9.718,-5.804,-12.391,-6.623,7.395,3.044,-10.211,-0.089,0.980,-0.119,-1.709,-1.221,1.190,73.333,499625.000,1.000
-7.715,-7.915,-4.287,-9.561,-4.890,0.953,2.984,-0.656,-0.089,0.979,-0.123,-1.740,-1.038,1.221,73.333,499626.000,1.000
-4.113,-5.635,-3.050,-6.583,-4.287,-8.064,-2.570,6.379,-0.089,0.982,-0.121,-1.831,-0.763,1.129,73.333,499627.000,1.000
-0.837,-3.721,-2.892,-4.699,-4.787,-15.214,-9.943,8.337,-0.091,0.980,-0.123,-1.862,-0.763,1.038,73.333,499628.000,1.000
1.189,-2.295,-3.486,-3.956,-5.097,-16.425,-13.580,6.377,-0.091,0.980,-0.122,-1.740,-0.610,0.916,73.333,499629.000,1.000
1.801,-0.961,-4.070,-3.641,-3.787,-10.563,-9.818,3.888,-0.094,0.980,-0.122,-1.770,-0.488,0.763,73.333,499630.000,1.000
0.767,-0.103,-4.792,-3.757,-1.311,-1.003,-0.233,2.734,-0.094,0.981,-0.119,-1.678,-0.397,0.519,73.333,499631.000,1.000
-2.528,-1.098,-6.752,-5.292,0.076,6.712,9.697,1.965,-0.095,0.983,-0.122,-1.648,-0.305,0.458,73.333,499632.000,1.000
-8.254,-4.895,-10.714,-8.970,-1.616,8.777,14.480,-0.359,-0.095,0.982,-0.117,-1.740,-0.305,0.397,73.333,499633.000,1.000
-15.290,-10.752,-16.125,-14.223,-6.590,4.398,10.895,-5.254,-0.095,0.979,-0.115,-1.831,-0.214,0.336,73.333,499634.000,1.000
-21.519,-16.447,-21.395,-19.377,-13.193,-4.702,-0.805,-12.124,-0.097,0.976,-0.115,-1.862,-0.153,0.153,73.333,499635.000,1.000
-25.284,-19.990,-25.022,-22.918,-19.269,-15.553,-17.200,-19.438,-0.097,0.974,-0.115,-1.648,-0.214,0.153,73.333,499636.000,1.000
-26.514,-21.116,-26.619,-24.612,-23.668,-25.471,-33.805,-25.811,-0.100,0.974,-0.118,-1.617,-0.244,-0.031,73.333,499637.000,1.000
-26.128,-20.692,-26.554,-24.974,-25.838,-31.751,-45.621,-29.769,-0.103,0.972,-0.117,-1.404,-0.244,0.031,73.333,499638.000,1.000
-24.697,-19.172,-24.952,-24.097,-24.888,-31.442,-47.650,-29.594,-0.104,0.972,-0.118,-1.221,-0.427,-0.092,73.333,499639.000,1.000
-22.242,-16.533,-21.909,-21.804,-20.636,-24.273,-39.019,-25.083,-0.104,0.974,-0.119,-1.099,-0.549,-0.092,73.333,499640.000,1.000
-19.069,-13.270,-18.171,-18.502,-14.708,-14.312,-24.758,-18.333,-0.104,0.978,-0.119,-0.916,-0.793,-0.092,73.333,499641.000,1.000
-16.067,-10.342,-14.816,-15.034,-9.043,-5.872,-10.309,-11.433,-0.105,0.981,-0.117,-0.916,-0.854,-0.122,73.333,499642.000,1.000
-14.038,-8.304,-12.433,-11.932,-4.266,0.100,2.589,-4.686,-0.105,0.984,-0.116,-0.854,-0.916,-0.122,73.333,499643.000,1.000
-13.210,-7.404,-11.246,-9.543,-0.800,3.343,12.160,1.746,-0.106,0.984,-0.116,-0.824,-1.099,-0.092,73.333,499644.000,1.000
-13.366,-7.992,-11.587,-8.464,-0.067,1.788,13.718,5.966,-0.105,0.984,-0.114,-0.854,-1.190,-0.122,73.333,499645.000,1.000
-14.005,-10.037,-13.440,-9.144,-3.205,-5.765,3.926,5.462,-0.104,0.984,-0.115,-0.946,-1.312,-0.061,73.333,499646.000,1.000
-14.637,-12.847,-16.183,-11.381,-9.515,-17.101,-14.507,-0.447,-0.105,0.984,-0.112,-0.885,-1.556,-0.031,73.333,499647.000,1.000
-15.109,-15.422,-18.934,-14.323,-16.429,-27.245,-33.077,-9.391,-0.103,0.984,-0.117,-1.007,-1.617,0.031,73.333,499648.000,1.000
-15.460,-16.677,-20.730,-16.720,-20.604,-30.620,-41.735,-16.952,-0.103,0.985,-0.119,-0.946,-1.740,0.153,73.333,499649.000,1.000
-15.534,-15.746,-20.796,-17.446,-19.788,-24.265,-35.091,-19.496,-0.100,0.985,-0.121,-0.977,-1.892,0.244,73.333,499650.000,1.000
-14.929,-12.554,-18.959,-16.127,-14.433,-10.730,-16.776,-16.513,-0.100,0.985,-0.119,-1.038,-1.984,0.427,73.333,499651.000,1.000
-13.332,-8.109,-15.827,-13.352,-7.427,2.739,2.463,-10.424,-0.098,0.985,-0.113,-1.099,-1.953,0.519,73.333,499652.000,1.000
-10.720,-3.763,-12.184,-10.047,-1.664,9.762,13.079,-4.209,-0.093,0.985,-0.114,-1.007,-1.923,0.610,73.333,499653.000,1.000
-7.171,-0.013,-8.057,-6.554,2.328,10.215,14.067,0.914,-0.096,0.983,-0.115,-1.160,-1.923,0.824,73.333,499654.000,1.000
-2.955,3.455,-3.096,-2.755,5.850,8.817,11.264,5.415,-0.099,0.982,-0.113,-1.282,-1.801,0.854,73.333,499655.000,1.000
1.056,6.541,2.231,0.920,9.409,8.750,9.487,9.399,-0.099,0.982,-0.114,-1.282,-1.770,0.977,73.333,499656.000,1.000
3.822,8.627,6.652,3.429,11.923,9.260,8.812,11.610,-0.099,0.980,-0.116,-1.312,-1.740,1.007,73.333,499657.000,1.000
5.167,9.786,9.422,4.287,12.632,9.439,7.945,10.970,-0.100,0.980,-0.117,-1.343,-1.862,1.129,73.333,499658.000,1.000
5.684,10.734,10.734,4.011,12.063,10.145,6.974,8.075,-0.099,0.981,-0.118,-1.343,-1.678,1.129,73.333,499659.000,1.000
5.680,11.339,10.678,3.213,10.686,10.819,5.343,4.481,-0.097,0.981,-0.117,-1.221,-1.770,1.129,73.333,499660.000,1.000
4.990,10.560,9.049,2.094,8.382,8.806,1.425,1.566,-0.096,0.980,-0.119,-1.221,-1.801,1.343,73.333,499661.000,1.000
3.709,8.038,6.188,0.875,5.567,3.421,-4.311,0.169,-0.094,0.981,-0.118,-1.129,-1.709,1.434,73.333,499662.000,1.000
2.545,4.854,3.163,0.023,3.497,-2.265,-8.641,0.300,-0.093,0.980,-0.121,-1.129,-1.556,1.373,73.333,499663.000,1.000
2.276,2.565,1.011,-0.097,3.202,-4.165,-8.694,1.017,-0.089,0.982,-0.120,-1.007,-1.556,1.495,73.333,499664.000,1.000
2.883,1.656,-0.158,0.297,4.374,-0.996,-4.846,1.005,-0.089,0.983,-0.120,-0.946,-1.373,1.404,73.333,499665.000,1.000
3.450,1.174,-1.065,0.532,5.453,4.311,-0.496,-0.372,-0.091,0.982,-0.122,-0.977,-1.221,1.556,73.333,499666.000,1.000
3.221,0.116,-2.205,0.274,5.109,7.292,1.035,-2.413,-0.091,0.982,-0.117,-1.007,-1.099,1.434,73.333,499667.000,1.000
2.467,-1.288,-3.221,-0.049,3.490,5.698,-0.788,-3.502,-0.093,0.982,-0.116,-0.916,-0.977,1.312,73.333,499668.000,1.000
2.108,-1.866,-3.357,0.296,2.004,0.838,-3.577,-2.127,-0.096,0.983,-0.119,-0.916,-0.977,1.129,73.333,499669.000,1.000
2.896,-0.457,-2.120,1.802,2.374,-3.107,-3.650,2.256,-0.095,0.983,-0.118,-0.916,-0.916,1.007,73.333,499670.000,1.000
5.014,3.292,0.565,4.500,5.506,-1.846,1.244,8.635,-0.096,0.983,-0.114,-0.977,-0.824,0.885,73.333,499671.000,1.000
7.802,8.188,3.968,7.587,10.277,4.790,9.228,14.262,-0.096,0.985,-0.116,-0.946,-0.824,0.793,73.333,499672.000,1.000
9.753,11.721,6.398,9.422,13.754,11.949,14.878,15.870,-0.094,0.986,-0.117,-1.038,-0.854,0.732,73.333,499673.000,1.000
9.493,11.970,6.350,8.654,13.557,14.548,14.086,12.065,-0.094,0.986,-0.119,-1.068,-0.854,0.580,73.333,499674.000,1.000
7.012,9.415,3.997,5.496,10.164,12.593,8.653,4.707,-0.094,0.986,-0.117,-1.068,-0.763,0.397,73.333,499675.000,1.000
3.796,6.557,1.373,1.731,6.539,10.527,4.825,-2.143,-0.093,0.988,-0.115,-1.099,-0.763,0.336,73.333,499676.000,1.000
1.653,5.618,0.655,-0.626,5.272,11.352,6.375,-5.019,-0.094,0.987,-0.117,-1.129,-0.854,0.244,73.333,499677.000,1.000
1.361,6.729,2.256,-0.789,6.437,13.365,10.790,-3.326,-0.092,0.988,-0.116,-1.190,-0.702,0.183,73.333,499678.000,1.000
2.426,8.545,4.946,0.692,8.617,13.789,13.928,1.158,-0.092,0.989,-0.116,-1.190,-0.580,0.061,73.333,499679.000,1.000
3.986,10.223,7.491,3.037,11.331,13.704,16.116,6.761,-0.093,0.988,-0.115,-1.282,-0.549,0.122,73.333,499680.000,1.000
5.480,11.966,9.538,5.793,15.121,16.684,20.480,12.890,-0.092,0.990,-0.116,-1.312,-0.488,0.183,73.333,499681.000,1.000
6.459,13.694,10.878,8.275,19.348,22.829,26.539,18.518,-0.095,0.990,-0.116,-1.373,-0.427,0.397,73.333,499682.000,1.000
6.558,14.484,11.048,9.534,21.728,27.294,29.518,21.568,-0.094,0.990,-0.114,-1.617,-0.458,0.519,73.333,499683.000,1.000
5.978,13.703,10.092,9.275,20.667,25.580,25.970,20.724,-0.098,0.986,-0.116,-1.617,-0.427,0.610,73.333,499684.000,1.000
5.433,11.792,8.809,8.165,16.929,18.072,17.413,16.813,-0.099,0.984,-0.117,-1.678,-0.488,0.671,73.333,499685.000,1.000
5.565,9.967,8.258,7.276,13.073,9.520,9.300,12.345,-0.100,0.985,-0.119,-1.556,-0.549,0.641,73.333,499686.000,1.000
6.578,9.527,9.146,7.441,11.728,5.527,7.281,9.968,-0.100,0.986,-0.115,-1.526,-0.641,0.763,73.333,499687.000,1.000
7.896,10.700,10.996,8.479,13.427,8.138,12.282,10.449,-0.103,0.985,-0.114,-1.678,-0.763,0.793,73.333,499688.000,1.000
8.212,11.967,12.013,8.964,15.720,13.552,18.661,11.885,-0.101,0.983,-0.113,-1.831,-0.793,0.854,73.333,499689.000,1.000
6.520,11.210,10.422,7.402,15.263,15.234,18.967,11.507,-0.100,0.982,-0.114,-1.862,-0.885,0.977,73.333,499690.000,1.000
3.185,7.742,6.170,3.793,11.067,10.062,11.134,8.462,-0.102,0.981,-0.116,-1.892,-0.946,1.068,73.333,499691.000,1.000
-0.023,3.212,1.235,-0.056,5.572,1.104,0.257,4.741,-0.101,0.980,-0.119,-1.709,-1.129,1.129,73.333,499692.000,1.000
-0.969,0.525,-1.668,-1.751,2.594,-5.440,-6.214,3.437,-0.100,0.979,-0.116,-1.678,-1.160,1.129,73.333,499693.000,1.000
1.384,1.643,-0.849,-0.026,4.324,-5.287,-4.202,6.259,-0.100,0.980,-0.115,-1.678,-1.312,1.190,73.333,499694.000,1.000
6.254,6.284,3.411,4.516,10.076,1.552,5.006,12.520,-0.100,0.982,-0.115,-1.648,-1.434,1.251,73.333,499695.000,1.000
11.637,12.340,9.229,9.928,17.087,11.666,16.549,19.624,-0.100,0.981,-0.115,-1.617,-1.495,1.465,73.333,499696.000,1.000
15.394,17.027,13.939,13.837,21.983,20.382,25.048,24.062,-0.098,0.978,-0.113,-1.678,-1.434,1.556,73.333,499697.000,1.000
16.037,18.067,15.148,14.363,22.234,23.971,27.015,23.024,-0.098,0.977,-0.114,-1.801,-1.404,1.678,73.333,499698.000,1.000
13.320,14.796,12.124,11.068,17.326,21.298,21.952,16.081,-0.097,0.975,-0.116,-1.801,-1.434,1.709,73.333,499699.000,1.000
8.560,8.693,6.433,5.397,9.087,14.164,12.296,5.660,-0.098,0.976,-0.114,-1.770,-1.373,1.770,73.333,499700.000,1.000
4.133,2.748,1.215,0.121,1.092,6.584,2.763,-3.732,-0.096,0.974,-0.117,-1.709,-1.434,1.862,73.333,499701.000,1.000
2.033,-0.262,-0.773,-2.191,-2.996,2.898,-1.623,-7.603,-0.093,0.976,-0.120,-1.709,-1.526,1.831,73.333,499702.000,1.000
2.517,0.371,0.908,-0.922,-1.859,4.702,0.973,-4.591,-0.090,0.977,-0.118,-1.617,-1.526,1.953,73.333,499703.000,1.000
4.263,3.054,4.379,2.295,2.536,9.478,7.611,2.372,-0.087,0.978,-0.119,-1.678,-1.373,1.892,73.333,499704.000,1.000
5.840,5.523,7.258,5.154,6.782,13.008,13.238,8.572,-0.088,0.979,-0.125,-1.648,-1.373,1.984,73.333,499705.000,1.000
6.662,6.433,8.284,6.301,8.574,12.850,14.845,11.045,-0.086,0.979,-0.120,-1.801,-1.190,2.045,73.333,499706.000,1.000
6.824,5.800,7.573,5.778,7.833,9.887,13.406,10.041,-0.088,0.985,-0.119,-1.770,-1.099,2.136,73.333,499707.000,1.000
6.808,4.819,6.298,4.765,6.465,7.731,12.906,8.243,-0.088,0.986,-0.117,-1.984,-0.946,2.106,73.333,499708.000,1.000
7.268,5.072,6.040,4.787,6.808,9.691,16.786,8.528,-0.088,0.992,-0.116,-2.228,-0.793,2.106,73.333,499709.000,1.000
8.369,6.982,7.477,6.371,9.304,14.894,23.888,11.479,-0.088,0.994,-0.119,-2.563,-0.671,2.197,73.333,499710.000,1.000
9.385,9.191,9.678,8.454,11.920,18.545,28.960,15.027,-0.087,0.994,-0.118,-2.838,-0.519,2.136,73.333,499711.000,1.000
9.369,9.968,11.050,9.449,12.398,17.003,28.224,16.798,-0.086,0.995,-0.118,-3.174,-0.458,2.167,73.333,499712.000,1.000
8.126,8.906,10.792,8.741,10.545,11.257,22.999,16.379,-0.084,0.995,-0.118,-3.510,-0.427,2.075,73.333,499713.000,1.000
6.361,6.998,9.341,7.010,7.964,5.291,17.420,14.898,-0.085,0.996,-0.114,-3.815,-0.336,2.136,73.333,499714.000,1.000
4.897,5.399,7.520,5.251,6.070,2.446,14.075,12.921,-0.085,0.994,-0.116,-4.150,-0.153,2.167,73.333,499715.000,1.000
3.873,4.215,5.585,3.727,4.642,2.786,11.827,9.649,-0.086,0.991,-0.112,-4.395,-0.031,2.228,73.333,499716.000,1.000
2.711,2.426,3.183,1.954,2.176,2.931,6.939,4.321,-0.085,0.991,-0.113,-4.608,0.092,2.106,73.333,499717.000,1.000
0.716,-0.960,0.084,-0.535,-2.349,-0.749,-3.000,-2.322,-0.085,0.992,-0.113,-4.791,0.183,2.075,73.333,499718.000,1.000
-2.248,-5.574,-3.239,-3.532,-7.962,-8.013,-15.428,-8.121,-0.087,0.990,-0.114,-4.944,0.275,1.953,73.333,499719.000,1.000
-5.377,-9.432,-5.789,-6.057,-11.901,-14.034,-23.506,-10.722,-0.088,0.989,-0.115,-5.066,0.305,1.862,73.333,499720.000,1.000
-7.394,-10.432,-6.797,-7.102,-11.895,-13.858,-21.959,-9.241,-0.088,0.987,-0.113,-5.219,0.305,1.862,73.333,499721.000,1.000
-7.619,-8.453,-6.424,-6.628,-8.620,-8.036,-12.991,-5.306,-0.087,0.983,-0.109,-5.249,0.427,1.831,73.333,499722.000,1.000
-6.324,-5.434,-5.437,-5.514,-5.198,-2.328,-4.600,-1.894,-0.088,0.978,-0.113,-5.188,0.397,1.801,73.333,499723.000,1.000
-4.323,-3.576,-4.475,-4.714,-4.360,-1.998,-3.097,-1.068,-0.088,0.977,-0.111,-5.035,0.458,1.740,73.333,499724.000,1.000
-2.662,-4.055,-4.152,-4.801,-6.777,-8.136,-9.143,-3.051,-0.086,0.975,-0.113,-4.913,0.519,1.862,73.333,499725.000,1.000
-2.110,-6.575,-4.828,-5.643,-11.045,-17.702,-18.788,-6.444,-0.086,0.973,-0.117,-4.700,0.610,1.801,73.333,499726.000,1.000
-2.488,-9.379,-5.754,-6.186,-14.353,-25.036,-25.703,-8.864,-0.090,0.972,-0.117,-4.364,0.549,1.740,73.333,499727.000,1.000
-2.818,-10.390,-5.337,-5.172,-14.212,-25.241,-24.709,-8.520,-0.090,0.973,-0.117,-4.059,0.610,1.740,73.333,499728.000,1.000
-2.321,-8.872,-2.772,-2.363,-10.428,-17.974,-15.688,-5.668,-0.090,0.973,-0.115,-3.754,0.580,1.648,73.333,499729.000,1.000
-0.957,-5.778,0.997,1.242,-5.083,-7.505,-3.654,-2.149,-0.090,0.974,-0.112,-3.479,0.580,1.678,73.333,499730.000,1.000
1.003,-2.504,4.364,4.459,-0.490,1.132,5.657,0.472,-0.089,0.977,-0.113,-3.357,0.610,1.709,73.333,499731.000,1.000
3.370,0.168,6.521,6.740,2.337,5.440,9.722,1.851,-0.090,0.977,-0.110,-3.174,0.610,1.770,73.333,499732.000,1.000
5.815,1.932,7.577,7.974,3.446,5.643,9.330,2.304,-0.092,0.977,-0.109,-3.021,0.580,1.709,73.333,499733.000,1.000
7.927,2.686,8.066,8.252,3.322,3.472,6.737,2.200,-0.094,0.977,-0.108,-2.960,0.458,1.617,73.333,499734.000,1.000
9.661,2.778,8.586,7.995,2.800,1.279,4.329,1.994,-0.097,0.976,-0.109,-2.869,0.458,1.404,73.333,499735.000,1.000
11.196,2.907,9.419,7.745,2.791,1.027,3.939,2.143,-0.098,0.977,-0.110,-2.777,0.305,1.190,73.333,499736.000,1.000
12.291,3.361,10.133,7.592,3.438,2.816,5.727,2.515,-0.098,0.978,-0.109,-2.686,0.214,1.160,73.333,499737.000,1.000
12.306,3.638,9.872,7.142,3.778,4.334,7.360,2.288,-0.100,0.979,-0.107,-2.686,0.183,0.916,73.333,499738.000,1.000
11.078,3.187,8.431,6.281,2.842,2.807,5.932,1.119,-0.100,0.981,-0.107,-2.625,0.031,0.702,73.333,499739.000,1.000
9.242,2.138,6.585,5.546,0.918,-2.241,1.218,0.017,-0.100,0.980,-0.110,-2.502,-0.244,0.641,73.333,499740.000,1.000
7.567,1.041,5.239,5.479,-0.772,-8.489,-4.010,0.182,-0.098,0.984,-0.108,-2.533,-0.366,0.549,73.333,499741.000,1.000
6.449,0.388,4.611,5.953,-1.343,-12.649,-6.783,1.173,-0.097,0.983,-0.105,-2.563,-0.580,0.397,73.333,499742.000,1.000
5.883,0.394,4.241,6.277,-0.902,-12.822,-6.359,1.095,-0.095,0.983,-0.109,-2.502,-0.641,0.275,73.333,499743.000,1.000
5.438,0.772,3.515,5.735,-0.269,-9.697,-4.244,-1.488,-0.092,0.984,-0.110,-2.533,-0.763,0.214,73.333,499744.000,1.000
4.517,0.877,2.157,4.069,-0.244,-5.633,-2.635,-6.335,-0.095,0.984,-0.108,-2.472,-0.824,0.214,73.333,499745.000,1.000
2.986,0.379,0.532,1.742,-0.944,-2.810,-2.845,-11.654,-0.096,0.984,-0.111,-2.533,-0.946,0.183,73.333,499746.000,1.000
1.420,-0.353,-0.602,-0.214,-1.634,-1.826,-4.347,-14.925,-0.096,0.986,-0.111,-2.350,-0.885,0.092,73.333,499747.000,1.000
0.695,-0.636,-0.659,-0.777,-1.315,-1.686,-5.248,-14.230,-0.095,0.989,-0.111,-2.289,-0.946,0.122,73.333,499748.000,1.000
1.365,-0.192,0.428,0.360,0.196,-1.733,-4.515,-9.536,-0.096,0.990,-0.109,-2.350,-1.099,0.061,73.333,499749.000,1.000
3.334,0.597,2.197,2.549,1.809,-3.002,-3.532,-2.986,-0.094,0.988,-0.111,-2.563,-1.038,0.153,73.333,499750.000,1.000
6.063,1.289,4.059,4.702,2.089,-6.512,-4.680,2.223,-0.094,0.987,-0.111,-2.594,-1.160,0.183,73.333,499751.000,1.000
9.000,2.042,5.713,6.114,0.685,-10.944,-8.351,3.845,-0.094,0.986,-0.113,-2.747,-1.221,0.153,73.333,499752.000,1.000
11.726,3.413,7.111,6.772,-1.360,-13.219,-12.201,1.880,-0.095,0.987,-0.115,-2.563,-1.282,0.153,73.333,499753.000,1.000
13.871,5.594,8.193,7.004,-2.743,-11.304,-13.766,-2.033,-0.094,0.984,-0.116,-2.441,-1.190,0.214,73.333,499754.000,1.000
15.086,7.947,8.766,7.050,-3.027,-6.109,-12.753,-6.004,-0.092,0.981,-0.114,-2.319,-1.282,0.336,73.333,499755.000,1.000
15.108,9.249,8.609,6.933,-2.661,-0.789,-10.406,-8.621,-0.090,0.978,-0.114,-2.167,-1.251,0.366,73.333,499756.000,1.000
14.108,8.801,7.797,6.734,-2.107,1.943,-7.700,-9.117,-0.089,0.974,-0.110,-2.045,-1.312,0.397,73.333,499757.000,1.000
13.025,7.459,6.986,6.879,-1.168,2.147,-4.518,-7.495,-0.090,0.976,-0.107,-1.678,-1.312,0.244,73.333,499758.000,1.000
12.887,6.836,6.930,7.679,0.478,1.951,-0.456,-4.680,-0.094,0.983,-0.105,-1.465,-1.221,0.183,73.333,499759.000,1.000
13.756,7.536,7.629,8.751,2.376,2.742,3.890,-2.176,-0.097,0.988,-0.105,-1.312,-1.282,0.122,73.333,499760.000,1.000
14.851,8.831,8.471,9.401,3.574,3.785,6.879,-1.005,-0.098,0.992,-0.104,-1.373,-1.129,0.092,73.333,499761.000,1.000
15.449,9.697,8.890,9.374,3.606,3.471,7.065,-0.933,-0.099,0.992,-0.101,-1.617,-1.190,0.153,73.333,499762.000,1.000
15.358,9.710,8.689,9.003,2.932,1.295,4.611,-0.737,-0.101,0.991,-0.103,-1.709,-1.251,0.183,73.333,499763.000,1.000
14.774,9.068,8.085,8.808,2.451,-1.830,1.280,0.757,-0.101,0.990,-0.102,-1.953,-1.434,0.244,73.333,499764.000,1.000
13.846,8.103,7.441,8.936,2.574,-4.766,-1.150,3.543,-0.102,0.987,-0.105,-1.923,-1.495,0.244,73.333,499765.000,1.000
12.550,7.161,7.121,9.127,3.093,-6.505,-1.680,6.433,-0.101,0.987,-0.105,-1.862,-1.648,0.275,73.333,499766.000,1.000
10.899,6.625,7.381,9.136,3.767,-6.006,0.082,8.287,-0.101,0.985,-0.107,-1.831,-1.770,0.244,73.333,499767.000,1.000
9.022,6.573,8.037,8.930,4.544,-3.080,3.680,8.943,-0.100,0.985,-0.108,-1.831,-1.862,0.214,73.333,499768.000,1.000
7.184,6.830,8.711,8.762,5.644,1.503,8.351,9.349,-0.099,0.985,-0.105,-1.709,-1.862,0.153,73.333,499769.000,1.000
5.815,7.433,9.394,9.144,7.509,6.823,13.729,10.902,-0.101,0.983,-0.102,-1.709,-1.953,0.214,73.333,499770.000,1.000
5.086,8.211,10.122,10.127,9.725,11.023,18.220,13.694,-0.100,0.981,-0.102,-1.709,-2.106,0.214,73.333,499771.000,1.000
4.556,8.270,10.282,10.788,10.514,11.208,18.293,15.565,-0.098,0.982,-0.104,-1.556,-2.167,0.336,73.333,499772.000,1.000
3.833,6.971,9.220,10.199,8.597,6.717,12.201,14.056,-0.098,0.980,-0.106,-1.526,-2.167,0.427,73.333,499773.000,1.000
3.298,5.017,7.351,8.598,4.888,0.696,2.517,8.966,-0.100,0.981,-0.105,-1.434,-2.258,0.427,73.333,499774.000,1.000
3.580,3.655,5.760,7.001,1.407,-3.356,-6.830,2.359,-0.099,0.982,-0.105,-1.404,-2.289,0.549,73.333,499775.000,1.000
4.609,3.422,5.171,6.163,-0.358,-4.331,-13.117,-2.876,-0.099,0.981,-0.104,-1.251,-2.380,0.549,73.333,499776.000,1.000
5.700,4.153,5.731,6.313,0.325,-2.512,-14.296,-4.253,-0.101,0.983,-0.104,-1.129,-2.441,0.549,73.333,499777.000,1.000
6.176,5.332,7.053,7.178,3.230,1.187,-9.962,-1.085,-0.097,0.984,-0.105,-1.221,-2.441,0.641,73.333,499778.000,1.000
5.585,6.071,8.122,7.906,6.734,4.850,-3.011,4.625,-0.097,0.983,-0.103,-1.251,-2.533,0.732,73.333,499779.000,1.000
3.829,5.494,7.760,7.506,8.685,6.398,2.241,9.530,-0.097,0.987,-0.103,-1.251,-2.502,0.702,73.333,499780.000,1.000
1.500,3.662,5.838,5.851,8.244,5.400,3.901,11.572,-0.095,0.989,-0.101,-1.282,-2.625,0.916,73.333,499781.000,1.000
-0.218,1.877,3.698,3.969,6.581,3.939,3.844,11.010,-0.094,0.989,-0.104,-1.373,-2.686,0.977,73.333,499782.000,1.000
-0.475,1.530,2.836,2.973,5.417,4.799,5.144,8.994,-0.094,0.988,-0.105,-1.373,-2.686,0.977,73.333,499783.000,1.000
0.552,2.676,3.443,2.934,5.125,8.055,8.453,6.040,-0.094,0.986,-0.108,-1.526,-2.625,1.007,73.333,499784.000,1.000
2.036,4.059,4.511,3.080,4.641,10.436,11.269,2.315,-0.094,0.985,-0.105,-1.587,-2.563,0.885,73.333,499785.000,1.000
3.206,4.367,5.032,2.748,2.975,8.708,10.620,-1.369,-0.094,0.987,-0.105,-1.556,-2.594,0.885,73.333,499786.000,1.000
3.736,3.360,4.903,2.042,0.529,3.027,6.212,-3.358,-0.092,0.987,-0.105,-1.648,-2.502,0.854,73.333,499787.000,1.000
3.737,1.884,4.812,1.675,-1.166,-3.371,0.654,-2.108,-0.090,0.984,-0.105,-1.678,-2.502,0.793,73.333,499788.000,1.000
3.371,0.850,5.316,2.042,-1.106,-7.176,-3.267,2.056,-0.091,0.982,-0.109,-1.678,-2.228,0.702,73.333,499789.000,1.000
2.622,0.507,6.152,2.626,0.165,-7.166,-4.665,6.372,-0.092,0.982,-0.106,-1.648,-2.136,0.580,73.333,499790.000,1.000
1.526,0.697,6.624,2.527,1.253,-4.219,-4.107,7.554,-0.096,0.982,-0.104,-1.740,-2.075,0.519,73.333,499791.000,1.000
0.333,1.265,6.277,1.312,1.130,-0.348,-2.514,4.348,-0.101,0.984,-0.104,-1.617,-1.984,0.580,73.333,499792.000,1.000
-0.682,2.046,5.103,-0.702,-0.304,2.324,-0.836,-1.613,-0.104,0.985,-0.103,-1.556,-2.197,0.732,73.333,499793.000,1.000
-1.475,2.676,3.416,-2.843,-2.502,2.239,-0.251,-7.222,-0.103,0.985,-0.103,-1.678,-2.380,0.946,73.333,499794.000,1.000
-2.255,2.637,1.589,-4.608,-4.848,-1.043,-1.971,-10.250,-0.102,0.983,-0.103,-1.862,-2.563,1.129,73.333,499795.000,1.000
-3.173,1.700,0.015,-5.742,-6.694,-5.974,-5.739,-10.337,-0.098,0.980,-0.100,-1.831,-2.716,1.160,73.333,499796.000,1.000
-3.958,0.395,-0.814,-5.991,-7.148,-9.057,-8.824,-8.272,-0.098,0.979,-0.100,-1.709,-2.625,1.099,73.333,499797.000,1.000
-4.051,-0.205,-0.497,-5.162,-5.452,-7.043,-7.848,-5.144,-0.097,0.980,-0.102,-1.740,-2.625,1.068,73.333,499798.000,1.000
-3.308,0.500,0.799,-3.558,-1.916,-0.124,-2.110,-2.081,-0.097,0.980,-0.104,-1.709,-2.533,0.916,73.333,499799.000,1.000
-2.283,1.997,2.223,-1.981,1.952,7.647,5.484,0.023,-0.097,0.980,-0.104,-1.740,-2.533,0.732,73.333,499800.000,1.000
-1.544,3.373,3.032,-1.024,4.726,12.215,11.319,0.977,-0.096,0.982,-0.105,-1.678,-2.502,0.549,73.333,499801.000,1.000
-1.280,4.051,3.038,-0.808,5.894,12.463,13.679,1.106,-0.098,0.983,-0.103,-1.617,-2.441,0.427,73.333,499802.000,1.000
-1.715,3.535,2.138,-1.456,5.330,8.973,12.333,0.549,-0.097,0.986,-0.097,-1.648,-2.411,0.336,73.333,499803.000,1.000
-3.136,1.509,0.286,-3.055,3.167,3.028,8.074,-0.619,-0.098,0.987,-0.102,-1.648,-2.380,0.397,73.333,499804.000,1.000
-5.318,-1.439,-2.014,-5.132,0.311,-2.873,2.909,-1.794,-0.096,0.984,-0.102,-1.740,-2.411,0.397,73.333,499805.000,1.000
-7.508,-4.053,-3.955,-6.902,-2.157,-6.487,-1.311,-2.451,-0.095,0.983,-0.102,-1.862,-2.441,0.458,73.333,499806.000,1.000
-9.041,-5.481,-5.230,-8.043,-3.967,-7.796,-4.169,-3.080,-0.094,0.982,-0.101,-1.892,-2.380,0.458,73.333,499807.000,1.000
-9.683,-5.629,-6.065,-8.718,-5.305,-8.074,-5.691,-4.360,-0.092,0.983,-0.099,-1.862,-2.258,0.458,73.333,499808.000,1.000
-9.440,-4.682,-6.450,-8.925,-5.858,-7.693,-5.127,-5.729,-0.092,0.985,-0.101,-1.862,-2.106,0.397,73.333,499809.000,1.000
-8.392,-2.787,-5.998,-8.359,-4.950,-5.810,-1.688,-5.833,-0.091,0.984,-0.098,-1.801,-1.953,0.305,73.333,499810.000,1.000
-6.997,-0.496,-4.838,-7.124,-2.810,-2.494,3.213,-4.417,-0.092,0.986,-0.098,-1.831,-1.801,0.336,73.333,499811.000,1.000
-6.346,0.775,-4.334,-6.267,-1.259,-0.437,5.120,-3.064,-0.092,0.987,-0.099,-1.862,-1.556,0.366,73.333,499812.000,1.000
-7.521,-0.390,-6.101,-6.998,-2.256,-2.898,0.117,-3.542,-0.093,0.985,-0.100,-1.678,-1.495,0.305,73.333,499813.000,1.000
-10.428,-3.771,-10.072,-9.301,-5.654,-9.648,-10.249,-5.804,-0.094,0.985,-0.102,-1.709,-1.587,0.275,73.333,499814.000,1.000
-13.665,-7.376,-14.294,-11.785,-9.144,-16.254,-19.405,-8.324,-0.094,0.985,-0.102,-1.617,-1.465,0.275,73.333,499815.000,1.000
-15.668,-9.143,-16.663,-12.965,-10.420,-17.851,-21.184,-9.848,-0.097,0.986,-0.096,-1.648,-1.343,0.275,73.333,499816.000,1.000
-15.680,-8.430,-16.483,-12.299,-8.912,-13.133,-14.479,-10.120,-0.094,0.986,-0.097,-1.617,-1.312,0.275,73.333,499817.000,1.000
-13.891,-6.164,-14.580,-10.294,-5.965,-5.283,-4.144,-9.685,-0.095,0.987,-0.097,-1.495,-1.190,0.244,73.333,499818.000,1.000
-11.164,-4.064,-12.434,-8.091,-3.904,0.317,2.167,-9.646,-0.094,0.987,-0.099,-1.495,-1.099,0.305,73.333,499819.000,1.000
-8.480,-3.395,-11.106,-6.666,-4.176,0.374,0.177,-10.714,-0.093,0.986,-0.098,-1.495,-1.038,0.244,73.333,499820.000,1.000
-6.370,-4.044,-10.589,-6.105,-5.975,-3.504,-7.226,-12.112,-0.094,0.986,-0.099,-1.404,-0.916,0.183,73.333,499821.000,1.000
-5.001,-5.081,-10.371,-5.901,-7.347,-7.187,-13.534,-12.327,-0.092,0.985,-0.104,-1.343,-0.824,0.183,73.333,499822.000,1.000
-4.665,-6.001,-10.407,-5.880,-7.461,-8.576,-15.079,-10.983,-0.092,0.985,-0.102,-1.221,-0.702,0.092,73.333,499823.000,1.000
-5.652,-6.856,-10.898,-6.283,-6.896,-8.303,-12.369,-9.013,-0.091,0.988,-0.100,-1.007,-0.549,0.092,73.333,499824.000,1.000
-7.652,-7.458,-11.441,-7.012,-6.097,-7.098,-6.975,-7.187,-0.094,0.987,-0.102,-0.916,-0.458,0.183,73.333,499825.000,1.000
-9.768,-7.241,-11.150,-7.432,-4.744,-4.628,0.052,-5.389,-0.094,0.989,-0.101,-0.885,-0.397,0.183,73.333,499826.000,1.000
-11.188,-6.046,-9.746,-7.068,-2.739,-1.073,6.749,-3.448,-0.095,0.988,-0.099,-0.702,-0.305,0.336,73.333,499827.000,1.000
-11.709,-4.574,-8.058,-6.109,-0.965,1.633,9.848,-1.879,-0.095,0.988,-0.098,-0.824,-0.214,0.366,73.333,499828.000,1.000
-11.729,-3.829,-7.216,-5.111,-0.441,1.525,7.755,-1.223,-0.095,0.988,-0.097,-0.671,-0.183,0.397,73.333,499829.000,1.000
-11.820,-4.210,-7.608,-4.396,-1.086,-0.847,2.898,-1.113,-0.096,0.988,-0.099,-0.641,-0.183,0.366,73.333,499830.000,1.000
-12.217,-5.260,-8.649,-3.918,-1.869,-2.979,-0.345,-0.647,-0.097,0.987,-0.099,-0.549,-0.153,0.458,73.333,499831.000,1.000
-12.694,-6.178,-9.431,-3.567,-1.916,-3.072,0.563,0.573,-0.098,0.988,-0.101,-0.580,-0.183,0.427,73.333,499832.000,1.000
-12.906,-6.394,-9.464,-3.421,-1.127,-1.049,5.052,2.064,-0.101,0.986,-0.101,-0.488,-0.214,0.458,73.333,499833.000,1.000
-12.805,-5.936,-9.004,-3.835,-0.168,2.216,10.669,2.662,-0.101,0.986,-0.102,-0.488,-0.183,0.549,73.333,499834.000,1.000
-12.673,-5.450,-8.840,-5.235,-0.169,5.343,14.440,1.126,-0.102,0.988,-0.098,-0.427,-0.214,0.549,73.333,499835.000,1.000
-12.729,-5.644,-9.474,-7.558,-1.871,6.757,14.193,-2.513,-0.100,0.987,-0.097,-0.366,-0.244,0.549,73.333,499836.000,1.000
-12.918,-6.739,-10.650,-10.032,-4.861,5.631,10.001,-6.271,-0.100,0.985,-0.096,-0.366,-0.305,0.488,73.333,499837.000,1.000
-13.228,-8.650,-11.954,-11.858,-8.088,2.269,3.862,-7.889,-0.096,0.985,-0.099,-0.275,-0.214,0.549,73.333,499838.000,1.000
-13.823,-11.149,-13.328,-12.865,-10.872,-2.233,-2.197,-7.110,-0.098,0.987,-0.099,-0.275,-0.153,0.580,73.333,499839.000,1.000
-14.660,-13.557,-14.738,-13.296,-12.946,-6.216,-6.955,-5.675,-0.100,0.984,-0.103,-0.214,-0.244,0.641,73.333,499840.000,1.000
-15.397,-14.920,-15.833,-13.319,-14.065,-8.086,-9.634,-5.365,-0.102,0.982,-0.103,-0.061,-0.366,0.702,73.333,499841.000,1.000
-15.644,-14.588,-15.994,-12.791,-13.884,-7.088,-9.731,-6.413,-0.099,0.983,-0.102,0.000,-0.366,0.732,73.333,499842.000,1.000
-15.026,-12.449,-14.580,-11.311,-12.152,-3.518,-7.481,-7.737,-0.100,0.983,-0.104,0.092,-0.366,0.763,73.333,499843.000,1.000
-13.529,-9.316,-11.710,-8.975,-9.516,0.698,-5.041,-8.548,-0.100,0.983,-0.104,0.031,-0.305,0.793,73.333,499844.000,1.000
-11.929,-7.072,-8.824,-6.927,-7.822,1.948,-6.110,-9.101,-0.098,0.984,-0.104,0.122,-0.336,0.854,73.333,499845.000,1.000
-11.210,-7.337,-7.526,-6.369,-8.455,-2.294,-12.191,-9.549,-0.098,0.983,-0.104,0.153,-0.336,0.793,73.333,499846.000,1.000
-11.581,-9.871,-7.993,-7.301,-10.718,-10.386,-20.074,-9.251,-0.098,0.981,-0.107,0.366,-0.336,0.854,73.333,499847.000,1.000
-12.357,-12.784,-9.050,-8.709,-12.635,-17.599,-24.506,-7.895,-0.098,0.982,-0.103,0.488,-0.366,0.946,73.333,499848.000,1.000
-12.432,-13.954,-9.237,-9.306,-12.615,-19.897,-22.412,-6.031,-0.097,0.982,-0.102,0.580,-0.397,0.946,73.333,499849.000,1.000
-10.977,-12.213,-7.783,-8.101,-10.111,-16.190,-14.582,-4.070,-0.096,0.981,-0.104,0.580,-0.366,0.977,73.333,499850.000,1.000
-8.194,-8.027,-5.141,-5.150,-5.861,-8.445,-5.054,-2.073,-0.095,0.983,-0.103,0.702,-0.244,1.099,73.333,499851.000,1.000
-5.180,-3.234,-2.601,-1.706,-1.727,-0.576,1.136,-0.599,-0.093,0.984,-0.105,0.702,-0.214,1.099,73.333,499852.000,1.000
-2.871,0.286,-1.086,0.800,0.538,3.872,1.306,-0.528,-0.094,0.983,-0.106,0.763,-0.214,1.190,73.333,499853.000,1.000
-1.470,1.763,-0.478,1.763,0.601,4.021,-2.902,-1.944,-0.092,0.980,-0.108,0.885,-0.031,1.251,73.333,499854.000,1.000
-0.783,1.535,-0.198,1.436,-0.485,1.841,-7.142,-3.857,-0.091,0.982,-0.106,0.885,-0.061,1.251,73.333,499855.000,1.000
-0.649,0.318,-0.004,0.411,-1.503,-0.045,-8.282,-5.128,-0.091,0.983,-0.103,0.946,-0.031,1.251,73.333,499856.000,1.000
-1.005,-1.426,-0.161,-0.832,-2.140,-0.617,-6.842,-5.422,-0.090,0.982,-0.101,1.038,0.122,1.251,73.333,499857.000,1.000
-1.681,-3.443,-0.978,-1.920,-2.746,-0.499,-5.460,-5.001,-0.090,0.983,-0.101,1.099,0.153,1.251,73.333,499858.000,1.000
-2.145,-5.134,-2.113,-2.243,-3.161,-0.220,-5.206,-3.656,-0.092,0.983,-0.101,0.946,0.214,1.251,73.333,499859.000,1.000
-1.563,-5.336,-2.497,-0.911,-2.180,1.032,-3.965,-0.359,-0.090,0.984,-0.103,1.068,0.397,1.099,73.333,499860.000,1.000
0.750,-2.944,-0.959,2.670,1.546,4.839,1.439,5.712,-0.089,0.984,-0.103,1.190,0.519,1.099,73.333,499861.000,1.000
4.768,2.040,2.889,8.002,7.966,11.786,11.439,13.621,-0.090,0.984,-0.105,1.190,0.580,0.977,73.333,499862.000,1.000
9.511,8.046,8.106,13.345,15.025,20.190,22.154,20.361,-0.091,0.984,-0.106,1.190,0.671,0.946,73.333,499863.000,1.000
13.509,12.700,12.797,16.647,19.767,26.509,27.920,22.663,-0.090,0.985,-0.105,1.129,0.702,0.916,73.333,499864.000,1.000
15.614,14.217,15.121,16.778,20.159,27.448,25.371,19.225,-0.091,0.984,-0.110,1.160,0.793,0.763,73.333,499865.000,1.000
15.556,12.343,14.373,14.102,16.260,22.426,15.795,11.410,-0.090,0.983,-0.109,1.221,0.946,0.732,73.333,499866.000,1.000
13.983,8.279,11.419,10.139,10.050,13.923,4.158,2.368,-0.092,0.983,-0.107,1.282,1.099,0.702,73.333,499867.000,1.000
12.037,3.878,8.107,6.675,4.280,5.449,-4.112,-4.343,-0.092,0.984,-0.107,1.099,1.129,0.732,73.333,499868.000,1.000
10.773,0.843,6.202,4.961,1.222,-0.368,-5.981,-6.055,-0.091,0.982,-0.104,1.190,1.221,0.702,73.333,499869.000,1.000
10.637,0.010,6.308,5.118,1.542,-2.723,-2.454,-2.460,-0.091,0.982,-0.104,1.129,1.221,0.610,73.333,499870.000,1.000
11.184,0.808,7.479,5.985,3.704,-3.064,1.640,3.672,-0.090,0.980,-0.108,1.190,1.190,0.610,73.333,499871.000,1.000
11.458,1.828,8.184,6.040,5.254,-3.585,1.566,8.492,-0.089,0.981,-0.108,1.221,1.282,0.641,73.333,499872.000,1.000
10.918,2.432,7.957,4.927,5.346,-4.025,-2.131,10.350,-0.090,0.983,-0.106,1.404,1.221,0.580,73.333,499873.000,1.000
9.923,3.310,7.790,3.690,5.227,-1.491,-4.293,10.091,-0.093,0.982,-0.108,1.343,1.221,0.610,73.333,499874.000,1.000
9.242,5.230,8.692,3.409,6.014,5.446,-1.691,8.509,-0.095,0.982,-0.111,1.465,1.251,0.549,73.333,499875.000,1.000
9.312,7.891,10.491,4.148,7.143,14.043,3.404,5.377,-0.097,0.983,-0.105,1.434,1.221,0.519,73.333,499876.000,1.000
9.882,10.047,12.023,5.126,7.147,19.346,6.246,0.750,-0.097,0.985,-0.102,1.495,1.160,0.397,73.333,499877.000,1.000
10.251,10.489,12.154,5.492,5.291,18.343,4.536,-4.035,-0.096,0.985,-0.106,1.343,1.129,0.336,73.333,499878.000,1.000
10.004,9.129,10.760,5.032,2.439,12.430,0.288,-6.691,-0.095,0.986,-0.105,1.282,1.129,0.244,73.333,499879.000,1.000
9.428,7.050,8.623,4.161,0.189,5.771,-2.984,-5.651,-0.095,0.986,-0.107,1.282,0.977,0.244,73.333,499880.000,1.000
9.048,5.271,6.415,3.190,-0.972,1.025,-4.545,-1.951,-0.096,0.988,-0.106,1.099,1.007,0.153,73.333,499881.000,1.000
8.980,3.929,4.230,2.030,-1.989,-2.326,-6.441,1.445,-0.093,0.990,-0.110,1.038,0.946,0.122,73.333,499882.000,1.000
9.074,2.934,2.228,0.907,-3.313,-5.049,-9.173,2.940,-0.092,0.988,-0.111,1.068,0.854,0.214,73.333,499883.000,1.000
9.273,2.502,1.007,0.587,-3.988,-6.137,-10.156,3.665,-0.090,0.984,-0.112,1.129,0.702,0.244,73.333,499884.000,1.000
9.314,2.395,0.692,1.272,-3.420,-5.219,-7.803,4.934,-0.089,0.982,-0.112,1.129,0.641,0.275,73.333,499885.000,1.000
8.535,1.595,0.465,1.967,-2.710,-4.401,-4.529,5.977,-0.088,0.980,-0.114,1.099,0.641,0.366,73.333,499886.000,1.000
6.533,-0.583,-0.514,1.468,-3.436,-6.098,-4.219,4.890,-0.090,0.979,-0.107,1.251,0.702,0.458,73.333,499887.000,1.000
3.670,-3.634,-2.328,-0.541,-6.024,-10.539,-8.405,0.751,-0.091,0.979,-0.105,1.251,0.671,0.458,73.333,499888.000,1.000
0.629,-6.416,-4.531,-3.488,-9.627,-15.970,-15.425,-5.472,-0.090,0.979,-0.108,1.312,0.793,0.458,73.333,499889.000,1.000
-1.979,-7.876,-6.435,-6.262,-12.603,-19.765,-21.408,-11.217,-0.090,0.979,-0.109,1.404,0.824,0.458,73.333,499890.000,1.000
-3.391,-7.156,-7.002,-7.365,-12.883,-19.130,-21.754,-13.278,-0.093,0.981,-0.110,1.526,0.885,0.458,73.333,499891.000,1.000
-2.889,-3.923,-5.313,-5.619,-9.111,-12.596,-14.066,-9.620,-0.094,0.983,-0.111,1.526,0.885,0.427,73.333,499892.000,1.000
-0.641,0.973,-1.695,-1.369,-2.202,-1.834,-0.958,-1.415,-0.095,0.986,-0.110,1.617,0.824,0.488,73.333,499893.000,1.000
2.039,5.507,2.042,3.259,4.505,8.526,10.675,6.808,-0.094,0.987,-0.108,1.465,0.763,0.549,73.333,499894.000,1.000
3.560,7.546,3.808,5.733,7.306,13.533,14.276,9.959,-0.092,0.990,-0.109,1.404,0.641,0.641,73.333,499895.000,1.000
3.101,6.244,2.762,4.859,4.783,11.222,8.586,6.113,-0.094,0.989,-0.108,1.190,0.671,0.641,73.333,499896.000,1.000
0.960,2.603,-0.270,1.344,-1.351,3.974,-1.707,-2.395,-0.090,0.986,-0.110,1.099,0.549,0.671,73.333,499897.000,1.000
-1.745,-1.268,-3.613,-2.885,-7.655,-3.222,-9.844,-11.011,-0.089,0.985,-0.108,1.129,0.610,0.671,73.333,499898.000,1.000
-3.706,-3.557,-5.776,-5.776,-11.118,-6.305,-11.473,-15.689,-0.091,0.985,-0.109,1.160,0.610,0.610,73.333,499899.000,1.000
-4.156,-3.788,-6.209,-6.123,-10.711,-4.835,-6.853,-14.692,-0.093,0.985,-0.110,1.068,0.580,0.519,73.333,499900.000,1.000
-3.247,-2.704,-5.331,-4.046,-7.459,-1.358,0.592,-8.977,-0.094,0.985,-0.108,0.916,0.549,0.519,73.333,499901.000,1.000
-1.769,-1.260,-3.890,-0.655,-3.173,1.705,7.626,-1.144,-0.096,0.985,-0.112,0.885,0.519,0.427,73.333,499902.000,1.000
-0.512,0.066,-2.415,2.751,0.806,3.893,12.898,6.208,-0.098,0.987,-0.110,0.885,0.519,0.397,73.333,499903.000,1.000
0.154,1.168,-1.128,5.334,3.978,6.013,16.720,11.745,-0.099,0.988,-0.111,0.824,0.488,0.366,73.333,499904.000,1.000
0.193,1.883,-0.258,6.649,6.113,8.466,19.556,15.028,-0.100,0.988,-0.113,0.702,0.336,0.214,73.333,499905.000,1.000
-0.405,1.696,-0.272,6.169,6.368,10.146,20.192,14.943,-0.100,0.987,-0.112,0.641,-0.031,0.183,73.333,499906.000,1.000
-1.662,-0.116,-1.675,3.401,3.504,8.738,16.140,9.931,-0.099,0.986,-0.113,0.580,-0.092,0.000,73.333,499907.000,1.000
-3.370,-3.796,-4.536,-1.329,-2.747,2.284,6.001,0.347,-0.100,0.985,-0.112,0.519,-0.275,-0.214,73.333,499908.000,1.000
-4.955,-8.362,-8.031,-6.494,-10.554,-8.443,-8.264,-10.384,-0.098,0.986,-0.114,0.519,-0.336,-0.275,73.333,499909.000,1.000
-5.799,-11.839,-10.646,-10.036,-16.450,-18.911,-21.033,-17.531,-0.097,0.988,-0.111,0.397,-0.305,-0.275,73.333,499910.000,1.000
-5.786,-12.661,-11.168,-10.653,-17.529,-23.725,-26.301,-18.073,-0.093,0.985,-0.108,0.366,-0.305,-0.275,73.333,499911.000,1.000
-5.369,-10.714,-9.465,-8.432,-13.322,-20.757,-21.816,-12.225,-0.094,0.986,-0.110,0.305,-0.549,-0.183,73.333,499912.000,1.000
-5.102,-6.996,-6.368,-4.423,-5.582,-11.707,-9.751,-2.695,-0.092,0.987,-0.110,0.305,-0.458,-0.214,73.333,499913.000,1.000
-5.313,-2.750,-3.045,0.012,3.043,0.140,5.269,6.849,-0.092,0.985,-0.112,0.275,-0.366,-0.244,73.333,499914.000,1.000
-6.063,0.946,-0.462,3.655,10.074,11.203,17.922,13.322,-0.090,0.983,-0.113,0.214,-0.397,-0.214,73.333,499915.000,1.000
-7.135,3.321,0.982,5.831,13.957,18.120,24.150,15.586,-0.093,0.983,-0.112,0.244,-0.336,-0.214,73.333,499916.000,1.000
-8.171,4.021,1.413,6.424,14.453,19.291,23.193,14.395,-0.094,0.984,-0.113,0.061,-0.214,-0.305,73.333,499917.000,1.000
-9.004,2.991,0.931,5.409,12.041,15.435,16.798,10.752,-0.097,0.983,-0.113,0.305,-0.153,-0.366,73.333,499918.000,1.000
-9.725,0.384,-0.540,2.716,7.206,7.909,6.822,5.101,-0.096,0.983,-0.115,0.275,-0.183,-0.427,73.333,499919.000,1.000
-10.249,-3.022,-2.620,-1.082,1.038,-1.646,-4.392,-1.457,-0.095,0.980,-0.115,0.336,-0.092,-0.397,73.333,499920.000,1.000
-10.050,-5.576,-4.002,-4.387,-4.026,-9.866,-12.602,-6.387,-0.097,0.978,-0.115,0.397,-0.061,-0.336,73.333,499921.000,1.000
-8.564,-5.610,-3.179,-5.456,-5.341,-12.574,-13.541,-7.100,-0.098,0.977,-0.113,0.610,-0.183,-0.336,73.333,499922.000,1.000
-5.691,-2.648,0.260,-3.714,-2.097,-8.005,-6.377,-3.048,-0.096,0.977,-0.113,0.732,-0.183,-0.275,73.333,499923.000,1.000
-1.887,2.198,5.147,-0.257,3.863,1.674,5.235,3.334,-0.093,0.976,-0.114,0.854,-0.275,-0.214,73.333,499924.000,1.000
2.006,6.858,9.368,2.770,9.196,12.043,15.473,7.914,-0.092,0.976,-0.111,1.007,-0.214,-0.122,73.333,499925.000,1.000
5.123,9.557,11.170,3.617,11.290,19.231,20.188,7.920,-0.092,0.977,-0.113,0.977,-0.183,-0.305,73.333,499926.000,1.000
6.947,9.716,10.106,2.032,9.681,21.508,18.798,3.729,-0.093,0.978,-0.112,1.068,-0.061,-0.397,73.333,499927.000,1.000
7.420,7.866,6.915,-0.870,5.716,19.188,13.061,-2.200,-0.094,0.977,-0.111,1.312,0.061,-0.488,73.333,499928.000,1.000
6.827,4.978,2.853,-3.552,1.341,13.656,5.471,-7.221,-0.094,0.979,-0.113,1.282,0.122,-0.519,73.333,499929.000,1.000
5.583,1.866,-1.012,-4.957,-1.901,6.642,-1.251,-9.579,-0.094,0.980,-0.115,1.343,0.275,-0.366,73.333,499930.000,1.000
4.142,-0.958,-4.117,-4.859,-3.307,-0.050,-4.951,-8.745,-0.094,0.979,-0.114,1.282,0.275,-0.397,73.333,499931.000,1.000
3.010,-3.170,-6.241,-3.679,-3.081,-5.124,-5.173,-5.556,-0.091,0.979,-0.112,1.373,0.305,-0.244,73.333,499932.000,1.000
2.536,-4.634,-7.373,-2.164,-1.977,-8.026,-2.734,-1.918,-0.088,0.978,-0.114,1.312,0.488,-0.153,73.333,499933.000,1.000
2.620,-5.391,-7.570,-0.930,-0.521,-8.363,1.793,0.765,-0.089,0.977,-0.115,1.373,0.458,-0.122,73.333,499934.000,1.000
2.813,-5.469,-6.872,-0.047,1.333,-6.104,7.905,3.039,-0.088,0.977,-0.113,1.465,0.763,-0.214,73.333,499935.000,1.000
2.666,-4.798,-5.435,0.719,3.600,-2.401,13.796,6.231,-0.089,0.979,-0.119,1.526,0.977,-0.336,73.333,499936.000,1.000
1.774,-3.598,-3.866,1.139,5.440,0.581,16.210,9.734,-0.091,0.979,-0.117,1.678,1.007,-0.275,73.333,499937.000,1.000
-0.369,-2.715,-3.277,0.346,5.303,0.816,12.201,10.580,-0.092,0.980,-0.118,1.617,1.160,-0.244,73.333,499938.000,1.000
-4.010,-3.058,-4.429,-2.176,2.336,-2.281,1.844,6.408,-0.093,0.979,-0.118,1.648,1.190,-0.183,73.333,499939.000,1.000
-8.557,-4.738,-6.892,-5.631,-2.471,-7.350,-10.708,-1.623,-0.093,0.977,-0.118,1.831,1.282,-0.122,73.333,499940.000,1.000
-12.806,-7.149,-9.439,-8.444,-6.938,-11.995,-19.715,-9.500,-0.089,0.976,-0.120,1.801,1.343,-0.031,73.333,499941.000,1.000
-15.749,-9.665,-11.135,-9.664,-9.505,-14.609,-22.023,-13.803,-0.086,0.973,-0.120,1.923,1.465,-0.061,73.333,499942.000,1.000
-17.062,-11.978,-11.832,-9.600,-10.186,-15.510,-18.942,-14.037,-0.088,0.975,-0.116,2.045,1.709,-0.183,73.333,499943.000,1.000
-17.014,-13.835,-11.749,-9.210,-9.909,-15.966,-14.292,-11.996,-0.089,0.977,-0.115,2.045,2.014,-0.275,73.333,499944.000,1.000
-16.018,-14.583,-10.878,-9.097,-9.201,-15.961,-10.767,-9.778,-0.091,0.981,-0.117,2.106,2.167,-0.305,73.333,499945.000,1.000
-14.223,-13.172,-8.800,-8.973,-7.503,-13.396,-7.793,-8.179,-0.092,0.984,-0.115,2.075,2.350,-0.397,73.333,499946.000,1.000
-11.661,-9.130,-5.202,-8.061,-4.004,-6.646,-3.258,-6.565,-0.090,0.986,-0.114,1.892,2.502,-0.366,73.333,499947.000,1.000
-8.784,-3.685,-0.772,-6.118,0.688,1.934,2.639,-4.330,-0.088,0.988,-0.116,1.709,2.655,-0.397,73.333,499948.000,1.000
-6.482,0.754,2.902,-3.813,4.581,7.198,7.072,-1.862,-0.088,0.989,-0.115,1.556,2.899,-0.458,73.333,499949.000,1.000
-5.451,2.370,4.463,-2.037,6.155,6.342,7.947,0.082,-0.089,0.991,-0.112,1.373,3.113,-0.610,73.333,499950.000,1.000
-5.750,0.861,3.583,-1.235,5.415,1.092,5.686,1.154,-0.090,0.991,-0.115,1.251,3.235,-0.671,73.333,499951.000,1.000
-6.715,-2.629,1.114,-1.220,3.526,-4.265,2.610,1.602,-0.090,0.990,-0.118,1.190,3.265,-0.854,73.333,499952.000,1.000
-7.122,-5.955,-1.313,-1.362,1.973,-5.740,1.270,1.851,-0.090,0.989,-0.118,0.977,3.357,-0.885,73.333,499953.000,1.000
-6.045,-7.429,-2.488,-1.300,1.211,-2.807,1.647,1.559,-0.091,0.988,-0.114,0.793,3.326,-0.916,73.333,499954.000,1.000
-3.758,-7.219,-2.603,-1.325,0.119,0.416,0.482,-0.226,-0.089,0.986,-0.115,0.427,3.571,-1.129,73.333,499955.000,1.000
-1.449,-6.674,-2.627,-1.732,-2.426,-0.873,-4.806,-3.310,-0.085,0.983,-0.114,0.397,3.845,-1.312,73.333,499956.000,1.000
-0.253,-6.706,-3.167,-2.373,-6.078,-7.363,-12.923,-6.019,-0.081,0.979,-0.119,0.275,4.028,-1.556,73.333,499957.000,1.000
-0.719,-7.438,-4.355,-3.138,-9.679,-15.760,-20.459,-7.151,-0.082,0.976,-0.120,0.458,4.272,-1.740,73.333,499958.000,1.000
-2.729,-8.716,-6.116,-4.306,-12.452,-22.169,-24.916,-7.117,-0.083,0.973,-0.126,0.702,4.608,-1.831,73.333,499959.000,1.000
-5.577,-10.350,-8.200,-6.202,-14.287,-24.492,-25.742,-7.266,-0.084,0.973,-0.127,0.793,4.852,-1.923,73.333,499960.000,1.000
-8.184,-11.959,-10.083,-8.727,-15.461,-22.871,-24.147,-8.972,-0.086,0.972,-0.126,1.007,5.005,-2.045,73.333,499961.000,1.000
-9.560,-12.990,-11.033,-11.202,-16.238,-19.075,-22.213,-12.702,-0.087,0.973,-0.126,1.251,5.280,-2.136,73.333,499962.000,1.000
-9.366,-13.132,-10.577,-12.627,-16.533,-15.477,-21.307,-16.984,-0.085,0.974,-0.122,1.404,5.402,-2.197,73.333,499963.000,1.000
-7.981,-12.517,-8.723,-12.085,-15.734,-13.456,-20.649,-18.598,-0.084,0.975,-0.123,1.526,5.493,-2.380,73.333,499964.000,1.000
-6.022,-11.384,-5.809,-9.228,-13.042,-12.269,-17.832,-14.817,-0.083,0.975,-0.120,1.526,5.798,-2.411,73.333,499965.000,1.000
-4.096,-9.943,-2.507,-4.780,-8.484,-10.349,-11.622,-5.942,-0.085,0.975,-0.119,1.617,6.134,-2.441,73.333,499966.000,1.000
-2.693,-8.452,0.341,-0.339,-3.370,-7.490,-3.756,4.592,-0.089,0.974,-0.122,1.740,6.287,-2.441,73.333,499967.000,1.000
-1.812,-6.998,2.337,2.732,0.689,-4.821,2.662,12.665,-0.094,0.973,-0.127,1.862,6.439,-2.563,73.333,499968.000,1.000
-0.916,-5.425,3.749,4.033,2.756,-3.306,5.392,15.518,-0.096,0.973,-0.127,2.014,6.622,-2.747,73.333,499969.000,1.000
0.322,-3.855,4.774,3.663,2.406,-3.256,3.613,12.000,-0.097,0.975,-0.123,2.045,6.561,-2.930,73.333,499970.000,1.000
1.490,-2.891,5.093,1.750,-0.270,-4.525,-1.535,3.004,-0.100,0.976,-0.120,2.167,6.592,-3.143,73.333,499971.000,1.000
1.934,-2.895,4.543,-1.147,-4.039,-6.264,-6.785,-7.765,-0.101,0.979,-0.116,2.167,6.561,-3.357,73.333,499972.000,1.000
1.568,-3.384,3.686,-3.803,-6.899,-7.076,-9.174,-15.326,-0.102,0.982,-0.117,2.014,6.500,-3.571,73.333,499973.000,1.000
0.925,-3.505,3.387,-5.017,-7.599,-6.261,-8.665,-16.707,-0.103,0.983,-0.117,1.984,6.500,-3.754,73.333,499974.000,1.000
0.564,-2.951,3.906,-4.461,-6.417,-4.537,-7.394,-12.508,-0.101,0.985,-0.119,1.892,6.531,-3.784,73.333,499975.000,1.000
0.652,-2.143,4.657,-2.771,-4.490,-3.026,-6.954,-5.818,-0.102,0.982,-0.122,1.770,6.409,-3.876,73.333,499976.000,1.000
1.062,-1.599,4.928,-0.963,-2.734,-1.947,-6.969,0.011,-0.100,0.982,-0.122,1.709,6.378,-4.059,73.333,499977.000,1.000
1.733,-1.241,4.703,0.358,-1.188,-0.430,-5.612,3.382,-0.100,0.982,-0.122,1.648,6.348,-4.089,73.333,499978.000,1.000
2.767,-0.366,4.744,1.307,0.778,2.599,-1.313,4.990,-0.099,0.983,-0.124,1.678,6.439,-4.181,73.333,499979.000,1.000
4.029,1.454,5.674,2.132,3.324,6.799,5.223,6.192,-0.099,0.983,-0.124,1.740,6.348,-4.333,73.333,499980.000,1.000
4.898,3.524,7.102,2.549,5.269,9.516,10.615,7.040,-0.097,0.987,-0.125,1.617,6.378,-4.364,73.333,499981.000,1.000
4.722,4.468,7.931,2.066,5.022,7.821,11.400,6.569,-0.097,0.984,-0.122,1.587,6.317,-4.456,73.333,499982.000,1.000
3.491,3.602,7.429,0.846,2.491,1.900,7.391,4.784,-0.097,0.984,-0.120,1.556,6.348,-4.395,73.333,499983.000,1.000
1.975,1.549,5.917,-0.086,-0.501,-4.875,1.562,3.532,-0.095,0.981,-0.124,1.495,6.470,-4.364,73.333,499984.000,1.000
1.203,-0.390,4.399,0.345,-1.777,-9.041,-3.037,4.875,-0.098,0.982,-0.123,1.434,6.439,-4.272,73.333,499985.000,1.000
1.638,-1.262,3.613,2.173,-0.612,-9.199,-5.158,8.533,-0.097,0.981,-0.124,1.434,6.470,-4.242,73.333,499986.000,1.000
2.886,-0.992,3.543,4.258,1.879,-6.159,-5.258,11.641,-0.097,0.980,-0.124,1.495,6.348,-4.181,73.333,499987.000,1.000
4.149,-0.165,3.677,5.321,3.889,-2.239,-4.710,11.499,-0.095,0.980,-0.124,1.617,6.287,-4.242,73.333,499988.000,1.000
4.714,0.519,3.565,4.844,4.289,0.071,-4.499,7.863,-0.098,0.981,-0.121,1.617,6.348,-4.242,73.333,499989.000,1.000
4.265,0.743,3.130,3.181,3.176,-0.212,-4.458,2.562,-0.099,0.982,-0.125,1.648,6.409,-4.181,73.333,499990.000,1.000
3.169,0.842,2.702,1.321,1.612,-1.864,-3.826,-1.930,-0.101,0.984,-0.123,1.648,6.378,-4.120,73.333,499991.000,1.000
2.255,1.414,2.715,0.367,0.851,-2.607,-2.059,-3.541,-0.102,0.984,-0.122,1.587,6.287,-4.150,73.333,499992.000,1.000
2.038,2.544,3.145,0.776,1.491,-1.135,1.075,-1.451,-0.102,0.982,-0.126,1.587,6.409,-4.089,73.333,499993.000,1.000
2.373,3.749,3.545,2.160,3.328,2.067,5.836,3.596,-0.104,0.983,-0.125,1.495,6.439,-4.089,73.333,499994.000,1.000
2.922,4.719,3.669,3.840,5.802,5.654,12.084,9.839,-0.105,0.984,-0.125,1.465,6.470,-4.059,73.333,499995.000,1.000
3.608,5.656,3.701,5.299,8.159,8.420,17.976,15.063,-0.105,0.984,-0.125,1.373,6.256,-4.089,73.333,499996.000,1.000
4.472,6.777,3.803,6.095,9.356,9.409,20.185,16.899,-0.106,0.983,-0.124,1.465,6.134,-4.028,73.333,499997.000,1.000
5.364,7.900,3.730,5.794,8.509,8.298,16.657,13.777,-0.109,0.981,-0.125,1.282,6.012,-3.937,73.333,499998.000,1.000
6.019,8.664,3.144,4.300,5.689,5.952,8.769,6.256,-0.107,0.981,-0.126,1.282,5.951,-3.845,73.333,499999.000,1.000
6.351,8.962,2.048,2.151,2.146,3.931,0.433,-2.693,-0.108,0.979,-0.128,1.251,5.859,-3.845,73.333,500000.000,1.000
6.530,9.105,0.883,0.406,-0.242,3.611,-4.252,-8.958,-0.111,0.980,-0.127,1.282,5.737,-3.845,73.333,500001.000,1.000
6.851,9.537,0.304,0.123,-0.028,5.672,-3.097,-9.612,-0.112,0.980,-0.125,1.221,5.646,-3.845,73.333,500002.000,1.000
7.466,10.279,0.626,1.553,2.633,9.377,2.617,-5.046,-0.111,0.981,-0.125,1.190,5.463,-3.693,73.333,500003.000,1.000
8.183,10.723,1.506,3.744,5.855,12.544,8.821,1.118,-0.111,0.981,-0.125,1.038,5.432,-3.662,73.333,500004.000,1.000
8.761,10.388,2.418,5.351,7.670,13.499,12.108,4.931,-0.110,0.982,-0.128,0.977,5.310,-3.540,73.333,500005.000,1.000
9.421,9.745,3.406,5.961,7.799,12.843,12.327,5.338,-0.112,0.982,-0.125,0.946,5.157,-3.357,73.333,500006.000,1.000
10.637,9.740,4.940,6.218,7.356,12.180,11.134,4.387,-0.112,0.980,-0.123,0.916,5.066,-3.296,73.333,500007.000,1.000
12.408,10.607,6.924,6.703,7.071,11.504,8.934,4.351,-0.113,0.981,-0.130,0.885,4.944,-3.265,73.333,500008.000,1.000
14.017,11.673,8.449,7.150,6.615,9.485,5.088,5.320,-0.114,0.979,-0.131,0.885,4.761,-3.113,73.333,500009.000,1.000
14.547,12.120,8.553,6.840,5.536,6.003,0.388,5.791,-0.117,0.978,-0.132,0.885,4.608,-2.991,73.333,500010.000,1.000
13.595,11.585,7.051,5.524,4.116,2.526,-2.667,4.989,-0.118,0.978,-0.129,0.885,4.395,-2.838,73.333,500011.000,1.000
11.549,10.215,4.649,3.794,3.154,0.227,-1.987,3.915,-0.119,0.979,-0.127,0.885,4.059,-2.808,73.333,500012.000,1.000
9.219,8.372,2.272,2.500,3.112,-1.004,2.195,4.025,-0.117,0.978,-0.128,0.946,3.876,-2.655,73.333,500013.000,1.000
7.295,6.471,0.463,1.966,3.694,-1.599,7.518,5.421,-0.115,0.979,-0.128,0.885,3.723,-2.502,73.333,500014.000,1.000
6.099,4.942,-0.678,1.892,4.260,-1.363,11.267,6.762,-0.115,0.980,-0.129,0.824,3.510,-2.380,73.333,500015.000,1.000
5.544,3.864,-1.367,1.806,4.256,-0.247,11.547,6.571,-0.115,0.980,-0.129,0.885,3.448,-2.197,73.333,500016.000,1.000
5.182,2.750,-1.946,1.475,3.461,0.918,8.087,4.502,-0.114,0.981,-0.125,0.824,3.296,-2.106,73.333,500017.000,1.000
4.580,1.259,-2.511,1.114,2.381,1.599,3.204,1.886,-0.114,0.982,-0.126,0.732,3.174,-1.862,73.333,500018.000,1.000
3.775,-0.086,-2.663,1.310,2.085,2.499,0.550,0.987,-0.115,0.984,-0.131,0.671,3.082,-1.678,73.333,500019.000,1.000
3.201,-0.308,-1.964,2.453,3.060,4.319,1.536,2.951,-0.115,0.984,-0.128,0.610,2.960,-1.526,73.333,500020.000,1.000
3.206,1.112,-0.570,4.201,4.592,6.591,4.279,6.519,-0.116,0.983,-0.128,0.580,2.777,-1.190,73.333,500021.000,1.000
3.786,3.915,0.943,5.732,5.689,8.555,6.573,9.211,-0.115,0.984,-0.134,0.519,2.625,-1.038,73.333,500022.000,1.000
4.680,7.322,2.120,6.428,6.056,10.257,7.895,9.292,-0.115,0.984,-0.130,0.397,2.350,-0.854,73.333,500023.000,1.000
5.589,10.304,2.788,6.191,5.828,11.933,8.135,6.406,-0.117,0.984,-0.127,0.275,2.258,-0.702,73.333,500024.000,1.000
6.310,11.839,2.855,5.236,4.905,12.818,6.420,1.214,-0.119,0.982,-0.127,0.244,2.045,-0.549,73.333,500025.000,1.000
6.701,11.390,2.281,3.808,3.045,11.547,2.089,-4.969,-0.119,0.981,-0.126,0.366,1.862,-0.366,73.333,500026.000,1.000
6.800,9.504,1.423,2.314,0.649,8.050,-3.495,-10.183,-0.119,0.982,-0.127,0.214,1.770,-0.336,73.333,500027.000,1.000
6.900,7.648,1.039,1.469,-1.001,4.325,-7.008,-12.157,-0.120,0.982,-0.129,0.153,1.495,0.031,73.333,500028.000,1.000
7.145,7.016,1.600,1.780,-0.804,2.753,-5.815,-9.665,-0.120,0.982,-0.126,-0.031,1.343,0.244,73.333,500029.000,1.000
7.179,7.605,2.749,2.993,1.088,4.008,-0.324,-3.559,-0.118,0.981,-0.129,-0.153,1.160,0.458,73.333,500030.000,1.000
6.527,8.577,3.706,4.428,3.622,6.950,6.725,4.035,-0.119,0.981,-0.127,-0.183,0.916,0.641,73.333,500031.000,1.000
5.240,9.290,4.142,5.724,5.999,10.411,12.934,11.230,-0.120,0.983,-0.126,-0.244,0.702,0.763,73.333,500032.000,1.000
3.910,9.722,4.307,6.893,8.015,14.292,17.599,16.600,-0.122,0.980,-0.127,-0.305,0.458,0.732,73.333,500033.000,1.000
2.960,9.816,4.346,7.685,9.200,18.050,20.373,18.436,-0.121,0.979,-0.126,-0.458,0.214,0.885,73.333,500034.000,1.000
2.232,9.035,3.940,7.443,8.464,19.329,19.899,15.229,-0.121,0.979,-0.129,-0.580,-0.061,0.946,73.333,500035.000,1.000
1.388,6.958,2.813,5.795,5.127,15.527,14.776,7.381,-0.118,0.979,-0.129,-0.580,-0.305,0.977,73.333,500036.000,1.000
0.398,3.899,1.235,3.114,-0.183,6.283,5.181,-2.324,-0.115,0.981,-0.130,-0.580,-0.458,1.007,73.333,500037.000,1.000
-0.366,0.861,-0.095,0.382,-5.592,-5.470,-6.339,-10.046,-0.113,0.980,-0.130,-0.732,-0.610,1.190,73.333,500038.000,1.000
-0.319,-0.884,-0.378,-1.192,-8.668,-14.501,-14.995,-12.642,-0.113,0.978,-0.131,-0.702,-0.763,1.282,73.333,500039.000,1.000
0.861,-0.544,0.796,-0.812,-7.760,-16.340,-16.037,-9.281,-0.111,0.978,-0.129,-0.641,-0.793,1.404,73.333,500040.000,1.000
2.728,1.435,2.970,1.199,-3.356,-10.399,-8.485,-2.266,-0.109,0.978,-0.132,-0.580,-0.854,1.526,73.333,500041.000,1.000
4.124,3.467,4.909,3.415,1.895,-0.563,3.223,4.156,-0.109,0.977,-0.130,-0.488,-0.885,1.587,73.333,500042.000,1.000
3.987,3.880,5.352,4.306,4.871,7.265,11.989,6.687,-0.108,0.977,-0.134,-0.427,-0.916,1.678,73.333,500043.000,1.000
2.241,2.188,4.034,3.414,4.241,9.217,13.457,5.189,-0.108,0.977,-0.131,-0.366,-0.977,1.770,73.333,500044.000,1.000
-0.140,-0.527,1.919,1.552,1.266,6.006,8.951,2.104,-0.107,0.977,-0.132,-0.397,-0.885,1.801,73.333,500045.000,1.000
-2.004,-2.553,0.334,-0.015,-1.506,1.624,3.597,0.159,-0.108,0.978,-0.133,-0.458,-0.946,1.801,73.333,500046.000,1.000
-2.871,-2.860,0.072,-0.440,-2.114,-0.242,2.194,0.860,-0.107,0.981,-0.131,-0.397,-0.854,1.709,73.333,500047.000,1.000
-3.076,-1.673,1.009,0.281,-0.243,1.447,6.120,4.016,-0.104,0.980,-0.129,-0.275,-0.763,1.770,73.333,500048.000,1.000
-3.358,-0.143,2.259,1.288,2.748,5.260,12.803,7.747,-0.103,0.981,-0.130,-0.214,-0.732,1.801,73.333,500049.000,1.000
-4.227,0.592,2.794,1.482,4.895,9.058,18.073,9.552,-0.103,0.980,-0.128,-0.366,-0.702,1.831,73.333,500050.000,1.000
-5.520,0.330,2.257,0.506,5.262,11.832,19.863,8.286,-0.103,0.980,-0.133,-0.458,-0.549,1.678,73.333,500051.000,1.000
-6.581,-0.264,1.139,-0.949,4.502,13.916,19.433,5.140,-0.099,0.980,-0.131,-0.305,-0.580,1.617,73.333,500052.000,1.000
-6.891,-0.560,0.078,-1.881,3.814,15.569,18.845,2.480,-0.100,0.982,-0.132,-0.275,-0.488,1.556,73.333,500053.000,1.000
-6.421,-0.507,-0.672,-1.782,3.660,16.026,18.268,1.748,-0.100,0.980,-0.131,-0.366,-0.366,1.556,73.333,500054.000,1.000
-5.423,-0.370,-1.132,-0.758,3.583,14.172,16.043,2.402,-0.100,0.978,-0.130,-0.427,-0.244,1.465,73.333,500055.000,1.000
-4.118,-0.301,-1.329,0.780,2.992,9.991,10.946,2.783,-0.101,0.978,-0.133,-0.488,-0.214,1.465,73.333,500056.000,1.000
-2.697,-0.262,-1.234,2.360,1.874,5.220,4.168,1.711,-0.103,0.979,-0.135,-0.519,-0.122,1.404,73.333,500057.000,1.000
-1.371,-0.083,-0.845,3.670,0.944,2.506,-0.675,-0.466,-0.103,0.979,-0.132,-0.427,0.000,1.312,73.333,500058.000,1.000
-0.299,0.349,-0.200,4.715,1.143,3.317,-0.173,-1.938,-0.103,0.979,-0.131,-0.305,0.000,1.221,73.333,500059.000,1.000
0.347,0.637,0.370,5.429,2.379,6.058,4.916,-1.293,-0.104,0.979,-0.133,-0.305,0.183,1.129,73.333,500060.000,1.000
0.515,0.099,0.298,5.448,3.231,7.200,9.635,0.644,-0.104,0.979,-0.132,-0.336,0.122,0.946,73.333,500061.000,1.000
0.572,-1.303,-0.490,4.599,2.354,4.632,9.268,1.553,-0.102,0.980,-0.134,-0.488,0.275,1.007,73.333,500062.000,1.000
1.012,-2.837,-1.437,3.192,-0.378,-1.090,2.338,-0.182,-0.104,0.981,-0.134,-0.641,0.336,0.854,73.333,500063.000,1.000
1.922,-3.627,-1.787,1.954,-3.696,-7.478,-8.556,-3.768,-0.103,0.982,-0.137,-0.671,0.305,0.977,73.333,500064.000,1.000
3.010,-3.041,-0.862,1.881,-5.315,-11.005,-17.291,-5.992,-0.102,0.980,-0.135,-0.610,0.275,1.007,73.333,500065.000,1.000
3.861,-1.048,1.445,3.472,-3.629,-9.317,-18.464,-4.082,-0.102,0.980,-0.134,-0.610,0.305,1.099,73.333,500066.000,1.000
4.022,1.469,4.177,5.880,0.389,-3.747,-12.452,0.796,-0.100,0.979,-0.134,-0.519,0.305,1.068,73.333,500067.000,1.000
3.204,3.174,5.707,7.369,3.727,1.312,-5.137,4.130,-0.102,0.975,-0.133,-0.549,0.305,1.099,73.333,500068.000,1.000
1.589,3.256,5.046,6.811,4.050,2.208,-2.243,2.427,-0.105,0.976,-0.135,-0.458,0.244,1.221,73.333,500069.000,1.000
-0.191,1.934,2.622,4.556,1.618,-0.943,-4.554,-3.623,-0.105,0.976,-0.135,-0.458,0.275,1.160,73.333,500070.000,1.000
-1.495,0.084,-0.268,1.948,-1.349,-5.085,-8.465,-9.958,-0.107,0.975,-0.134,-0.458,0.183,1.221,73.333,500071.000,1.000
-2.195,-1.550,-2.548,0.139,-2.805,-7.320,-9.928,-12.545,-0.109,0.978,-0.134,-0.336,0.061,1.068,73.333,500072.000,1.000
-2.678,-2.721,-3.935,-0.662,-2.310,-6.705,-7.595,-10.370,-0.108,0.979,-0.134,-0.458,0.122,1.221,73.333,500073.000,1.000
-3.297,-3.371,-4.559,-0.917,-0.778,-3.836,-3.054,-5.723,-0.108,0.980,-0.135,-0.305,-0.031,1.221,73.333,500074.000,1.000
-3.971,-3.321,-4.482,-1.034,0.645,0.112,0.942,-1.934,-0.107,0.980,-0.135,-0.458,-0.153,1.221,73.333,500075.000,1.000
-4.339,-2.456,-3.658,-0.996,1.429,3.809,2.485,-0.755,-0.107,0.978,-0.137,-0.458,-0.153,1.251,73.333,500076.000,1.000
-4.092,-1.021,-2.076,-0.545,1.783,6.167,1.623,-1.444,-0.108,0.978,-0.135,-0.458,-0.153,1.343,73.333,500077.000,1.000
-3.159,0.540,0.124,0.464,2.327,7.163,0.248,-1.851,-0.107,0.979,-0.132,-0.397,-0.275,1.282,73.333,500078.000,1.000
-1.735,1.946,2.666,1.903,3.674,8.120,1.013,-0.165,-0.107,0.978,-0.134,-0.458,-0.397,1.282,73.333,500079.000,1.000
-0.267,2.882,4.962,3.302,5.745,9.858,4.998,3.776,-0.105,0.976,-0.135,-0.458,-0.488,1.282,73.333,500080.000,1.000
0.628,2.622,5.967,3.878,7.316,10.766,9.869,8.222,-0.107,0.977,-0.134,-0.519,-0.610,1.190,73.333,500081.000,1.000
0.491,0.593,4.868,3.084,6.950,8.436,11.898,10.772,-0.109,0.976,-0.133,-0.580,-0.702,1.312,73.333,500082.000,1.000
-0.626,-2.814,1.853,1.161,4.310,2.540,9.306,9.997,-0.108,0.977,-0.134,-0.549,-0.824,1.404,73.333,500083.000,1.000
-2.355,-6.581,-2.081,-1.192,0.045,-5.311,2.513,5.810,-0.106,0.975,-0.135,-0.519,-0.854,1.221,73.333,500084.000,1.000
-4.418,-9.835,-5.864,-3.451,-4.907,-13.026,-6.901,-0.857,-0.107,0.975,-0.136,-0.519,-0.824,1.160,73.333,500085.000,1.000
-6.549,-11.862,-8.620,-5.187,-9.243,-18.244,-16.015,-8.014,-0.105,0.973,-0.134,-0.458,-0.977,1.190,73.333,500086.000,1.000
-8.229,-11.919,-9.604,-5.837,-11.371,-18.904,-21.207,-13.040,-0.103,0.974,-0.133,-0.488,-0.946,1.160,73.333,500087.000,1.000
-8.917,-9.620,-8.510,-5.035,-10.284,-14.676,-20.146,-13.999,-0.103,0.974,-0.134,-0.336,-1.099,1.038,73.333,500088.000,1.000
-8.450,-5.366,-5.681,-2.936,-6.200,-7.268,-12.896,-10.629,-0.103,0.975,-0.130,-0.183,-1.099,1.068,73.333,500089.000,1.000
-7.137,-0.384,-2.041,-0.177,-0.618,0.387,-2.197,-4.456,-0.104,0.978,-0.130,-0.244,-1.099,0.946,73.333,500090.000,1.000
-5.564,3.633,1.146,2.314,4.186,5.159,7.177,1.962,-0.103,0.978,-0.132,-0.183,-1.160,0.946,73.333,500091.000,1.000
-4.132,5.572,3.025,3.814,6.523,5.538,11.265,6.510,-0.102,0.980,-0.134,-0.214,-1.190,0.977,73.333,500092.000,1.000
-2.749,5.730,3.646,4.227,6.320,2.806,9.505,8.333,-0.103,0.979,-0.135,-0.305,-1.221,0.916,73.333,500093.000,1.000
-1.166,5.306,3.578,3.870,4.627,-0.428,4.273,7.484,-0.101,0.980,-0.135,-0.458,-1.190,0.824,73.333,500094.000,1.000
0.519,5.165,3.223,3.063,2.574,-2.416,-1.208,4.600,-0.104,0.980,-0.135,-0.366,-1.251,0.763,73.333,500095.000,1.000
1.795,5.192,2.625,1.974,0.840,-2.881,-4.653,0.933,-0.103,0.982,-0.135,-0.397,-1.221,0.854,73.333,500096.000,1.000
2.045,4.628,1.730,0.659,-0.422,-2.463,-5.523,-2.028,-0.104,0.983,-0.134,-0.397,-1.190,0.702,73.333,500097.000,1.000
0.953,2.892,0.519,-0.867,-1.356,-1.830,-4.527,-3.303,-0.104,0.981,-0.135,-0.458,-1.160,0.641,73.333,500098.000,1.000
-1.228,0.132,-0.878,-2.458,-2.039,-1.105,-2.612,-2.752,-0.103,0.979,-0.134,-0.488,-1.160,0.580,73.333,500099.000,1.000
-3.675,-2.772,-2.086,-3.769,-2.371,-0.268,-0.778,-0.871,-0.102,0.981,-0.134,-0.641,-1.190,0.641,73.333,500100.000,1.000
-5.395,-4.719,-2.672,-4.475,-2.297,0.331,-0.040,1.399,-0.104,0.979,-0.136,-0.671,-1.190,0.610,73.333,500101.000,1.000
-5.842,-5.037,-2.440,-4.505,-1.913,0.366,-0.569,3.018,-0.104,0.980,-0.133,-0.732,-1.190,0.641,73.333,500102.000,1.000
-5.153,-3.783,-1.562,-3.974,-1.268,0.054,-1.243,3.550,-0.104,0.983,-0.135,-0.977,-1.160,0.610,73.333,500103.000,1.000
-3.808,-1.508,-0.301,-2.997,-0.279,-0.006,-0.579,3.372,-0.104,0.981,-0.134,-1.068,-1.221,0.671,73.333,500104.000,1.000
-2.311,0.981,1.091,-1.814,0.868,0.310,1.419,2.779,-0.105,0.978,-0.132,-1.038,-1.221,0.641,73.333,500105.000,1.000
-1.249,2.688,2.130,-1.092,1.284,-0.164,2.282,1.046,-0.105,0.978,-0.133,-0.977,-1.343,0.732,73.333,500106.000,1.000
-1.074,2.978,2.374,-1.468,0.146,-2.727,-0.576,-2.721,-0.106,0.979,-0.130,-0.946,-1.495,0.641,73.333,500107.000,1.000
-1.577,2.267,2.041,-2.621,-1.977,-6.668,-6.506,-7.707,-0.105,0.978,-0.133,-0.946,-1.526,0.580,73.333,500108.000,1.000
-1.973,1.644,1.880,-3.390,-3.440,-9.626,-12.335,-11.487,-0.104,0.978,-0.134,-1.038,-1.495,0.519,73.333,500109.000,1.000
-1.505,2.099,2.531,-2.748,-2.851,-9.395,-15.107,-11.978,-0.103,0.979,-0.132,-1.099,-1.434,0.488,73.333,500110.000,1.000
0.204,4.302,4.307,-0.309,0.478,-4.504,-12.606,-8.454,-0.102,0.978,-0.134,-1.038,-1.465,0.427,73.333,500111.000,1.000
2.914,8.177,7.090,3.564,6.283,4.985,-3.960,-1.513,-0.104,0.978,-0.134,-0.977,-1.434,0.488,73.333,500112.000,1.000
5.709,12.380,10.002,7.713,12.819,16.088,8.250,6.902,-0.104,0.977,-0.132,-0.977,-1.495,0.458,73.333,500113.000,1.000
7.450,14.882,11.676,10.603,17.293,23.734,18.216,13.915,-0.105,0.977,-0.132,-0.977,-1.495,0.427,73.333,500114.000,1.000
7.396,14.339,11.032,11.063,17.484,24.015,20.658,16.986,-0.105,0.977,-0.133,-1.007,-1.556,0.488,73.333,500115.000,1.000
5.549,10.958,7.835,8.844,13.178,16.872,14.591,15.269,-0.105,0.977,-0.132,-0.885,-1.648,0.519,73.333,500116.000,1.000
2.600,6.182,2.857,4.694,6.236,5.984,3.672,9.986,-0.105,0.976,-0.131,-0.732,-1.678,0.549,73.333,500117.000,1.000
-0.451,1.604,-2.474,-0.073,-0.661,-3.953,-6.770,3.541,-0.105,0.976,-0.133,-0.732,-1.740,0.488,73.333,500118.000,1.000
-2.751,-1.823,-6.638,-4.190,-5.450,-10.114,-12.865,-1.735,-0.104,0.975,-0.131,-0.793,-1.862,0.580,73.333,500119.000,1.000
-3.826,-3.717,-8.592,-6.800,-7.285,-12.119,-13.270,-4.351,-0.106,0.974,-0.130,-0.763,-1.801,0.671,73.333,500120.000,1.000
-3.589,-3.969,-8.136,-7.510,-6.373,-10.741,-8.955,-3.988,-0.108,0.973,-0.134,-0.763,-1.862,0.702,73.333,500121.000,1.000
-2.390,-2.922,-5.993,-6.564,-3.840,-7.249,-2.975,-1.796,-0.107,0.975,-0.134,-0.641,-1.953,0.671,73.333,500122.000,1.000
-0.927,-1.483,-3.556,-4.848,-1.390,-3.483,0.784,0.047,-0.108,0.978,-0.130,-0.610,-1.892,0.671,73.333,500123.000,1.000
0.264,-0.498,-2.002,-3.238,-0.165,-0.960,0.546,0.217,-0.110,0.979,-0.130,-0.580,-1.953,0.549,73.333,500124.000,1.000
1.157,-0.071,-1.494,-1.940,0.208,0.504,-1.602,-0.385,-0.110,0.981,-0.135,-0.580,-2.014,0.488,73.333,500125.000,1.000
2.000,0.342,-1.304,-0.652,1.096,2.560,-1.596,0.295,-0.110,0.980,-0.133,-0.671,-2.106,0.458,73.333,500126.000,1.000
2.817,1.107,-0.685,0.709,3.125,5.768,2.180,2.963,-0.109,0.981,-0.132,-0.793,-2.319,0.458,73.333,500127.000,1.000
3.262,1.820,0.285,1.641,5.200,7.819,6.499,5.909,-0.108,0.979,-0.132,-0.763,-2.289,0.336,73.333,500128.000,1.000
3.109,1.915,1.068,1.672,5.765,5.913,6.623,6.834,-0.107,0.977,-0.134,-0.732,-2.258,0.336,73.333,500129.000,1.000
2.730,1.656,1.618,1.094,4.659,0.251,1.232,5.258,-0.106,0.979,-0.132,-0.763,-2.350,0.366,73.333,500130.000,1.000
2.830,2.054,2.472,0.744,3.133,-6.016,-6.952,2.670,-0.106,0.978,-0.131,-0.793,-2.380,0.275,73.333,500131.000,1.000
3.807,3.904,4.140,1.210,2.598,-9.299,-13.494,0.956,-0.101,0.979,-0.130,-0.732,-2.350,0.336,73.333,500132.000,1.000
5.513,7.145,6.567,2.463,3.832,-7.415,-14.376,1.203,-0.101,0.977,-0.132,-0.793,-2.350,0.366,73.333,500133.000,1.000
7.440,10.890,9.140,4.051,6.841,-0.302,-7.809,3.483,-0.101,0.976,-0.132,-0.854,-2.350,0.366,73.333,500134.000,1.000
8.893,13.696,10.925,5.328,10.664,9.529,4.073,6.903,-0.102,0.977,-0.131,-0.824,-2.258,0.244,73.333,500135.000,1.000
9.188,14.050,10.958,5.569,13.428,17.378,15.664,9.878,-0.102,0.978,-0.133,-0.824,-2.197,0.336,73.333,500136.000,1.000
8.087,11.267,8.824,4.378,13.369,18.800,21.402,11.040,-0.103,0.979,-0.135,-0.824,-2.075,0.397,73.333,500137.000,1.000
6.148,6.166,5.078,2.099,10.083,12.511,19.008,9.983,-0.104,0.978,-0.132,-0.854,-2.075,0.366,73.333,500138.000,1.000
4.468,0.699,1.114,-0.310,4.782,1.077,10.058,7.304,-0.103,0.978,-0.132,-0.916,-2.014,0.458,73.333,500139.000,1.000
3.993,-3.110,-1.467,-1.767,-0.293,-10.483,-0.924,4.424,-0.103,0.979,-0.136,-0.977,-1.923,0.427,73.333,500140.000,1.000
4.940,-4.182,-1.772,-1.655,-3.070,-17.252,-8.747,2.839,-0.103,0.978,-0.135,-1.099,-1.831,0.488,73.333,500141.000,1.000
6.680,-2.995,-0.242,-0.317,-3.148,-17.395,-11.062,2.732,-0.100,0.978,-0.135,-1.099,-1.801,0.549,73.333,500142.000,1.000
8.167,-1.210,1.564,1.093,-2.055,-12.999,-9.642,2.633,-0.101,0.978,-0.137,-1.099,-1.801,0.641,73.333,500143.000,1.000
8.685,-0.309,2.227,1.553,-1.611,-7.541,-7.556,0.967,-0.102,0.977,-0.136,-1.038,-1.770,0.702,73.333,500144.000,1.000
8.239,-0.622,1.456,0.901,-2.397,-3.281,-6.358,-2.433,-0.102,0.979,-0.137,-1.068,-1.648,0.732,73.333,500145.000,1.000
7.271,-1.689,-0.185,-0.401,-3.947,-1.227,-6.327,-6.485,-0.103,0.980,-0.139,-1.099,-1.526,0.671,73.333,500146.000,1.000
6.250,-2.906,-1.812,-1.734,-5.422,-1.465,-7.041,-9.736,-0.102,0.981,-0.138,-1.099,-1.465,0.580,73.333,500147.000,1.000
5.497,-3.671,-2.501,-2.471,-5.797,-2.669,-7.069,-10.782,-0.103,0.981,-0.137,-1.251,-1.404,0.641,73.333,500148.000,1.000
4.905,-3.663,-1.773,-2.330,-4.516,-2.957,-5.161,-8.985,-0.102,0.983,-0.135,-1.251,-1.373,0.610,73.333,500149.000,1.000
3.935,-3.151,-0.126,-1.804,-2.315,-1.772,-1.984,-5.414,-0.103,0.982,-0.134,-1.221,-1.373,0.519,73.333,500150.000,1.000
2.350,-2.568,1.437,-1.621,-0.589,-0.018,0.831,-2.218,-0.104,0.981,-0.136,-1.343,-1.343,0.458,73.333,500151.000,1.000
0.826,-1.795,2.622,-1.677,0.196,1.406,3.037,-0.427,-0.105,0.982,-0.134,-1.343,-1.282,0.336,73.333,500152.000,1.000
0.336,-0.317,3.990,-1.104,0.827,2.346,5.490,0.948,-0.105,0.983,-0.133,-1.373,-1.343,0.305,73.333,500153.000,1.000
0.964,1.843,5.841,0.441,1.915,2.643,7.725,3.021,-0.106,0.985,-0.133,-1.587,-1.373,0.092,73.333,500154.000,1.000
1.753,3.839,7.541,2.196,2.967,1.785,7.727,5.208,-0.105,0.984,-0.132,-1.648,-1.373,-0.031,73.333,500155.000,1.000
1.789,4.977,8.221,3.249,3.386,0.239,4.798,6.140,-0.106,0.985,-0.135,-1.770,-1.434,-0.122,73.333,500156.000,1.000
1.035,5.500,7.738,3.422,3.420,-0.111,0.894,5.282,-0.107,0.984,-0.135,-1.801,-1.465,-0.122,73.333,500157.000,1.000
0.072,6.067,6.520,2.997,3.471,1.772,-1.825,2.952,-0.105,0.984,-0.134,-1.953,-1.465,-0.214,73.333,500158.000,1.000
-0.482,6.945,5.092,2.272,3.358,4.414,-3.145,-0.157,-0.105,0.984,-0.135,-1.801,-1.465,-0.183,73.333,500159.000,1.000
-0.238,7.928,3.942,1.580,2.813,5.397,-3.816,-2.936,-0.106,0.984,-0.133,-1.923,-1.373,-0.122,73.333,500160.000,1.000
0.740,8.588,3.245,1.163,2.010,3.815,-3.890,-4.167,-0.105,0.985,-0.133,-1.862,-1.465,-0.183,73.333,500161.000,1.000
1.840,8.486,2.645,0.857,1.306,0.819,-2.862,-3.356,-0.103,0.983,-0.132,-1.923,-1.343,-0.153,73.333,500162.000,1.000
2.409,7.542,1.628,0.352,0.968,-1.411,-0.482,-1.026,-0.102,0.982,-0.133,-1.984,-1.282,-0.092,73.333,500163.000,1.000
2.307,6.219,0.217,-0.243,1.228,-1.068,3.206,1.914,-0.105,0.981,-0.129,-1.862,-1.221,0.000,73.333,500164.000,1.000
1.756,5.037,-1.078,-0.505,2.038,1.828,7.489,4.756,-0.106,0.978,-0.128,-1.831,-1.282,-0.031,73.333,500165.000,1.000
0.922,4.009,-1.863,-0.270,2.785,4.966,10.386,7.027,-0.108,0.977,-0.129,-1.740,-1.312,0.031,73.333,500166.000,1.000
-0.074,2.859,-1.974,0.244,2.753,5.584,9.895,8.393,-0.110,0.977,-0.125,-1.801,-1.251,0.183,73.333,500167.000,1.000
-0.829,1.631,-1.245,0.871,2.047,3.169,6.428,8.929,-0.111,0.975,-0.126,-1.801,-1.251,0.366,73.333,500168.000,1.000
-0.718,0.777,0.501,1.702,1.652,-0.105,3.113,9.228,-0.111,0.976,-0.128,-1.709,-1.404,0.397,73.333,500169.000,1.000
0.499,0.549,2.987,2.685,2.237,-1.749,2.608,9.518,-0.111,0.976,-0.128,-1.648,-1.434,0.458,73.333,500170.000,1.000
2.197,0.483,5.204,3.301,3.184,-1.335,4.060,8.918,-0.111,0.974,-0.128,-1.495,-1.526,0.427,73.333,500171.000,1.000
3.273,-0.285,6.067,3.041,3.292,-0.305,4.419,6.498,-0.109,0.975,-0.127,-1.434,-1.587,0.488,73.333,500172.000,1.000
3.090,-2.030,5.310,2.100,2.272,0.200,2.336,2.807,-0.109,0.973,-0.131,-1.343,-1.648,0.427,73.333,500173.000,1.000
1.979,-3.832,3.790,1.390,1.229,0.818,-0.074,-0.217,-0.110,0.974,-0.130,-1.282,-1.770,0.488,73.333,500174.000,1.000
0.815,-4.229,2.866,1.827,1.679,3.132,0.740,-0.595,-0.111,0.973,-0.129,-1.190,-1.831,0.488,73.333,500175.000,1.000
0.205,-2.604,3.228,3.486,3.995,7.351,5.854,2.188,-0.110,0.975,-0.127,-1.099,-1.862,0.580,73.333,500176.000,1.000
0.087,0.126,4.296,5.353,6.663,11.143,11.942,6.301,-0.110,0.976,-0.127,-1.251,-2.075,0.580,73.333,500177.000,1.000
0.047,2.243,4.728,6.012,7.325,11.325,13.724,8.273,-0.111,0.975,-0.126,-1.251,-2.045,0.671,73.333,500178.000,1.000
-0.202,2.479,3.631,4.674,4.702,6.723,8.471,5.275,-0.108,0.973,-0.124,-1.190,-2.228,0.763,73.333,500179.000,1.000
-0.516,0.776,1.337,1.778,-0.385,-0.863,-2.053,-2.652,-0.108,0.973,-0.129,-1.312,-2.136,0.793,73.333,500180.000,1.000
-0.249,-1.658,-0.807,-1.117,-5.474,-8.017,-13.014,-12.130,-0.107,0.973,-0.129,-1.282,-2.136,0.824,73.333,500181.000,1.000
1.213,-3.151,-1.490,-2.333,-8.029,-11.628,-19.344,-18.576,-0.106,0.973,-0.131,-1.129,-2.136,0.854,73.333,500182.000,1.000
3.589,-2.889,-0.670,-1.443,-7.247,-10.628,-18.909,-19.465,-0.106,0.974,-0.133,-1.099,-2.228,0.793,73.333,500183.000,1.000
5.740,-1.465,0.402,0.452,-4.548,-6.834,-13.787,-15.653,-0.107,0.974,-0.131,-1.099,-2.258,0.885,73.333,500184.000,1.000
6.683,-0.139,0.383,1.838,-2.142,-3.367,-7.883,-9.919,-0.105,0.973,-0.130,-0.977,-2.014,0.793,73.333,500185.000,1.000
6.372,0.311,-1.072,1.996,-1.113,-1.550,-3.365,-4.701,-0.105,0.976,-0.128,-0.977,-2.075,0.885,73.333,500186.000,1.000
5.574,-0.045,-3.118,1.215,-1.080,-0.364,-0.019,-1.137,-0.105,0.977,-0.129,-1.007,-2.014,0.824,73.333,500187.000,1.000
5.160,-0.875,-4.639,0.145,-1.385,0.898,2.655,0.465,-0.105,0.977,-0.129,-1.068,-2.045,0.854,73.333,500188.000,1.000
5.612,-1.981,-5.066,-0.723,-1.811,1.369,4.377,0.211,-0.104,0.978,-0.131,-1.160,-2.106,0.854,73.333,500189.000,1.000
6.792,-3.290,-4.577,-1.238,-2.503,0.038,4.348,-1.575,-0.103,0.980,-0.133,-1.190,-1.984,0.824,73.333,500190.000,1.000
7.899,-4.914,-3.959,-1.601,-3.744,-3.063,1.848,-4.480,-0.105,0.981,-0.133,-1.282,-2.014,0.763,73.333,500191.000,1.000
8.076,-6.813,-3.802,-1.865,-5.264,-6.505,-2.093,-7.288,-0.105,0.981,-0.131,-1.282,-1.953,0.824,73.333,500192.000,1.000
7.166,-8.389,-3.964,-1.632,-5.982,-7.915,-4.393,-7.976,-0.105,0.982,-0.129,-1.373,-1.892,0.763,73.333,500193.000,1.000
5.544,-9.105,-4.153,-0.741,-5.234,-5.935,-2.756,-5.772,-0.104,0.981,-0.130,-1.587,-1.892,0.671,73.333,500194.000,1.000
3.529,-9.322,-4.571,0.172,-3.750,-1.919,1.903,-2.333,-0.107,0.982,-0.129,-1.678,-1.892,0.610,73.333,500195.000,1.000
1.335,-9.969,-5.538,0.288,-2.886,0.730,6.098,0.060,-0.107,0.981,-0.130,-1.770,-1.984,0.519,73.333,500196.000,1.000
-0.760,-11.580,-6.807,-0.564,-3.437,-0.971,6.193,0.512,-0.106,0.980,-0.127,-1.892,-1.892,0.549,73.333,500197.000,1.000
-2.621,-13.955,-7.876,-2.028,-5.388,-7.311,0.719,-0.739,-0.108,0.980,-0.128,-2.075,-1.923,0.488,73.333,500198.000,1.000
-4.396,-16.395,-8.541,-3.754,-8.136,-15.458,-8.441,-3.246,-0.106,0.980,-0.130,-2.075,-1.831,0.458,73.333,500199.000,1.000
-6.182,-17.941,-8.817,-5.453,-10.609,-21.049,-16.784,-6.412,-0.105,0.981,-0.130,-2.136,-1.801,0.397,73.333,500200.000,1.000
-7.790,-17.690,-8.725,-6.775,-11.600,-20.637,-19.683,-9.384,-0.107,0.982,-0.132,-2.167,-1.831,0.305,73.333,500201.000,1.000
-8.990,-15.310,-8.283,-7.452,-10.568,-13.864,-15.600,-11.394,-0.109,0.982,-0.129,-2.014,-1.953,0.244,73.333,500202.000,1.000
-9.886,-11.527,-7.789,-7.561,-8.323,-4.394,-7.850,-12.185,-0.109,0.980,-0.131,-2.075,-1.953,0.122,73.333,500203.000,1.000
-10.888,-7.925,-7.766,-7.445,-6.516,2.118,-2.088,-11.894,-0.107,0.977,-0.128,-2.106,-1.923,0.031,73.333,500204.000,1.000
-12.209,-5.823,-8.411,-7.249,-6.160,2.259,-1.239,-10.484,-0.106,0.979,-0.127,-2.228,-2.014,0.031,73.333,500205.000,1.000
-13.559,-5.431,-9.391,-6.843,-7.021,-3.116,-3.821,-7.885,-0.103,0.976,-0.128,-2.258,-1.984,0.122,73.333,500206.000,1.000
-14.512,-6.169,-10.265,-6.332,-8.407,-10.521,-6.714,-4.819,-0.099,0.975,-0.128,-2.045,-1.923,0.153,73.333,500207.000,1.000
-14.898,-7.275,-10.884,-6.179,-9.754,-16.152,-7.963,-2.634,-0.102,0.975,-0.127,-1.892,-1.831,0.183,73.333,500208.000,1.000
-14.778,-8.027,-11.241,-6.674,-10.555,-17.580,-7.276,-2.082,-0.105,0.977,-0.130,-1.770,-1.770,0.275,73.333,500209.000,1.000
-14.317,-8.043,-11.304,-7.616,-10.536,-15.053,-5.554,-2.797,-0.108,0.979,-0.129,-1.648,-1.648,0.214,73.333,500210.000,1.000
-13.636,-7.540,-11.144,-8.521,-9.873,-10.951,-3.914,-3.779,-0.108,0.979,-0.133,-1.587,-1.617,0.305,73.333,500211.000,1.000
-12.672,-6.964,-10.822,-8.903,-8.848,-7.251,-2.301,-4.017,-0.108,0.980,-0.132,-1.556,-1.648,0.366,73.333,500212.000,1.000
-11.275,-6.520,-10.350,-8.597,-7.639,-4.216,0.093,-3.171,-0.107,0.979,-0.129,-1.587,-1.770,0.519,73.333,500213.000,1.000
-9.517,-6.269,-9.753,-7.925,-6.643,-1.744,2.808,-1.959,-0.108,0.974,-0.128,-1.556,-1.770,0.641,73.333,500214.000,1.000
-7.744,-6.309,-9.044,-7.390,-6.422,-0.433,4.055,-1.610,-0.110,0.975,-0.128,-1.495,-1.709,0.671,73.333,500215.000,1.000
-6.258,-6.613,-8.172,-7.193,-7.118,-0.591,2.851,-2.856,-0.110,0.972,-0.126,-1.434,-1.648,0.732,73.333,500216.000,1.000
-5.039,-6.944,-7.005,-7.133,-8.314,-1.689,-0.246,-5.369,-0.113,0.973,-0.131,-1.251,-1.770,0.702,73.333,500217.000,1.000
-3.861,-7.122,-5.563,-6.926,-9.456,-3.272,-4.057,-7.852,-0.114,0.975,-0.129,-1.160,-1.923,0.641,73.333,500218.000,1.000
-2.622,-7.149,-4.052,-6.446,-10.055,-5.047,-6.890,-8.648,-0.115,0.979,-0.129,-1.160,-1.984,0.549,73.333,500219.000,1.000
-1.488,-7.022,-2.664,-5.718,-9.762,-6.268,-7.237,-6.936,-0.116,0.981,-0.125,-1.312,-2.136,0.458,73.333,500220.000,1.000
-0.870,-6.721,-1.568,-4.990,-8.760,-6.321,-5.732,-3.675,-0.116,0.980,-0.125,-1.343,-2.319,0.549,73.333,500221.000,1.000
-1.263,-6.453,-0.926,-4.672,-7.746,-5.609,-4.588,-0.853,-0.116,0.982,-0.127,-1.282,-2.350,0.519,73.333,500222.000,1.000
-2.909,-6.634,-0.913,-4.999,-7.207,-5.052,-4.710,0.396,-0.112,0.984,-0.134,-1.434,-2.563,0.519,73.333,500223.000,1.000
-5.552,-7.528,-1.612,-5.826,-7.040,-5.057,-5.062,0.479,-0.111,0.984,-0.128,-1.556,-2.625,0.488,73.333,500224.000,1.000
-8.594,-9.057,-2.972,-6.928,-7.152,-5.672,-4.959,0.034,-0.109,0.983,-0.128,-1.709,-2.686,0.519,73.333,500225.000,1.000
-11.430,-10.844,-4.878,-8.333,-7.951,-7.265,-5.365,-1.317,-0.108,0.984,-0.129,-1.801,-2.655,0.519,73.333,500226.000,1.000
-13.545,-12.205,-6.869,-10.016,-9.650,-9.799,-7.068,-4.151,-0.106,0.985,-0.127,-1.892,-2.686,0.580,73.333,500227.000,1.000
-14.496,-12.303,-8.071,-11.396,-11.491,-11.942,-9.136,-7.731,-0.105,0.984,-0.127,-1.984,-2.655,0.549,73.333,500228.000,1.000
-14.109,-10.769,-7.780,-11.621,-12.393,-12.318,-10.312,-10.227,-0.106,0.982,-0.129,-2.106,-2.686,0.671,73.333,500229.000,1.000
-12.762,-8.166,-6.150,-10.420,-12.094,-10.966,-10.484,-10.376,-0.107,0.985,-0.130,-2.045,-2.655,0.610,73.333,500230.000,1.000
-11.248,-5.522,-4.148,-8.438,-11.112,-8.624,-9.725,-8.590,-0.107,0.984,-0.128,-2.289,-2.563,0.641,73.333,500231.000,1.000
-10.256,-3.499,-2.772,-6.754,-10.095,-5.743,-7.597,-6.691,-0.105,0.983,-0.128,-2.319,-2.502,0.671,73.333,500232.000,1.000
-9.998,-2.293,-2.641,-6.287,-9.730,-3.181,-4.899,-6.800,-0.106,0.982,-0.127,-2.502,-2.441,0.641,73.333,500233.000,1.000
-10.180,-2.006,-3.872,-7.365,-10.674,-2.463,-4.242,-9.975,-0.105,0.980,-0.129,-2.625,-2.350,0.732,73.333,500234.000,1.000
-10.123,-2.516,-5.869,-9.386,-12.763,-4.001,-7.010,-15.219,-0.106,0.982,-0.127,-2.686,-2.350,0.702,73.333,500235.000,1.000
-9.048,-3.229,-7.476,-11.003,-14.614,-6.158,-11.063,-19.673,-0.107,0.981,-0.127,-2.716,-2.350,0.702,73.333,500236.000,1.000
-6.571,-3.571,-7.650,-10.979,-14.736,-7.149,-12.975,-20.478,-0.107,0.981,-0.125,-2.747,-2.411,0.763,73.333,500237.000,1.000
-3.152,-3.733,-6.327,-9.172,-13.085,-7.130,-11.891,-17.218,-0.108,0.979,-0.130,-2.686,-2.472,0.732,73.333,500238.000,1.000
-0.027,-4.488,-4.540,-6.719,-11.154,-7.682,-9.843,-12.390,-0.107,0.979,-0.126,-2.747,-2.350,0.732,73.333,500239.000,1.000
1.634,-6.086,-3.453,-5.095,-10.282,-9.298,-8.358,-9.103,-0.107,0.979,-0.127,-2.716,-2.197,0.641,73.333,500240.000,1.000
1.638,-7.646,-3.392,-4.885,-10.241,-10.260,-6.568,-8.460,-0.110,0.978,-0.129,-2.594,-2.167,0.671,73.333,500241.000,1.000
0.639,-8.036,-3.871,-5.596,-9.999,-9.022,-3.851,-9.360,-0.110,0.978,-0.127,-2.594,-2.258,0.610,73.333,500242.000,1.000
-0.648,-7.055,-4.379,-6.426,-9.297,-6.628,-2.183,-10.284,-0.110,0.979,-0.123,-2.594,-2.197,0.641,73.333,500243.000,1.000
-1.586,-5.102,-4.425,-6.654,-8.431,-5.002,-3.496,-10.383,-0.109,0.980,-0.123,-2.563,-2.228,0.610,73.333,500244.000,1.000
-1.375,-2.211,-3.194,-5.467,-7.049,-4.312,-6.637,-9.087,-0.109,0.979,-0.124,-2.533,-2.228,0.580,73.333,500245.000,1.000
0.357,1.622,-0.230,-2.462,-4.508,-3.810,-8.953,-6.118,-0.111,0.982,-0.126,-2.655,-2.258,0.641,73.333,500246.000,1.000
2.648,5.372,3.577,1.439,-1.234,-3.557,-9.290,-2.415,-0.113,0.982,-0.123,-2.625,-2.289,0.763,73.333,500247.000,1.000
3.648,7.334,6.281,4.319,1.391,-3.752,-8.144,0.075,-0.114,0.980,-0.121,-2.655,-2.441,0.885,73.333,500248.000,1.000
2.172,6.607,6.464,4.821,2.456,-3.810,-6.278,0.200,-0.115,0.978,-0.122,-2.686,-2.563,1.038,73.333,500249.000,1.000
-1.555,3.633,4.089,2.951,1.941,-3.379,-4.791,-1.614,-0.114,0.977,-0.121,-2.808,-2.625,1.129,73.333,500250.000,1.000
-6.326,-0.375,0.089,-0.303,0.248,-2.999,-5.016,-4.268,-0.113,0.977,-0.123,-2.808,-2.594,1.160,73.333,500251.000,1.000
-10.507,-3.844,-3.879,-3.392,-1.560,-2.540,-6.267,-6.527,-0.113,0.978,-0.124,-2.747,-2.716,1.221,73.333,500252.000,1.000
-12.507,-5.184,-5.819,-4.649,-1.670,-0.303,-5.270,-7.029,-0.113,0.976,-0.125,-2.625,-2.747,1.282,73.333,500253.000,1.000
-11.531,-3.797,-4.593,-3.291,0.897,4.435,-0.230,-5.161,-0.114,0.976,-0.121,-2.472,-2.747,1.190,73.333,500254.000,1.000
-8.102,-0.849,-1.011,-0.143,4.735,8.849,5.562,-2.044,-0.115,0.978,-0.119,-2.441,-2.960,1.312,73.333,500255.000,1.000
-3.651,1.525,2.667,2.951,7.063,8.630,6.492,0.188,-0.117,0.978,-0.121,-2.472,-3.204,1.282,73.333,500256.000,1.000
0.378,1.915,4.560,4.501,6.224,2.492,0.556,0.256,-0.118,0.979,-0.123,-2.563,-3.265,1.434,73.333,500257.000,1.000
3.198,0.637,4.365,4.290,3.030,-6.167,-8.513,-1.167,-0.119,0.981,-0.122,-2.502,-3.418,1.587,73.333,500258.000,1.000
4.999,-0.513,3.383,3.452,0.282,-11.279,-13.823,-1.717,-0.118,0.980,-0.122,-2.502,-3.662,1.801,73.333,500259.000,1.000
6.745,0.483,3.584,3.739,1.049,-7.716,-9.799,1.225,-0.117,0.980,-0.121,-2.472,-3.784,1.862,73.333,500260.000,1.000
9.266,4.240,5.971,6.107,6.288,4.752,3.537,8.234,-0.114,0.979,-0.120,-2.502,-3.937,1.831,73.333,500261.000,1.000
12.352,9.147,9.539,9.702,13.563,19.825,19.395,16.423,-0.114,0.979,-0.121,-2.472,-3.998,1.740,73.333,500262.000,1.000
14.872,12.419,11.929,12.477,18.756,28.789,28.687,21.135,-0.115,0.980,-0.123,-2.411,-4.059,1.770,73.333,500263.000,1.000
15.836,12.405,11.588,13.009,19.498,27.517,27.254,19.736,-0.116,0.977,-0.123,-2.350,-4.272,1.831,73.333,500264.000,1.000
15.132,9.671,9.045,11.450,16.478,18.552,17.818,13.311,-0.115,0.977,-0.122,-2.350,-4.517,1.770,73.333,500265.000,1.000
13.253,5.886,5.895,8.860,11.786,7.096,5.406,5.078,-0.114,0.976,-0.124,-2.380,-4.547,1.831,73.333,500266.000,1.000
10.721,2.535,3.422,6.362,7.352,-2.569,-5.865,-1.520,-0.111,0.974,-0.123,-2.106,-4.700,1.801,73.333,500267.000,1.000
7.857,0.663,2.113,4.810,4.704,-7.513,-12.468,-3.926,-0.107,0.974,-0.123,-2.197,-4.669,1.801,73.333,500268.000,1.000
4.615,0.553,1.625,4.387,4.411,-6.753,-12.528,-1.762,-0.108,0.977,-0.125,-2.136,-4.578,1.709,73.333,500269.000,1.000
0.687,1.346,1.065,4.463,5.605,-2.086,-7.591,2.879,-0.110,0.979,-0.124,-1.984,-4.547,1.617,73.333,500270.000,1.000
-3.796,1.854,-0.142,4.355,7.095,3.579,-0.856,7.385,-0.108,0.979,-0.120,-2.014,-4.486,1.526,73.333,500271.000,1.000
-7.815,1.810,-1.509,4.064,8.644,8.568,5.837,10.492,-0.108,0.979,-0.119,-1.953,-4.608,1.526,73.333,500272.000,1.000
-10.032,1.896,-2.000,4.042,10.561,12.272,11.848,11.993,-0.103,0.979,-0.118,-2.045,-4.578,1.556,73.333,500273.000,1.000
-9.832,2.696,-1.072,4.584,12.669,13.824,16.048,11.920,-0.103,0.980,-0.117,-2.106,-4.425,1.495,73.333,500274.000,1.000
-7.840,3.909,0.869,5.615,14.199,12.282,16.944,10.631,-0.102,0.980,-0.118,-2.136,-4.333,1.373,73.333,500275.000,1.000
-5.384,4.732,2.867,6.926,14.621,8.203,14.501,9.096,-0.105,0.979,-0.117,-2.136,-4.120,1.373,73.333,500276.000,1.000
-3.413,4.894,4.399,8.476,14.378,4.518,11.263,8.584,-0.106,0.980,-0.115,-2.136,-4.028,1.312,73.333,500277.000,1.000
-2.055,4.882,5.524,10.213,14.467,4.755,10.688,9.834,-0.110,0.982,-0.115,-2.045,-3.967,1.190,73.333,500278.000,1.000
-1.201,5.004,6.131,11.579,15.107,9.502,13.935,12.416,-0.110,0.981,-0.118,-2.167,-4.059,1.312,73.333,500279.000,1.000
-1.009,4.802,5.617,11.598,15.285,15.452,19.044,14.926,-0.111,0.981,-0.117,-2.014,-4.150,1.190,73.333,500280.000,1.000
-1.531,3.745,3.563,9.756,13.947,18.752,23.363,16.022,-0.111,0.983,-0.115,-2.136,-4.028,1.404,73.333,500281.000,1.000
-2.320,1.907,0.387,6.473,10.910,17.971,25.071,15.056,-0.111,0.985,-0.115,-2.075,-4.028,1.526,73.333,500282.000,1.000
-2.867,-0.361,-3.123,2.530,6.442,13.575,22.474,11.776,-0.111,0.986,-0.115,-2.136,-4.028,1.434,73.333,500283.000,1.000
-3.167,-2.806,-6.457,-1.570,0.943,6.948,14.882,6.200,-0.110,0.985,-0.118,-2.289,-4.089,1.495,73.333,500284.000,1.000
-3.698,-5.152,-9.406,-5.613,-4.730,0.617,4.722,-1.058,-0.109,0.982,-0.118,-2.380,-4.059,1.556,73.333,500285.000,1.000
-4.834,-6.850,-11.695,-9.244,-9.107,-2.163,-2.889,-8.428,-0.107,0.978,-0.117,-2.319,-4.211,1.556,73.333,500286.000,1.000
-6.304,-7.196,-12.656,-11.670,-10.600,0.678,-3.496,-13.428,-0.109,0.977,-0.122,-2.350,-4.150,1.495,73.333,500287.000,1.000
-7.456,-6.151,-11.907,-12.220,-8.855,7.531,2.662,-14.053,-0.109,0.976,-0.123,-2.258,-4.089,1.434,73.333,500288.000,1.000
-7.970,-4.859,-10.092,-11.203,-5.595,12.976,10.124,-10.526,-0.107,0.979,-0.119,-2.258,-3.967,1.312,73.333,500289.000,1.000
-8.049,-4.736,-8.432,-9.760,-3.328,12.046,12.856,-5.248,-0.107,0.978,-0.123,-2.197,-3.906,1.373,73.333,500290.000,1.000
-8.207,-6.280,-7.867,-9.045,-3.443,4.486,8.892,-1.176,-0.105,0.978,-0.119,-2.228,-3.845,1.312,73.333,500291.000,1.000
-9.010,-8.967,-8.630,-9.651,-5.790,-5.866,0.414,-0.315,-0.107,0.979,-0.118,-2.106,-3.815,1.312,73.333,500292.000,1.000
-10.541,-11.528,-10.177,-11.234,-9.016,-14.080,-8.557,-2.719,-0.108,0.979,-0.120,-2.045,-3.754,1.312,73.333,500293.000,1.000
-12.111,-12.304,-11.269,-12.530,-10.956,-16.167,-13.783,-6.299,-0.110,0.982,-0.118,-2.075,-3.601,1.282,73.333,500294.000,1.000
-12.881,-10.263,-10.791,-12.309,-9.848,-10.794,-12.512,-8.261,-0.112,0.982,-0.119,-2.106,-3.571,1.190,73.333,500295.000,1.000
-12.528,-5.805,-8.627,-10.280,-5.607,-0.253,-5.293,-7.045,-0.113,0.984,-0.117,-1.984,-3.601,1.312,73.333,500296.000,1.000
-11.065,-0.228,-5.321,-6.842,0.412,11.036,4.539,-2.743,-0.113,0.985,-0.116,-2.136,-3.632,1.434,73.333,500297.000,1.000
-8.582,5.177,-1.518,-2.565,6.505,19.239,13.291,3.495,-0.112,0.984,-0.118,-2.197,-3.815,1.678,73.333,500298.000,1.000
-5.454,9.336,2.040,1.738,11.156,22.487,18.474,9.761,-0.109,0.983,-0.117,-2.380,-3.876,1.678,73.333,500299.000,1.000
-2.361,11.475,4.557,5.024,13.276,20.790,18.975,13.898,-0.107,0.982,-0.116,-2.380,-3.815,1.740,73.333,500300.000,1.000
0.072,11.488,5.528,6.558,12.627,15.572,15.114,14.747,-0.105,0.981,-0.114,-2.380,-3.723,1.709,73.333,500301.000,1.000
1.435,9.916,4.972,6.283,9.941,9.119,8.939,12.882,-0.105,0.980,-0.116,-2.411,-3.571,1.709,73.333,500302.000,1.000
1.468,7.469,3.155,4.637,6.554,4.135,4.015,10.010,-0.106,0.982,-0.118,-2.441,-3.448,1.678,73.333,500303.000,1.000
0.349,4.911,0.577,2.348,3.959,3.160,3.985,7.910,-0.106,0.982,-0.116,-2.350,-3.418,1.678,73.333,500304.000,1.000
-1.021,3.077,-1.908,0.285,3.131,7.031,9.773,7.565,-0.107,0.983,-0.116,-2.380,-3.296,1.587,73.333,500305.000,1.000
-1.626,2.248,-3.714,-1.086,3.609,13.080,17.606,8.573,-0.106,0.986,-0.115,-2.350,-3.326,1.587,73.333,500306.000,1.000
-1.273,1.671,-5.011,-2.046,3.652,16.164,21.304,9.581,-0.109,0.984,-0.114,-2.380,-3.357,1.709,73.333,500307.000,1.000
-0.583,0.340,-6.268,-3.092,1.950,12.993,17.669,9.721,-0.110,0.986,-0.115,-2.380,-3.326,1.831,73.333,500308.000,1.000
-0.303,-1.958,-7.463,-4.334,-1.058,5.044,9.333,9.316,-0.110,0.985,-0.116,-2.563,-3.357,1.953,73.333,500309.000,1.000
-0.849,-4.689,-8.097,-5.616,-3.837,-3.220,1.955,8.987,-0.110,0.982,-0.115,-2.594,-3.448,2.136,73.333,500310.000,1.000
-2.217,-7.245,-7.882,-6.921,-5.325,-8.030,-0.931,8.519,-0.109,0.980,-0.117,-2.655,-3.418,2.167,73.333,500311.000,1.000
-3.944,-9.085,-6.899,-8.318,-5.448,-7.956,0.266,6.997,-0.108,0.979,-0.116,-2.625,-3.448,2.167,73.333,500312.000,1.000
-5.204,-9.470,-5.318,-9.563,-4.346,-3.162,3.714,4.140,-0.109,0.981,-0.117,-2.563,-3.387,2.289,73.333,500313.000,1.000
-5.245,-7.747,-3.201,-10.017,-1.926,5.129,8.476,1.189,-0.111,0.982,-0.115,-2.563,-3.418,2.136,73.333,500314.000,1.000
-4.028,-4.312,-0.861,-9.237,1.247,13.519,13.007,-0.251,-0.113,0.985,-0.116,-2.411,-3.448,2.167,73.333,500315.000,1.000
-2.433,-0.946,0.730,-7.659,3.342,16.714,13.720,-0.075,-0.112,0.984,-0.117,-2.655,-3.632,2.289,73.333,500316.000,1.000
-1.489,0.571,0.742,-6.208,2.789,11.799,8.270,0.519,-0.110,0.983,-0.116,-2.686,-3.845,2.380,73.333,500317.000,1.000
-1.402,0.053,-0.506,-5.302,0.106,1.584,-0.835,0.831,-0.108,0.981,-0.113,-2.747,-3.815,2.441,73.333,500318.000,1.000
-1.557,-1.294,-1.797,-4.601,-2.612,-8.061,-8.184,1.471,-0.108,0.980,-0.113,-2.747,-3.754,2.411,73.333,500319.000,1.000
-1.289,-2.178,-2.119,-3.639,-3.718,-13.081,-10.390,3.207,-0.107,0.980,-0.111,-2.747,-3.754,2.319,73.333,500320.000,1.000
-0.551,-2.073,-1.504,-2.501,-3.223,-13.023,-8.114,5.365,-0.111,0.978,-0.113,-2.594,-3.815,2.289,73.333,500321.000,1.000
0.000,-1.338,-0.844,-1.861,-2.515,-10.087,-4.403,5.892,-0.112,0.979,-0.118,-2.380,-3.876,2.411,73.333,500322.000,1.000
-0.407,-0.717,-1.125,-2.334,-3.095,-7.186,-2.281,3.192,-0.110,0.980,-0.115,-2.411,-4.028,2.594,73.333,500323.000,1.000
-1.808,-0.497,-2.532,-3.713,-5.180,-5.585,-2.764,-2.159,-0.107,0.979,-0.112,-2.411,-4.242,2.747,73.333,500324.000,1.000
-3.334,-0.181,-4.265,-4.934,-7.367,-4.031,-4.204,-7.484,-0.105,0.979,-0.115,-2.319,-4.303,2.869,73.333,500325.000,1.000
-3.954,0.795,-5.395,-4.964,-7.925,-0.793,-4.141,-9.775,-0.106,0.979,-0.114,-2.258,-4.211,2.930,73.333,500326.000,1.000
-3.309,2.201,-5.608,-3.636,-6.396,3.783,-1.751,-7.699,-0.105,0.979,-0.110,-2.045,-4.181,2.808,73.333,500327.000,1.000
-1.715,3.177,-5.249,-1.620,-3.860,7.203,1.505,-2.477,-0.108,0.982,-0.113,-2.045,-4.211,2.777,73.333,500328.000,1.000
0.350,3.058,-4.766,0.207,-1.947,7.028,3.215,2.949,-0.109,0.982,-0.113,-1.953,-4.333,2.838,73.333,500329.000,1.000
2.590,1.977,-4.188,1.377,-1.510,3.384,2.393,5.994,-0.112,0.983,-0.116,-1.984,-4.456,2.930,73.333,500330.000,1.000
4.957,1.010,-3.039,2.110,-1.859,-0.400,0.897,6.278,-0.111,0.983,-0.112,-2.045,-4.608,3.021,73.333,500331.000,1.000
7.435,1.402,-0.770,2.925,-1.566,-0.686,1.426,5.431,-0.108,0.984,-0.112,-1.984,-4.730,2.960,73.333,500332.000,1.000
9.599,3.080,2.251,3.806,-0.359,2.299,3.595,4.927,-0.107,0.982,-0.111,-1.923,-4.700,3.052,73.333,500333.000,1.000
10.703,4.516,4.719,4.134,0.535,4.666,4.096,4.758,-0.109,0.982,-0.112,-1.892,-4.761,2.991,73.333,500334.000,1.000
10.440,4.456,5.642,3.535,0.171,3.540,1.126,4.201,-0.109,0.982,-0.114,-1.923,-4.822,3.021,73.333,500335.000,1.000
9.338,3.129,5.130,2.351,-0.970,-0.315,-3.539,2.986,-0.107,0.982,-0.115,-1.831,-4.883,3.021,73.333,500336.000,1.000
8.519,1.953,4.364,1.509,-1.428,-3.868,-6.288,1.766,-0.104,0.980,-0.115,-1.862,-4.974,2.960,73.333,500337.000,1.000
9.080,2.510,4.866,2.074,0.202,-4.082,-4.244,1.680,-0.105,0.981,-0.113,-1.831,-4.974,2.991,73.333,500338.000,1.000
11.227,5.269,7.296,4.340,3.941,-0.266,2.296,3.099,-0.104,0.982,-0.113,-1.801,-5.005,2.869,73.333,500339.000,1.000
14.000,9.066,10.851,7.302,7.903,4.887,9.404,4.961,-0.104,0.982,-0.111,-1.678,-5.096,2.838,73.333,500340.000,1.000
16.070,12.116,13.919,9.346,9.755,7.711,12.821,5.681,-0.104,0.984,-0.110,-1.801,-5.066,2.869,73.333,500341.000,1.000
16.732,13.352,15.389,9.520,8.652,6.597,11.348,4.531,-0.100,0.984,-0.110,-1.923,-4.974,2.808,73.333,500342.000,1.000
16.196,12.850,15.155,8.135,5.648,2.295,6.579,2.202,-0.100,0.984,-0.110,-1.984,-4.944,2.686,73.333,500343.000,1.000
15.137,11.424,13.769,6.297,2.620,-3.235,0.904,0.227,-0.102,0.984,-0.108,-2.045,-4.791,2.686,73.333,500344.000,1.000
14.093,9.962,11.875,4.999,0.964,-7.655,-3.625,-0.298,-0.103,0.983,-0.107,-2.014,-4.791,2.625,73.333,500345.000,1.000
13.224,8.941,9.848,4.586,0.925,-9.155,-5.696,0.402,-0.101,0.981,-0.111,-2.045,-4.822,2.655,73.333,500346.000,1.000
12.290,8.121,7.713,4.630,1.468,-7.753,-5.343,0.860,-0.099,0.980,-0.112,-2.075,-4.761,2.533,73.333,500347.000,1.000
10.802,6.735,5.171,4.134,0.787,-5.396,-4.282,-0.858,-0.097,0.980,-0.114,-2.045,-4.639,2.441,73.333,500348.000,1.000
8.656,4.433,2.230,2.441,-2.200,-4.047,-4.527,-5.746,-0.097,0.981,-0.115,-2.167,-4.486,2.380,73.333,500349.000,1.000
6.534,1.892,-0.299,0.064,-6.663,-4.099,-6.465,-12.725,-0.099,0.981,-0.112,-2.075,-4.333,2.319,73.333,500350.000,1.000
5.302,0.210,-1.409,-1.670,-10.385,-4.785,-8.807,-18.931,-0.101,0.982,-0.113,-1.862,-4.364,2.197,73.333,500351.000,1.000
5.315,-0.001,-0.609,-1.662,-11.434,-5.421,-10.344,-21.461,-0.100,0.982,-0.111,-1.953,-4.303,2.289,73.333,500352.000,1.000
6.284,1.033,1.722,0.168,-9.506,-6.064,-11.446,-19.495,-0.099,0.982,-0.112,-1.892,-4.211,2.319,73.333,500353.000,1.000
7.546,2.508,4.535,2.893,-5.887,-7.167,-13.204,-14.691,-0.101,0.981,-0.110,-2.014,-4.181,2.289,73.333,500354.000,1.000
8.575,3.696,6.841,5.418,-2.161,-8.575,-15.251,-9.392,-0.099,0.980,-0.114,-2.167,-4.120,2.136,73.333,500355.000,1.000
9.349,4.395,8.210,7.245,0.972,-9.116,-15.364,-4.764,-0.097,0.980,-0.111,-1.984,-3.967,1.984,73.333,500356.000,1.000
10.201,4.823,8.810,8.555,3.728,-7.532,-11.426,-0.511,-0.096,0.979,-0.112,-1.984,-3.754,1.770,73.333,500357.000,1.000
11.363,5.273,9.006,9.738,6.466,-3.775,-3.606,4.029,-0.097,0.979,-0.113,-1.953,-3.662,1.587,73.333,500358.000,1.000
12.647,5.857,9.040,10.831,8.976,0.652,5.267,8.550,-0.099,0.981,-0.109,-1.923,-3.510,1.434,73.333,500359.000,1.000
13.572,6.456,8.980,11.369,10.457,3.556,11.266,11.507,-0.100,0.984,-0.105,-2.075,-3.448,1.373,73.333,500360.000,1.000
13.857,6.935,8.795,10.890,10.254,3.534,11.750,11.361,-0.100,0.983,-0.104,-2.075,-3.418,1.434,73.333,500361.000,1.000
13.655,7.314,8.538,9.470,8.517,0.891,6.888,8.006,-0.101,0.982,-0.107,-2.167,-3.479,1.526,73.333,500362.000,1.000
13.288,7.667,8.220,7.640,6.127,-2.662,-0.669,2.887,-0.101,0.980,-0.111,-2.167,-3.479,1.495,73.333,500363.000,1.000
12.987,8.085,7.918,6.112,4.266,-4.991,-7.041,-1.810,-0.101,0.981,-0.109,-2.075,-3.448,1.312,73.333,500364.000,1.000
12.973,8.726,8.066,5.683,3.975,-4.601,-8.899,-4.074,-0.100,0.980,-0.110,-2.014,-3.326,1.282,73.333,500365.000,1.000
13.353,9.539,9.027,6.828,5.493,-1.599,-5.594,-3.061,-0.098,0.984,-0.111,-1.953,-3.357,1.160,73.333,500366.000,1.000
13.776,9.938,10.414,9.026,7.750,2.163,0.216,0.101,-0.100,0.985,-0.109,-2.045,-3.326,1.007,73.333,500367.000,1.000
13.638,9.192,11.174,10.912,8.943,4.323,4.435,2.778,-0.100,0.984,-0.111,-2.075,-3.113,0.977,73.333,500368.000,1.000
12.696,7.163,10.515,11.332,8.000,3.794,4.604,2.829,-0.102,0.986,-0.108,-2.075,-3.113,0.916,73.333,500369.000,1.000
11.157,4.355,8.470,10.103,5.326,1.107,1.155,0.377,-0.105,0.986,-0.109,-2.106,-3.113,0.885,73.333,500370.000,1.000
9.349,1.435,5.642,7.921,2.137,-2.921,-4.299,-2.524,-0.104,0.986,-0.107,-2.228,-3.082,0.916,73.333,500371.000,1.000
7.634,-0.889,2.994,5.887,-0.388,-7.660,-10.385,-3.734,-0.103,0.983,-0.108,-2.289,-3.204,1.068,73.333,500372.000,1.000
6.485,-1.799,1.517,4.989,-1.265,-11.710,-15.347,-2.287,-0.104,0.981,-0.111,-2.380,-3.204,1.068,73.333,500373.000,1.000
6.271,-0.791,1.683,5.594,0.117,-12.910,-16.908,1.600,-0.102,0.979,-0.111,-2.258,-3.235,1.007,73.333,500374.000,1.000
6.867,1.809,3.096,7.171,3.416,-9.875,-14.151,6.675,-0.101,0.981,-0.111,-2.228,-3.235,0.977,73.333,500375.000,1.000
7.625,4.951,4.685,8.609,7.199,-3.320,-8.676,10.864,-0.102,0.981,-0.112,-2.136,-3.265,0.885,73.333,500376.000,1.000
7.825,7.483,5.496,8.991,9.772,4.203,-3.064,12.393,-0.101,0.982,-0.110,-2.197,-3.204,0.854,73.333,500377.000,1.000
7.169,8.689,5.210,8.095,10.155,9.905,0.782,10.871,-0.102,0.983,-0.108,-2.350,-3.235,0.854,73.333,500378.000,1.000
5.941,8.473,4.130,6.325,8.344,12.019,1.639,7.199,-0.103,0.984,-0.107,-2.258,-3.265,0.824,73.333,500379.000,1.000
4.716,7.196,2.849,4.340,5.009,10.019,-1.078,2.777,-0.102,0.985,-0.105,-2.228,-3.235,0.854,73.333,500380.000,1.000
3.972,5.505,1.834,2.671,1.222,4.872,-6.522,-1.118,-0.104,0.982,-0.105,-2.228,-3.265,0.885,73.333,500381.000,1.000
4.070,4.345,1.578,1.703,-1.624,-0.579,-11.849,-3.434,-0.103,0.984,-0.107,-2.289,-3.326,0.854,73.333,500382.000,1.000
5.350,4.689,2.616,1.790,-2.201,-2.770,-13.525,-3.444,-0.103,0.983,-0.105,-2.350,-3.265,0.824,73.333,500383.000,1.000
7.770,6.737,5.021,2.964,-0.203,-0.245,-10.132,-1.263,-0.104,0.983,-0.106,-2.411,-3.235,0.885,73.333,500384.000,1.000
10.518,9.473,8.038,4.640,3.144,4.871,-3.853,1.802,-0.103,0.984,-0.106,-2.350,-3.357,0.885,73.333,500385.000,1.000
12.345,11.347,10.403,5.923,5.956,8.877,1.261,3.870,-0.104,0.984,-0.105,-2.380,-3.357,0.946,73.333,500386.000,1.000
12.426,11.443,11.277,6.332,7.169,9.691,2.611,3.879,-0.104,0.983,-0.105,-2.380,-3.510,0.946,73.333,500387.000,1.000
10.938,9.988,10.709,6.131,7.081,7.778,0.549,2.442,-0.103,0.983,-0.110,-2.350,-3.418,1.007,73.333,500388.000,1.000
8.792,7.848,9.311,5.894,6.532,4.684,-2.816,1.043,-0.102,0.983,-0.109,-2.472,-3.418,0.946,73.333,500389.000,1.000
6.905,5.760,7.741,5.912,5.942,1.668,-5.453,0.540,-0.103,0.984,-0.106,-2.502,-3.448,0.946,73.333,500390.000,1.000
5.805,4.130,6.436,6.175,5.317,-0.417,-6.245,0.769,-0.105,0.986,-0.102,-2.533,-3.418,1.038,73.333,500391.000,1.000
5.595,3.125,5.684,6.653,4.672,-0.977,-5.025,1.223,-0.107,0.986,-0.103,-2.502,-3.540,0.977,73.333,500392.000,1.000
5.859,2.521,5.392,7.198,3.940,-0.006,-2.760,1.327,-0.107,0.987,-0.105,-2.594,-3.601,1.068,73.333,500393.000,1.000
5.737,1.605,4.935,7.325,2.541,1.266,-1.900,0.274,-0.109,0.985,-0.105,-2.625,-3.662,1.160,73.333,500394.000,1.000
4.634,-0.246,3.695,6.613,-0.208,0.699,-5.144,-2.387,-0.110,0.983,-0.107,-2.686,-3.815,1.312,73.333,500395.000,1.000
2.880,-2.757,1.774,5.326,-3.888,-2.570,-12.202,-5.726,-0.107,0.983,-0.104,-2.686,-3.998,1.434,73.333,500396.000,1.000
1.423,-4.818,0.141,4.292,-6.830,-6.868,-18.968,-7.680,-0.106,0.982,-0.107,-2.594,-4.059,1.434,73.333,500397.000,1.000
0.954,-5.457,-0.256,4.139,-7.594,-9.878,-21.536,-6.844,-0.106,0.983,-0.104,-2.686,-4.028,1.404,73.333,500398.000,1.000
1.492,-4.470,0.798,4.887,-6.055,-10.578,-19.330,-3.631,-0.106,0.987,-0.101,-2.472,-4.120,1.373,73.333,500399.000,1.000
2.687,-2.078,3.109,6.334,-2.708,-8.580,-13.450,0.777,-0.107,0.986,-0.102,-2.411,-4.303,1.373,73.333,500400.000,1.000
4.028,1.218,6.196,8.227,1.891,-3.766,-4.916,5.720,-0.108,0.986,-0.103,-2.502,-4.272,1.434,73.333,500401.000,1.000
4.522,3.989,8.786,9.600,6.099,1.853,3.675,10.061,-0.107,0.986,-0.102,-2.533,-4.425,1.495,73.333,500402.000,1.000
2.857,4.073,8.864,8.689,6.967,4.049,7.439,11.028,-0.104,0.984,-0.100,-2.655,-4.700,1.617,73.333,500403.000,1.000
-1.415,0.465,5.361,4.478,2.742,0.369,3.432,6.229,-0.103,0.982,-0.101,-2.808,-4.578,1.801,73.333,500404.000,1.000
-7.064,-5.333,-0.425,-1.879,-4.906,-6.832,-5.474,-3.415,-0.105,0.984,-0.101,-2.747,-4.578,1.770,73.333,500405.000,1.000
-12.029,-10.438,-5.862,-7.863,-12.222,-12.722,-13.417,-14.079,-0.109,0.984,-0.103,-2.502,-4.578,1.740,73.333,500406.000,1.000
-14.870,-12.742,-8.925,-11.461,-16.351,-14.332,-17.093,-21.769,-0.110,0.985,-0.103,-2.441,-4.608,1.770,73.333,500407.000,1.000
-15.326,-11.819,-9.130,-12.014,-16.477,-11.842,-16.739,-23.999,-0.107,0.987,-0.101,-2.625,-4.791,1.709,73.333,500408.000,1.000
-14.173,-8.764,-7.368,-10.139,-13.409,-7.480,-13.738,-20.296,-0.107,0.986,-0.101,-2.594,-4.913,1.862,73.333,500409.000,1.000
-12.771,-5.634,-5.304,-7.375,-9.175,-4.389,-10.078,-12.526,-0.105,0.986,-0.101,-2.686,-5.005,1.923,73.333,500410.000,1.000
-12.277,-4.437,-4.521,-5.419,-6.229,-5.103,-8.536,-4.332,-0.105,0.984,-0.101,-2.472,-5.005,1.953,73.333,500411.000,1.000
-13.118,-6.177,-5.687,-5.223,-6.108,-9.935,-10.567,0.826,-0.103,0.984,-0.099,-2.380,-4.974,1.984,73.333,500412.000,1.000
-15.052,-10.516,-8.453,-6.622,-8.558,-16.741,-14.461,1.720,-0.104,0.984,-0.102,-2.289,-5.005,2.014,73.333,500413.000,1.000
-17.397,-15.907,-11.698,-8.565,-11.849,-22.163,-16.705,-0.206,-0.104,0.985,-0.101,-2.289,-5.035,1.953,73.333,500414.000,1.000
-19.244,-20.210,-13.995,-9.792,-14.037,-23.447,-14.962,-2.505,-0.103,0.986,-0.098,-2.197,-5.188,2.014,73.333,500415.000,1.000
-19.722,-21.618,-14.365,-9.518,-14.091,-19.808,-9.423,-3.800,-0.104,0.986,-0.096,-2.136,-5.127,2.167,73.333,500416.000,1.000
-18.261,-19.392,-12.565,-7.670,-12.084,-12.735,-1.994,-4.122,-0.102,0.988,-0.096,-2.289,-5.127,2.197,73.333,500417.000,1.000
-14.797,-14.113,-9.052,-4.733,-8.720,-5.042,4.831,-3.953,-0.102,0.987,-0.098,-2.197,-5.157,2.228,73.333,500418.000,1.000
-9.789,-7.272,-4.653,-1.360,-4.707,1.192,9.294,-3.480,-0.100,0.987,-0.099,-2.136,-5.005,2.167,73.333,500419.000,1.000
-4.118,-0.587,-0.202,1.873,-0.537,5.660,11.056,-2.637,-0.105,0.986,-0.098,-2.167,-4.883,2.136,73.333,500420.000,1.000
1.042,4.451,3.440,4.395,3.144,8.359,10.121,-1.503,-0.103,0.985,-0.100,-2.197,-4.944,2.167,73.333,500421.000,1.000
4.739,7.064,5.786,5.860,5.644,8.489,6.591,-0.147,-0.103,0.986,-0.100,-2.319,-4.913,2.197,73.333,500422.000,1.000
6.812,7.650,7.148,6.542,7.069,6.085,2.166,1.826,-0.100,0.983,-0.100,-2.228,-4.913,2.167,73.333,500423.000,1.000
7.754,7.532,8.407,7.150,8.470,3.579,0.239,5.057,-0.099,0.985,-0.100,-2.258,-4.852,2.167,73.333,500424.000,1.000
8.190,7.993,10.333,8.242,10.840,4.124,3.375,9.614,-0.098,0.983,-0.099,-2.136,-4.761,2.106,73.333,500425.000,1.000
8.412,9.342,12.850,9.782,14.117,8.543,11.062,14.479,-0.102,0.981,-0.101,-2.106,-4.700,2.167,73.333,500426.000,1.000
8.055,10.668,14.893,10.973,17.105,14.778,20.099,17.898,-0.102,0.981,-0.101,-2.014,-4.578,1.984,73.333,500427.000,1.000
6.409,10.632,15.021,10.641,18.314,19.842,26.583,18.397,-0.101,0.984,-0.098,-1.892,-4.395,1.862,73.333,500428.000,1.000
3.317,8.680,12.535,8.156,17.001,21.560,28.057,15.707,-0.101,0.982,-0.097,-2.014,-4.486,1.801,73.333,500429.000,1.000
-0.534,5.384,7.944,3.943,13.498,18.938,24.409,10.840,-0.098,0.981,-0.097,-2.014,-4.425,1.862,73.333,500430.000,1.000
-4.220,1.726,2.352,-0.910,8.703,12.162,16.839,5.303,-0.095,0.978,-0.101,-1.953,-4.333,1.862,73.333,500431.000,1.000
-7.146,-1.539,-3.054,-5.252,3.640,2.962,7.079,0.418,-0.094,0.978,-0.101,-1.740,-4.211,1.709,73.333,500432.000,1.000
-9.115,-3.896,-7.358,-8.201,-0.582,-5.466,-2.116,-2.778,-0.096,0.980,-0.104,-1.709,-3.998,1.648,73.333,500433.000,1.000
-10.200,-4.936,-10.087,-9.305,-2.961,-9.820,-7.412,-3.604,-0.101,0.982,-0.102,-1.740,-3.937,1.587,73.333,500434.000,1.000
-10.539,-4.399,-11.104,-8.566,-3.035,-8.521,-6.985,-1.980,-0.100,0.985,-0.101,-1.678,-3.845,1.617,73.333,500435.000,1.000
-10.084,-2.163,-10.380,-6.200,-0.861,-2.126,-1.425,1.713,-0.102,0.987,-0.101,-1.678,-3.815,1.526,73.333,500436.000,1.000
-8.661,1.663,-7.914,-2.551,3.043,7.383,7.037,6.553,-0.101,0.987,-0.101,-1.678,-3.906,1.648,73.333,500437.000,1.000
-6.574,6.141,-4.400,1.477,7.114,16.506,14.674,10.348,-0.099,0.986,-0.098,-1.740,-3.937,1.587,73.333,500438.000,1.000
-4.916,9.373,-1.473,4.403,9.021,20.834,17.424,10.590,-0.098,0.985,-0.097,-1.923,-3.693,1.404,73.333,500439.000,1.000
-4.820,9.689,-0.698,5.125,7.455,17.938,13.879,6.977,-0.097,0.986,-0.095,-1.953,-3.510,1.221,73.333,500440.000,1.000
-6.394,6.961,-2.517,3.704,3.156,9.334,6.080,1.662,-0.101,0.987,-0.103,-1.953,-3.357,1.038,73.333,500441.000,1.000
-8.598,2.626,-5.962,1.177,-1.888,-0.647,-2.401,-3.055,-0.101,0.987,-0.102,-1.923,-3.326,0.854,73.333,500442.000,1.000
-10.081,-1.413,-9.391,-1.190,-5.788,-7.542,-8.551,-6.288,-0.099,0.984,-0.101,-2.045,-3.326,0.946,73.333,500443.000,1.000
-10.053,-3.899,-11.411,-2.479,-7.573,-9.193,-11.164,-8.122,-0.096,0.983,-0.099,-2.106,-3.387,0.977,73.333,500444.000,1.000
-8.557,-4.590,-11.360,-2.371,-7.257,-6.340,-10.760,-8.644,-0.095,0.983,-0.099,-2.106,-3.235,0.916,73.333,500445.000,1.000
-6.196,-3.890,-9.425,-1.139,-5.406,-1.184,-8.410,-7.661,-0.095,0.980,-0.100,-1.923,-3.143,0.946,73.333,500446.000,1.000
-3.637,-2.305,-6.265,0.666,-2.735,3.950,-4.982,-4.992,-0.094,0.979,-0.102,-1.770,-2.991,0.916,73.333,500447.000,1.000
-1.372,-0.296,-2.781,2.472,-0.040,6.935,-1.459,-1.077,-0.093,0.979,-0.102,-1.770,-2.869,0.793,73.333,500448.000,1.000
0.270,1.670,0.125,3.747,1.916,6.696,1.232,2.757,-0.095,0.979,-0.101,-1.709,-2.686,0.763,73.333,500449.000,1.000
1.160,3.258,1.964,4.081,2.778,4.379,3.202,4.807,-0.096,0.981,-0.101,-1.740,-2.594,0.702,73.333,500450.000,1.000
1.380,4.366,2.721,3.322,2.704,2.475,5.225,3.926,-0.099,0.984,-0.101,-1.709,-2.441,0.702,73.333,500451.000,1.000
1.151,5.029,2.841,1.769,2.089,2.192,6.777,0.473,-0.099,0.985,-0.105,-1.556,-2.380,0.610,73.333,500452.000,1.000
0.937,5.448,3.103,0.354,1.463,2.425,5.811,-3.401,-0.100,0.986,-0.101,-1.617,-2.258,0.641,73.333,500453.000,1.000
1.357,6.009,4.235,0.191,1.489,1.549,1.398,-4.978,-0.100,0.988,-0.102,-1.617,-2.258,0.671,73.333,500454.000,1.000
2.464,6.748,6.127,1.425,2.357,-0.879,-4.785,-3.162,-0.100,0.987,-0.102,-1.770,-2.197,0.671,73.333,500455.000,1.000
3.412,7.091,7.595,2.898,3.476,-4.017,-9.663,0.754,-0.097,0.986,-0.103,-1.801,-2.106,0.732,73.333,500456.000,1.000
3.277,6.628,7.605,3.438,4.333,-5.873,-10.084,4.717,-0.097,0.986,-0.103,-1.862,-2.014,0.763,73.333,500457.000,1.000
1.972,5.802,6.318,3.029,5.228,-3.888,-4.159,7.644,-0.097,0.988,-0.101,-1.770,-2.014,0.793,73.333,500458.000,1.000
0.205,5.455,4.817,2.549,6.670,2.808,6.653,9.445,-0.100,0.989,-0.102,-1.678,-1.953,0.763,73.333,500459.000,1.000
-1.290,5.865,4.017,2.708,8.279,11.362,17.019,10.074,-0.101,0.989,-0.099,-1.770,-1.892,0.763,73.333,500460.000,1.000
-2.342,6.474,3.924,3.432,8.996,17.072,21.589,9.302,-0.103,0.989,-0.099,-1.831,-1.831,0.671,73.333,500461.000,1.000
-3.191,6.562,4.139,4.207,8.474,17.787,20.033,7.553,-0.106,0.989,-0.097,-1.984,-1.984,0.458,73.333,500462.000,1.000
-4.007,5.874,4.447,4.663,7.480,15.033,16.309,6.121,-0.107,0.989,-0.094,-2.014,-1.984,0.397,73.333,500463.000,1.000
-4.702,4.555,4.809,4.750,6.792,11.068,13.406,6.138,-0.109,0.992,-0.096,-2.075,-2.045,0.275,73.333,500464.000,1.000
-5.057,2.887,5.214,4.659,6.513,6.878,11.181,7.821,-0.108,0.991,-0.097,-2.228,-2.075,0.244,73.333,500465.000,1.000
-4.786,1.424,5.699,4.751,6.671,3.512,9.105,10.675,-0.109,0.990,-0.099,-2.350,-2.197,0.214,73.333,500466.000,1.000
-3.620,1.012,6.489,5.250,7.637,3.366,8.643,13.500,-0.109,0.991,-0.098,-2.441,-2.441,0.275,73.333,500467.000,1.000
-1.837,1.837,7.328,5.568,9.130,7.787,11.042,14.060,-0.106,0.992,-0.097,-2.533,-2.411,0.305,73.333,500468.000,1.000
-0.625,2.580,6.998,4.278,9.359,13.691,13.758,9.975,-0.105,0.993,-0.096,-2.502,-2.319,0.183,73.333,500469.000,1.000
-1.230,1.472,4.408,0.420,6.404,15.360,11.939,0.889,-0.104,0.992,-0.095,-2.655,-2.380,0.092,73.333,500470.000,1.000
-3.672,-1.777,-0.017,-5.213,0.507,10.176,3.940,-10.388,-0.104,0.993,-0.095,-2.686,-2.411,0.153,73.333,500471.000,1.000
-6.661,-5.665,-4.384,-10.421,-5.785,0.844,-6.540,-19.230,-0.101,0.988,-0.099,-2.655,-2.472,0.153,73.333,500472.000,1.000
-8.662,-8.184,-6.797,-13.101,-9.535,-7.300,-13.650,-21.940,-0.102,0.989,-0.098,-2.686,-2.472,0.305,73.333,500473.000,1.000
-8.928,-8.146,-6.562,-12.527,-9.246,-9.828,-13.312,-17.846,-0.103,0.987,-0.098,-2.716,-2.411,0.427,73.333,500474.000,1.000
-7.919,-5.924,-4.518,-9.736,-5.651,-5.752,-5.388,-9.631,-0.103,0.983,-0.094,-2.594,-2.441,0.549,73.333,500475.000,1.000
-6.891,-3.223,-2.575,-6.800,-1.220,1.764,6.005,-1.619,-0.103,0.984,-0.093,-2.411,-2.441,0.519,73.333,500476.000,1.000
-6.966,-1.929,-2.401,-5.397,1.449,7.327,14.645,2.975,-0.104,0.982,-0.089,-2.350,-2.502,0.610,73.333,500477.000,1.000
-8.471,-2.903,-4.428,-5.948,1.242,7.113,16.260,3.680,-0.107,0.984,-0.089,-2.319,-2.472,0.488,73.333,500478.000,1.000
-10.786,-5.416,-7.632,-7.662,-0.858,1.998,11.632,2.289,-0.107,0.983,-0.092,-2.136,-2.502,0.488,73.333,500479.000,1.000
-12.758,-7.768,-10.262,-9.228,-2.834,-3.460,5.199,0.919,-0.107,0.981,-0.094,-2.075,-2.441,0.610,73.333,500480.000,1.000
-13.641,-8.820,-11.364,-9.862,-3.560,-5.670,0.521,0.245,-0.108,0.978,-0.090,-2.045,-2.472,0.610,73.333,500481.000,1.000
-13.577,-8.730,-11.249,-9.622,-3.391,-4.717,-1.650,-0.298,-0.104,0.979,-0.091,-1.801,-2.502,0.641,73.333,500482.000,1.000
-12.995,-8.134,-10.584,-8.688,-2.930,-2.630,-1.618,-0.987,-0.104,0.980,-0.092,-1.648,-2.441,0.549,73.333,500483.000,1.000
-11.887,-7.225,-9.428,-6.892,-2.043,-0.548,0.827,-1.262,-0.105,0.980,-0.094,-1.465,-2.563,0.549,73.333,500484.000,1.000
-9.948,-5.895,-7.429,-4.231,-0.383,1.708,5.495,-0.736,-0.104,0.980,-0.091,-1.556,-2.533,0.580,73.333,500485.000,1.000
-7.141,-4.232,-4.622,-1.358,1.817,4.373,10.799,0.180,-0.105,0.979,-0.090,-1.373,-2.502,0.580,73.333,500486.000,1.000
-3.765,-2.364,-1.330,0.984,4.068,7.411,15.068,1.180,-0.105,0.981,-0.089,-1.282,-2.441,0.610,73.333,500487.000,1.000
-0.286,-0.284,2.120,2.606,6.148,10.655,17.562,2.747,-0.106,0.982,-0.093,-1.282,-2.319,0.519,73.333,500488.000,1.000
2.682,1.847,5.335,3.700,7.953,13.457,18.174,5.456,-0.106,0.982,-0.093,-1.221,-2.319,0.549,73.333,500489.000,1.000
4.607,3.722,8.018,4.546,9.562,15.489,18.140,9.200,-0.105,0.983,-0.093,-1.160,-2.350,0.458,73.333,500490.000,1.000
5.275,5.070,9.978,5.288,11.140,17.138,19.509,13.072,-0.102,0.983,-0.092,-1.068,-2.258,0.549,73.333,500491.000,1.000
4.586,5.274,10.819,5.518,11.981,17.331,21.558,15.488,-0.102,0.981,-0.092,-1.007,-2.411,0.549,73.333,500492.000,1.000
2.557,3.586,9.938,4.432,10.668,13.694,20.568,14.824,-0.103,0.980,-0.091,-0.977,-2.289,0.610,73.333,500493.000,1.000
-0.141,0.402,7.413,1.871,7.073,6.875,15.487,10.668,-0.104,0.981,-0.093,-1.038,-2.197,0.732,73.333,500494.000,1.000
-2.173,-2.641,4.331,-1.258,2.834,0.865,9.416,4.311,-0.104,0.984,-0.094,-1.007,-2.106,0.702,73.333,500495.000,1.000
-2.543,-4.343,1.668,-3.915,-0.767,-2.451,3.950,-2.439,-0.103,0.984,-0.094,-0.916,-1.923,0.824,73.333,500496.000,1.000
-1.424,-4.882,-0.389,-5.756,-3.939,-5.227,-2.721,-8.522,-0.104,0.984,-0.097,-0.977,-1.923,0.824,73.333,500497.000,1.000
0.043,-5.074,-2.144,-7.020,-7.160,-9.604,-11.380,-13.479,-0.104,0.985,-0.098,-1.007,-1.892,0.824,73.333,500498.000,1.000
0.629,-5.397,-3.751,-7.984,-9.988,-14.625,-19.259,-16.595,-0.105,0.983,-0.100,-0.885,-1.862,0.946,73.333,500499.000,1.000
-0.076,-5.605,-4.785,-8.573,-11.230,-17.234,-22.340,-16.868,-0.104,0.984,-0.095,-0.854,-1.862,0.916,73.333,500500.000,1.000
-1.408,-4.972,-4.509,-8.372,-9.808,-14.907,-18.545,-13.737,-0.102,0.985,-0.100,-0.885,-1.770,0.854,73.333,500501.000,1.000
-2.278,-3.051,-2.498,-7.040,-5.582,-7.439,-8.763,-7.672,-0.104,0.988,-0.101,-0.854,-1.801,0.824,73.333,500502.000,1.000
-2.042,-0.265,0.731,-4.813,0.235,2.741,3.529,-0.471,-0.105,0.989,-0.097,-0.854,-1.678,1.007,73.333,500503.000,1.000
-0.895,2.134,3.768,-2.596,5.333,11.379,13.326,5.022,-0.104,0.986,-0.097,-0.946,-1.648,1.129,73.333,500504.000,1.000
0.308,2.748,5.171,-1.447,7.474,14.546,16.558,6.349,-0.104,0.987,-0.095,-1.007,-1.770,1.068,73.333,500505.000,1.000
0.719,1.022,4.384,-1.800,5.989,11.326,12.719,3.160,-0.105,0.984,-0.095,-1.038,-1.678,1.099,73.333,500506.000,1.000
0.250,-2.221,2.220,-3.133,2.237,4.517,4.986,-2.496,-0.104,0.988,-0.097,-1.160,-1.678,1.038,73.333,500507.000,1.000
-0.293,-5.182,0.263,-4.344,-1.356,-1.353,-2.167,-7.475,-0.104,0.988,-0.096,-1.099,-1.617,1.068,73.333,500508.000,1.000
0.176,-6.078,-0.125,-4.408,-2.659,-2.741,-5.120,-9.159,-0.103,0.989,-0.096,-1.129,-1.648,1.068,73.333,500509.000,1.000
2.202,-4.198,1.456,-2.951,-0.982,0.886,-2.546,-6.796,-0.103,0.989,-0.094,-1.251,-1.587,0.977,73.333,500510.000,1.000
5.398,-0.444,4.083,-0.584,2.482,6.735,3.757,-1.983,-0.103,0.989,-0.095,-1.282,-1.404,0.946,73.333,500511.000,1.000
8.707,3.274,6.245,1.481,5.640,11.017,10.354,2.650,-0.103,0.992,-0.095,-1.465,-1.343,0.977,73.333,500512.000,1.000
11.138,5.418,6.993,2.416,7.151,11.962,14.885,5.396,-0.102,0.992,-0.092,-1.495,-1.282,0.977,73.333,500513.000,1.000
12.250,5.514,6.339,2.155,6.740,9.956,16.310,5.717,-0.102,0.993,-0.091,-1.678,-1.282,1.007,73.333,500514.000,1.000
11.928,3.696,4.627,0.859,4.281,5.527,13.394,3.336,-0.103,0.992,-0.094,-1.740,-1.251,0.885,73.333,500515.000,1.000
10.326,0.581,2.182,-1.196,0.009,-0.477,6.003,-1.315,-0.103,0.990,-0.092,-1.892,-1.282,0.946,73.333,500516.000,1.000
8.176,-2.519,-0.243,-3.208,-4.673,-5.666,-2.800,-6.260,-0.102,0.988,-0.089,-2.045,-1.312,0.885,73.333,500517.000,1.000
6.314,-4.592,-2.008,-4.464,-8.354,-8.379,-9.739,-9.432,-0.103,0.985,-0.094,-2.106,-1.221,0.916,73.333,500518.000,1.000
4.927,-5.936,-3.351,-5.166,-11.099,-10.155,-15.017,-10.530,-0.101,0.983,-0.091,-2.167,-1.068,0.885,73.333,500519.000,1.000
3.806,-7.237,-4.641,-5.822,-13.439,-13.201,-19.929,-10.306,-0.101,0.981,-0.092,-2.106,-1.038,0.885,73.333,500520.000,1.000
2.867,-8.305,-5.593,-6.386,-14.796,-16.737,-23.011,-9.034,-0.100,0.981,-0.096,-1.862,-0.824,0.885,73.333,500521.000,1.000
1.987,-8.499,-5.697,-6.566,-14.143,-17.931,-21.474,-6.774,-0.100,0.983,-0.095,-1.678,-0.671,0.885,73.333,500522.000,1.000
0.902,-7.720,-5.112,-6.448,-11.627,-15.561,-15.360,-4.509,-0.103,0.985,-0.092,-1.617,-0.549,0.824,73.333,500523.000,1.000
-0.435,-6.484,-4.541,-6.398,-8.695,-11.373,-8.126,-3.839,-0.105,0.985,-0.092,-1.617,-0.610,0.916,73.333,500524.000,1.000
-1.712,-5.390,-4.434,-6.577,-6.777,-8.142,-3.409,-5.341,-0.107,0.984,-0.096,-1.709,-0.671,1.068,73.333,500525.000,1.000
-2.521,-4.663,-4.669,-6.732,-6.147,-7.052,-2.202,-7.808,-0.104,0.981,-0.099,-1.740,-0.641,1.038,73.333,500526.000,1.000
-2.663,-4.186,-4.791,-6.583,-6.275,-7.388,-3.223,-9.689,-0.102,0.979,-0.099,-1.617,-0.519,1.160,73.333,500527.000,1.000
-2.303,-4.002,-4.694,-6.349,-6.944,-8.435,-5.123,-10.736,-0.099,0.979,-0.097,-1.526,-0.488,1.251,73.333,500528.000,1.000
-1.711,-4.271,-4.540,-6.405,-8.098,-10.053,-6.804,-11.199,-0.100,0.979,-0.094,-1.312,-0.397,1.282,73.333,500529.000,1.000
-0.958,-4.801,-4.179,-6.590,-9.107,-11.610,-6.976,-10.575,-0.104,0.979,-0.095,-1.221,-0.366,1.312,73.333,500530.000,1.000
-0.126,-5.172,-3.440,-6.414,-9.243,-12.000,-5.280,-8.511,-0.108,0.981,-0.092,-1.160,-0.305,1.373,73.333,500531.000,1.000
0.460,-5.071,-2.395,-5.624,-8.341,-10.394,-2.522,-5.745,-0.111,0.982,-0.094,-1.099,-0.397,1.282,73.333,500532.000,1.000
0.462,-4.276,-1.290,-4.301,-6.608,-6.525,0.503,-3.249,-0.115,0.982,-0.093,-0.977,-0.488,1.068,73.333,500533.000,1.000
-0.114,-2.684,-0.380,-2.693,-4.341,-1.105,3.340,-1.209,-0.115,0.985,-0.094,-1.129,-0.488,1.007,73.333,500534.000,1.000
-0.827,-0.531,0.173,-1.103,-2.026,4.033,5.348,0.615,-0.111,0.985,-0.095,-1.160,-0.763,0.885,73.333,500535.000,1.000
-1.093,1.474,0.195,0.108,-0.421,6.764,5.601,1.920,-0.107,0.986,-0.094,-1.129,-0.916,0.854,73.333,500536.000,1.000
-0.616,2.415,-0.354,0.613,-0.236,5.941,3.707,1.964,-0.106,0.988,-0.094,-1.282,-0.977,1.038,73.333,500537.000,1.000
0.445,1.803,-1.286,0.331,-1.546,2.102,0.474,0.647,-0.105,0.988,-0.094,-1.312,-1.007,1.099,73.333,500538.000,1.000
1.554,-0.203,-2.319,-0.550,-3.790,-3.218,-2.842,-1.187,-0.103,0.989,-0.096,-1.373,-1.007,1.068,73.333,500539.000,1.000
2.045,-3.061,-3.269,-1.754,-6.302,-8.653,-5.709,-2.563,-0.103,0.991,-0.097,-1.373,-0.977,1.068,73.333,500540.000,1.000
1.702,-5.775,-3.935,-2.857,-8.291,-12.727,-7.663,-2.862,-0.101,0.993,-0.098,-1.373,-0.977,1.007,73.333,500541.000,1.000
1.159,-6.927,-3.697,-3.151,-8.575,-13.462,-7.085,-1.446,-0.101,0.991,-0.095,-1.495,-0.885,1.007,73.333,500542.000,1.000
1.345,-5.709,-2.042,-2.144,-6.471,-10.183,-2.935,1.985,-0.100,0.992,-0.097,-1.556,-0.946,1.038,73.333,500543.000,1.000
2.504,-2.880,0.591,-0.251,-3.035,-5.330,2.462,6.178,-0.100,0.991,-0.092,-1.678,-0.885,1.190,73.333,500544.000,1.000
3.934,-0.276,2.936,1.372,-0.576,-2.858,4.595,8.425,-0.101,0.991,-0.094,-1.740,-0.854,1.221,73.333,500545.000,1.000
4.723,0.632,3.804,1.798,-0.714,-4.969,0.818,6.644,-0.104,0.991,-0.095,-1.770,-0.854,1.282,73.333,500546.000,1.000
4.696,-0.226,3.140,1.193,-3.073,-10.602,-7.565,1.283,-0.104,0.991,-0.095,-2.014,-0.763,1.190,73.333,500547.000,1.000
4.610,-1.492,2.105,0.827,-5.386,-15.774,-15.728,-4.591,-0.104,0.988,-0.095,-2.045,-0.793,1.160,73.333,500548.000,1.000
5.346,-1.469,2.120,2.034,-5.022,-15.792,-17.790,-7.256,-0.106,0.988,-0.094,-2.075,-0.763,1.038,73.333,500549.000,1.000
6.812,0.171,3.429,4.699,-1.590,-9.770,-12.143,-5.501,-0.106,0.989,-0.093,-2.106,-0.885,1.068,73.333,500550.000,1.000
7.809,1.892,4.557,6.904,2.104,-2.581,-4.258,-2.033,-0.107,0.990,-0.091,-2.106,-0.885,0.977,73.333,500551.000,1.000
7.108,1.841,3.740,6.541,2.528,-0.490,-1.972,-1.072,-0.107,0.990,-0.091,-2.197,-0.946,0.977,73.333,500552.000,1.000
4.582,-0.319,0.597,3.255,-1.296,-5.389,-8.439,-4.561,-0.106,0.987,-0.091,-2.167,-0.885,0.977,73.333,500553.000,1.000
1.374,-3.025,-3.431,-1.144,-6.832,-13.340,-19.361,-10.431,-0.105,0.987,-0.094,-2.258,-0.946,0.916,73.333,500554.000,1.000
-0.996,-4.080,-6.134,-4.059,-9.982,-17.759,-26.239,-14.176,-0.103,0.985,-0.094,-2.106,-0.916,0.854,73.333,500555.000,1.000
-1.731,-2.438,-6.287,-3.989,-8.272,-14.394,-23.092,-12.383,-0.101,0.985,-0.094,-2.167,-0.854,0.824,73.333,500556.000,1.000
-1.073,1.055,-4.295,-1.338,-2.626,-4.495,-10.966,-5.279,-0.101,0.986,-0.093,-2.014,-0.946,0.793,73.333,500557.000,1.000
0.075,4.331,-1.804,1.993,3.389,6.046,3.127,3.381,-0.100,0.984,-0.096,-1.923,-0.854,0.854,73.333,500558.000,1.000
0.836,5.663,-0.472,3.979,6.332,11.428,12.019,9.158,-0.097,0.985,-0.095,-1.923,-0.763,0.824,73.333,500559.000,1.000
1.063,5.017,-0.523,4.053,5.607,10.667,14.052,10.455,-0.096,0.987,-0.096,-1.892,-0.763,0.916,73.333,500560.000,1.000
1.294,3.731,-0.888,3.235,3.377,7.266,12.994,9.138,-0.094,0.987,-0.094,-1.770,-0.702,0.885,73.333,500561.000,1.000
2.048,3.121,-0.484,2.780,2.119,5.101,13.312,7.958,-0.094,0.988,-0.095,-1.740,-0.488,1.038,73.333,500562.000,1.000
3.440,3.675,0.861,3.181,2.808,5.699,16.287,8.238,-0.092,0.989,-0.095,-1.801,-0.519,1.160,73.333,500563.000,1.000
5.143,4.964,2.451,4.145,4.747,8.097,19.616,9.665,-0.093,0.988,-0.095,-1.709,-0.336,1.190,73.333,500564.000,1.000
6.482,5.934,3.261,4.915,6.222,9.833,19.623,10.839,-0.092,0.989,-0.091,-1.709,-0.183,1.251,73.333,500565.000,1.000
6.847,5.679,2.491,4.693,5.540,8.452,13.909,9.809,-0.091,0.987,-0.089,-1.617,-0.122,1.312,73.333,500566.000,1.000
6.093,3.985,0.010,3.079,1.996,2.807,2.537,5.269,-0.093,0.987,-0.090,-1.770,0.061,1.404,73.333,500567.000,1.000
4.450,1.214,-3.834,0.235,-3.719,-6.033,-11.905,-2.291,-0.095,0.987,-0.086,-1.801,0.061,1.465,73.333,500568.000,1.000
2.359,-1.893,-8.246,-3.096,-9.657,-14.629,-24.461,-10.530,-0.094,0.986,-0.088,-1.740,0.092,1.648,73.333,500569.000,1.000
0.507,-4.336,-11.794,-5.663,-13.416,-18.982,-29.806,-16.152,-0.094,0.987,-0.090,-1.587,0.122,1.556,73.333,500570.000,1.000
-0.401,-5.343,-13.061,-6.312,-13.556,-17.443,-25.985,-16.540,-0.096,0.984,-0.089,-1.587,0.092,1.617,73.333,500571.000,1.000
-0.133,-4.889,-11.594,-4.857,-10.585,-11.745,-16.060,-11.644,-0.095,0.985,-0.091,-1.526,0.000,1.587,73.333,500572.000,1.000
0.866,-3.648,-8.335,-2.289,-6.557,-5.401,-6.008,-4.467,-0.094,0.985,-0.087,-1.617,0.092,1.587,73.333,500573.000,1.000
1.792,-2.487,-5.032,-0.069,-3.742,-1.546,-1.039,0.874,-0.094,0.987,-0.084,-1.526,0.214,1.648,73.333,500574.000,1.000
2.009,-1.966,-3.150,0.820,-3.365,-1.505,-2.905,1.985,-0.093,0.989,-0.084,-1.434,0.183,1.587,73.333,500575.000,1.000
1.365,-2.051,-3.222,0.339,-4.950,-4.093,-9.106,-0.413,-0.094,0.989,-0.083,-1.404,0.092,1.526,73.333,500576.000,1.000
0.094,-2.263,-4.725,-0.785,-6.777,-6.552,-14.545,-3.403,-0.093,0.989,-0.082,-1.434,0.122,1.465,73.333,500577.000,1.000
-1.413,-2.132,-6.546,-1.588,-7.170,-6.712,-14.984,-4.198,-0.092,0.990,-0.082,-1.373,0.122,1.434,73.333,500578.000,1.000
-2.649,-1.443,-7.526,-1.316,-5.427,-3.953,-9.339,-1.921,-0.092,0.989,-0.084,-1.434,0.061,1.556,73.333,500579.000,1.000
-3.209,-0.422,-7.210,0.098,-2.138,0.852,-0.001,2.158,-0.091,0.988,-0.083,-1.373,0.092,1.465,73.333,500580.000,1.000
-3.102,0.304,-6.324,1.893,1.218,5.608,8.551,5.889,-0.092,0.987,-0.083,-1.373,0.122,1.373,73.333,500581.000,1.000
-2.455,0.475,-5.626,3.280,3.575,8.548,13.139,8.192,-0.091,0.989,-0.084,-1.312,-0.061,1.282,73.333,500582.000,1.000
-1.217,0.670,-4.901,4.072,4.984,9.783,13.833,9.371,-0.094,0.986,-0.084,-1.404,-0.153,1.282,73.333,500583.000,1.000
0.471,1.546,-3.631,4.243,5.746,10.437,12.278,9.603,-0.097,0.985,-0.084,-1.251,-0.214,1.129,73.333,500584.000,1.000
2.145,3.120,-1.988,3.664,5.784,10.964,9.836,8.420,-0.098,0.984,-0.084,-1.221,-0.336,1.038,73.333,500585.000,1.000
3.459,4.957,-0.775,2.516,5.127,11.117,7.593,5.822,-0.100,0.983,-0.084,-1.068,-0.458,0.916,73.333,500586.000,1.000
4.275,6.360,-0.589,1.306,3.933,10.188,5.992,2.720,-0.101,0.983,-0.082,-1.007,-0.610,0.824,73.333,500587.000,1.000
4.346,6.449,-1.528,0.383,2.059,6.983,4.192,0.124,-0.101,0.983,-0.084,-0.916,-0.793,0.702,73.333,500588.000,1.000
3.416,4.838,-3.207,-0.170,-0.444,1.263,1.478,-1.297,-0.102,0.983,-0.083,-0.854,-0.977,0.549,73.333,500589.000,1.000
1.606,2.167,-4.935,-0.389,-2.804,-5.286,-1.671,-1.148,-0.101,0.982,-0.083,-0.763,-1.190,0.397,73.333,500590.000,1.000
-0.586,-0.405,-6.198,-0.435,-4.066,-10.282,-4.317,0.562,-0.102,0.982,-0.085,-0.610,-1.404,0.336,73.333,500591.000,1.000
-2.630,-2.057,-6.717,-0.577,-3.884,-12.139,-5.565,3.218,-0.102,0.983,-0.085,-0.580,-1.495,0.275,73.333,500592.000,1.000
-4.232,-2.749,-6.459,-1.099,-2.874,-11.103,-5.471,5.639,-0.099,0.984,-0.085,-0.488,-1.740,0.153,73.333,500593.000,1.000
-5.238,-2.975,-5.601,-2.079,-2.160,-9.176,-5.361,6.772,-0.097,0.983,-0.083,-0.488,-1.862,0.061,73.333,500594.000,1.000
-5.384,-3.036,-4.277,-3.150,-2.285,-7.902,-6.030,6.323,-0.099,0.981,-0.083,-0.488,-1.984,0.092,73.333,500595.000,1.000
-4.419,-2.801,-2.755,-3.759,-2.894,-6.959,-7.031,4.401,-0.097,0.982,-0.082,-0.397,-2.167,0.061,73.333,500596.000,1.000
-2.569,-2.299,-1.600,-3.730,-3.452,-5.694,-7.825,1.332,-0.096,0.982,-0.084,-0.366,-2.258,0.122,73.333,500597.000,1.000
-0.595,-1.957,-1.424,-3.264,-3.578,-4.376,-7.974,-1.661,-0.096,0.982,-0.082,-0.305,-2.380,0.061,73.333,500598.000,1.000
0.712,-2.066,-2.280,-2.591,-2.981,-3.376,-6.917,-2.904,-0.095,0.982,-0.083,-0.244,-2.563,0.061,73.333,500599.000,1.000
0.914,-2.529,-3.662,-2.091,-1.913,-2.431,-4.914,-2.448,-0.097,0.981,-0.085,-0.153,-2.594,0.092,73.333,500600.000,1.000
0.124,-2.952,-4.998,-2.170,-1.059,-0.754,-2.979,-2.329,-0.099,0.982,-0.082,-0.153,-2.625,0.061,73.333,500601.000,1.000
-0.925,-2.707,-5.713,-2.673,-0.646,2.341,-1.534,-3.934,-0.100,0.980,-0.087,0.092,-2.716,0.000,73.333,500602.000,1.000
-1.501,-1.496,-5.702,-3.139,-0.480,6.329,-0.665,-6.693,-0.101,0.980,-0.085,0.153,-2.869,-0.122,73.333,500603.000,1.000
-1.510,0.171,-5.559,-3.489,-0.625,9.213,-0.929,-9.101,-0.100,0.982,-0.081,0.153,-2.960,-0.153,73.333,500604.000,1.000
-1.245,1.540,-5.762,-3.805,-1.147,9.085,-2.601,-9.605,-0.100,0.983,-0.079,0.305,-2.930,-0.183,73.333,500605.000,1.000
-0.861,2.500,-5.995,-3.747,-1.410,6.386,-4.359,-7.090,-0.102,0.984,-0.085,0.305,-3.021,-0.305,73.333,500606.000,1.000
-0.373,3.481,-5.409,-2.749,-0.404,3.976,-3.777,-1.793,-0.105,0.981,-0.085,0.366,-3.082,-0.336,73.333,500607.000,1.000
0.072,4.542,-3.761,-0.812,1.973,4.017,0.005,4.154,-0.107,0.982,-0.087,0.336,-3.143,-0.305,73.333,500608.000,1.000
0.204,5.029,-1.781,1.308,4.577,5.766,5.316,8.095,-0.107,0.984,-0.088,0.397,-3.326,-0.488,73.333,500609.000,1.000
-0.087,4.301,-0.211,2.833,6.197,7.118,9.939,9.177,-0.112,0.984,-0.087,0.519,-3.540,-0.519,73.333,500610.000,1.000
-0.586,2.434,0.868,3.522,6.368,6.570,12.215,8.655,-0.114,0.984,-0.085,0.580,-3.723,-0.610,73.333,500611.000,1.000
-0.925,0.123,1.805,3.487,5.003,3.348,10.619,7.854,-0.115,0.985,-0.086,0.519,-3.906,-0.763,73.333,500612.000,1.000
-0.883,-1.756,2.681,2.884,2.266,-2.138,4.693,6.771,-0.115,0.983,-0.088,0.488,-4.028,-0.885,73.333,500613.000,1.000
-0.476,-2.363,3.359,2.044,-0.796,-7.290,-3.042,5.028,-0.116,0.985,-0.088,0.519,-4.272,-1.007,73.333,500614.000,1.000
0.148,-1.243,3.995,1.546,-2.418,-8.621,-8.129,3.146,-0.118,0.983,-0.088,0.580,-4.517,-1.190,73.333,500615.000,1.000
0.708,1.044,4.759,1.652,-1.690,-5.185,-8.423,1.988,-0.116,0.983,-0.090,0.580,-4.730,-1.343,73.333,500616.000,1.000
0.824,2.918,5.380,1.941,0.450,-0.075,-6.045,1.683,-0.116,0.983,-0.090,0.671,-4.883,-1.404,73.333,500617.000,1.000
0.378,2.927,5.248,1.869,2.315,2.403,-4.340,1.882,-0.114,0.984,-0.092,0.610,-4.944,-1.465,73.333,500618.000,1.000
-0.179,0.968,4.165,1.503,3.115,0.731,-4.341,2.545,-0.112,0.983,-0.093,0.641,-5.035,-1.434,73.333,500619.000,1.000
-0.222,-1.871,2.643,1.306,2.938,-3.472,-5.353,3.569,-0.113,0.986,-0.093,0.671,-5.096,-1.526,73.333,500620.000,1.000
0.330,-4.500,1.226,1.396,1.813,-8.041,-7.063,4.231,-0.114,0.983,-0.096,0.732,-5.280,-1.556,73.333,500621.000,1.000
