EEG 1,EEG 2,EEG 3,EEG 4,EEG 5,EEG 6,EEG 7,EEG 8,Accelerometer X,Accelerometer Y,Accelerometer Z,Gyroscope X,Gyroscope Y,Gyroscope Z,Battery Level,Counter,Validation Indicator
2.843,7.461,5.786,9.778,8.556,9.029,4.924,3.455,0.017,0.982,-0.065,0.824,-1.160,0.519,66.667,500689.000,1.000
3.692,7.818,6.729,11.698,10.338,8.705,9.949,7.971,0.017,0.982,-0.065,1.007,-1.129,0.458,66.667,500690.000,1.000
4.596,7.336,7.010,12.649,10.488,7.021,12.129,9.942,0.016,0.984,-0.064,1.099,-1.068,0.549,66.667,500691.000,1.000
5.453,6.244,6.715,12.719,9.322,4.471,11.798,9.820,0.017,0.982,-0.066,1.190,-1.038,0.671,66.667,500692.000,1.000
6.235,5.033,6.034,12.200,7.552,1.857,9.936,8.563,0.016,0.983,-0.065,1.251,-1.038,0.671,66.667,500693.000,1.000
6.890,4.128,5.101,11.310,5.760,-0.137,7.469,6.747,0.014,0.984,-0.065,1.251,-0.946,0.732,66.667,500694.000,1.000
7.375,3.710,4.047,10.165,4.188,-1.114,4.929,4.667,0.012,0.983,-0.066,1.282,-0.977,0.854,66.667,500695.000,1.000
7.781,3.853,3.164,8.977,3.037,-0.820,2.825,3.063,0.014,0.985,-0.065,1.343,-0.977,0.916,66.667,500696.000,1.000
8.280,4.605,2.795,8.027,2.621,0.808,1.747,2.892,0.014,0.985,-0.071,1.373,-1.007,0.977,66.667,500697.000,1.000
8.921,5.836,3.001,7.374,3.030,3.343,1.839,4.142,0.014,0.986,-0.071,1.312,-1.160,1.007,66.667,500698.000,1.000
9.492,7.111,3.409,6.705,3.806,5.864,2.451,5.493,0.014,0.988,-0.070,1.251,-1.221,1.129,66.667,500699.000,1.000
9.565,7.829,3.394,5.549,4.167,7.439,2.729,5.566,0.014,0.990,-0.071,1.129,-1.068,1.160,66.667,500700.000,1.000
8.744,7.575,2.497,3.657,3.640,7.715,2.629,4.092,0.014,0.991,-0.070,1.099,-1.038,1.251,66.667,500701.000,1.000
6.965,6.354,0.720,1.132,2.277,6.944,2.692,1.501,0.014,0.991,-0.069,1.007,-1.160,1.434,66.667,500702.000,1.000
4.545,4.472,-1.545,-1.678,0.349,5.514,2.548,-1.909,0.016,0.992,-0.073,0.885,-1.129,1.465,66.667,500703.000,1.000
2.002,2.393,-3.723,-4.223,-1.715,3.842,1.142,-5.537,0.019,0.994,-0.071,0.793,-1.007,1.526,66.667,500704.000,1.000
-0.207,0.649,-5.244,-5.835,-3.195,2.522,-1.195,-7.808,0.017,0.993,-0.071,0.732,-1.038,1.617,66.667,500705.000,1.000
-1.902,-0.425,-5.852,-6.161,-3.522,1.983,-2.807,-7.226,0.016,0.995,-0.071,0.488,-0.885,1.617,66.667,500706.000,1.000
-3.180,-0.875,-5.733,-5.497,-2.855,2.146,-2.894,-4.156,0.017,0.995,-0.071,0.305,-1.007,1.709,66.667,500707.000,1.000
-4.153,-0.911,-5.234,-4.437,-1.816,2.710,-2.032,-0.582,0.018,0.996,-0.070,0.153,-0.885,1.801,66.667,500708.000,1.000
-4.824,-0.704,-4.591,-3.343,-0.842,3.511,-0.985,1.775,0.018,0.992,-0.069,0.031,-0.916,1.801,66.667,500709.000,1.000
-5.202,-0.437,-3.931,-2.335,-0.057,4.432,-0.224,2.299,0.018,0.993,-0.068,-0.092,-0.946,1.831,66.667,500710.000,1.000
-5.379,-0.266,-3.255,-1.474,0.571,5.267,0.065,1.204,0.019,0.994,-0.068,-0.092,-0.854,1.709,66.667,500711.000,1.000
-5.450,-0.176,-2.405,-0.727,1.163,5.781,0.167,-0.675,0.018,0.994,-0.070,-0.183,-0.763,1.709,66.667,500712.000,1.000
-5.415,-0.011,-1.236,0.057,1.799,5.802,0.390,-2.288,0.017,0.991,-0.068,-0.275,-0.610,1.556,66.667,500713.000,1.000
-5.115,0.398,0.254,1.064,2.478,5.297,0.510,-2.891,0.019,0.990,-0.066,-0.366,-0.702,1.495,66.667,500714.000,1.000
-4.242,1.139,2.039,2.448,3.269,4.383,0.250,-2.075,0.019,0.985,-0.067,-0.488,-0.610,1.434,66.667,500715.000,1.000
-2.463,2.191,4.182,4.308,4.350,3.320,-0.025,0.233,0.021,0.983,-0.069,-0.397,-0.549,1.495,66.667,500716.000,1.000
0.314,3.419,6.726,6.619,5.809,2.440,0.570,3.520,0.024,0.981,-0.071,-0.366,-0.488,1.373,66.667,500717.000,1.000
3.652,4.441,9.354,9.049,7.312,1.735,2.374,6.537,0.026,0.979,-0.072,-0.153,-0.336,1.373,66.667,500718.000,1.000
6.655,4.671,11.332,10.893,8.006,0.584,4.084,7.490,0.025,0.982,-0.072,0.092,-0.244,1.312,66.667,500719.000,1.000
8.558,3.834,12.040,11.482,7.142,-1.610,3.404,5.035,0.023,0.984,-0.071,0.183,-0.061,1.251,66.667,500720.000,1.000
9.286,2.445,11.548,10.810,4.944,-4.488,-0.659,-0.243,0.022,0.986,-0.072,0.183,-0.061,1.282,66.667,500721.000,1.000
9.446,1.555,10.574,9.625,2.643,-6.792,-6.541,-5.660,0.022,0.985,-0.074,0.153,0.092,1.282,66.667,500722.000,1.000
9.769,1.914,9.862,8.795,1.513,-7.417,-11.366,-8.284,0.023,0.986,-0.074,0.336,0.092,1.373,66.667,500723.000,1.000
10.492,3.217,9.451,8.500,1.762,-6.408,-13.123,-7.206,0.021,0.985,-0.071,0.427,0.183,1.343,66.667,500724.000,1.000
11.231,4.235,8.625,8.100,2.382,-4.924,-11.717,-4.010,0.020,0.986,-0.070,0.519,0.183,1.404,66.667,500725.000,1.000
11.479,3.911,6.765,6.947,2.249,-4.160,-8.386,-1.016,0.017,0.988,-0.064,0.580,0.244,1.434,66.667,500726.000,1.000
11.068,2.206,4.023,5.075,1.109,-4.445,-4.644,0.569,0.014,0.989,-0.065,0.488,0.244,1.282,66.667,500727.000,1.000
10.080,-0.115,1.056,3.012,-0.570,-5.344,-1.770,0.754,0.010,0.992,-0.065,0.488,0.214,1.190,66.667,500728.000,1.000
8.687,-2.050,-1.387,1.347,-2.108,-6.054,-0.408,0.004,0.007,0.991,-0.068,0.397,0.092,1.068,66.667,500729.000,1.000
7.243,-2.708,-2.545,0.606,-2.869,-5.749,-0.344,-1.165,0.006,0.990,-0.069,0.336,-0.183,0.885,66.667,500730.000,1.000
6.223,-1.762,-1.943,1.031,-2.607,-4.176,-1.076,-2.344,0.008,0.986,-0.066,0.244,-0.397,0.916,66.667,500731.000,1.000
5.872,0.226,0.111,2.280,-1.717,-2.012,-2.265,-3.188,0.010,0.986,-0.068,0.214,-0.519,0.824,66.667,500732.000,1.000
6.031,2.141,2.576,3.569,-0.877,-0.345,-3.353,-3.167,0.012,0.986,-0.069,0.336,-0.671,0.763,66.667,500733.000,1.000
6.315,3.060,4.327,4.144,-0.496,0.176,-3.396,-1.742,0.014,0.988,-0.070,0.366,-0.671,0.824,66.667,500734.000,1.000
6.364,2.678,4.708,3.569,-0.676,-0.401,-1.833,0.865,0.017,0.990,-0.070,0.366,-0.702,0.732,66.667,500735.000,1.000
5.976,1.229,3.597,1.765,-1.475,-1.624,0.815,3.365,0.018,0.993,-0.069,0.397,-0.854,0.854,66.667,500736.000,1.000
5.089,-0.809,1.218,-1.051,-2.945,-3.023,3.202,4.159,0.015,0.993,-0.072,0.275,-0.885,0.946,66.667,500737.000,1.000
3.784,-2.987,-1.924,-4.403,-4.913,-4.281,4.105,2.584,0.016,0.993,-0.072,0.122,-0.885,1.068,66.667,500738.000,1.000
2.414,-4.960,-4.986,-7.563,-6.810,-5.173,3.448,-0.363,0.016,0.995,-0.071,0.000,-0.977,1.190,66.667,500739.000,1.000
1.500,-6.514,-7.041,-9.804,-7.949,-5.582,2.288,-2.688,0.015,0.995,-0.070,-0.092,-1.038,1.312,66.667,500740.000,1.000
1.246,-7.647,-7.699,-10.921,-8.054,-5.619,1.601,-3.013,0.016,0.993,-0.070,-0.122,-1.007,1.495,66.667,500741.000,1.000
1.275,-8.536,-7.392,-11.406,-7.351,-5.507,1.491,-1.461,0.018,0.995,-0.069,-0.275,-1.068,1.526,66.667,500742.000,1.000
0.985,-9.323,-6.912,-12.005,-6.209,-5.317,1.580,0.748,0.017,0.994,-0.067,-0.336,-1.190,1.678,66.667,500743.000,1.000
0.045,-9.983,-6.752,-13.166,-4.921,-4.965,1.379,2.071,0.017,0.994,-0.068,-0.336,-1.190,1.678,66.667,500744.000,1.000
-1.509,-10.425,-6.944,-14.818,-3.762,-4.385,0.208,1.288,0.017,0.994,-0.071,-0.366,-1.251,1.831,66.667,500745.000,1.000
-3.464,-10.664,-7.322,-16.510,-2.990,-3.583,-2.437,-1.851,0.017,0.994,-0.072,-0.427,-1.099,1.801,66.667,500746.000,1.000
-5.563,-10.796,-7.735,-17.696,-2.734,-2.563,-6.202,-6.292,0.017,0.993,-0.071,-0.488,-1.190,1.923,66.667,500747.000,1.000
-7.541,-10.897,-8.102,-18.058,-2.993,-1.365,-9.918,-10.145,0.019,0.992,-0.070,-0.397,-1.251,1.862,66.667,500748.000,1.000
-9.179,-10.961,-8.412,-17.684,-3.655,-0.113,-12.223,-11.724,0.020,0.993,-0.071,-0.488,-1.160,1.801,66.667,500749.000,1.000
-10.372,-10.904,-8.727,-16.954,-4.444,1.027,-12.053,-10.337,0.021,0.990,-0.067,-0.580,-1.190,1.770,66.667,500750.000,1.000
-11.169,-10.641,-9.100,-16.215,-4.953,1.905,-9.105,-6.408,0.021,0.988,-0.071,-0.488,-1.129,1.648,66.667,500751.000,1.000
-11.721,-10.147,-9.449,-15.529,-4.880,2.369,-4.305,-1.175,0.023,0.988,-0.073,-0.336,-1.099,1.526,66.667,500752.000,1.000
-12.171,-9.455,-9.529,-14.679,-4.220,2.252,0.479,3.782,0.024,0.988,-0.069,-0.336,-1.068,1.556,66.667,500753.000,1.000
-12.566,-8.627,-9.105,-13.397,-3.205,1.472,3.701,7.147,0.026,0.987,-0.066,-0.214,-0.885,1.495,66.667,500754.000,1.000
-12.893,-7.830,-8.212,-11.681,-2.260,0.035,4.932,8.202,0.026,0.987,-0.067,-0.214,-0.702,1.404,66.667,500755.000,1.000
-13.227,-7.472,-7.294,-9.995,-2.139,-2.156,4.070,6.584,0.025,0.986,-0.071,-0.183,-0.641,1.434,66.667,500756.000,1.000
-13.736,-8.089,-7.034,-9.068,-3.729,-5.275,0.748,2.174,0.026,0.984,-0.070,-0.092,-0.549,1.373,66.667,500757.000,1.000
-14.498,-9.886,-7.908,-9.340,-7.294,-9.162,-4.586,-4.277,0.026,0.983,-0.069,0.061,-0.458,1.221,66.667,500758.000,1.000
-15.255,-12.282,-9.710,-10.488,-11.843,-12.932,-9.743,-10.685,0.025,0.985,-0.069,0.275,-0.336,1.160,66.667,500759.000,1.000
-15.414,-14.110,-11.571,-11.556,-15.584,-15.349,-12.246,-14.571,0.024,0.985,-0.066,0.336,-0.336,1.099,66.667,500760.000,1.000
-14.500,-14.548,-12.649,-11.716,-17.293,-15.844,-11.778,-15.010,0.023,0.985,-0.070,0.336,-0.183,1.099,66.667,500761.000,1.000
-12.629,-13.702,-12.709,-10.862,-17.083,-14.936,-10.303,-13.412,0.020,0.985,-0.067,0.427,-0.122,0.885,66.667,500762.000,1.000
-10.457,-12.237,-11.993,-9.434,-15.853,-13.576,-9.802,-12.103,0.020,0.986,-0.069,0.549,-0.061,0.854,66.667,500763.000,1.000
-8.702,-10.738,-10.799,-7.855,-14.289,-12.270,-10.287,-12.228,0.018,0.986,-0.068,0.580,-0.031,0.854,66.667,500764.000,1.000
-7.707,-9.411,-9.321,-6.193,-12.431,-10.805,-9.865,-12.996,0.018,0.988,-0.065,0.641,-0.092,0.793,66.667,500765.000,1.000
-7.368,-8.211,-7.769,-4.351,-10.061,-8.824,-6.884,-12.794,0.017,0.988,-0.067,0.580,-0.061,0.824,66.667,500766.000,1.000
-7.364,-7.143,-6.454,-2.459,-7.344,-6.546,-1.992,-10.911,0.017,0.989,-0.070,0.580,-0.153,0.702,66.667,500767.000,1.000
-7.303,-6.262,-5.555,-0.831,-4.799,-4.606,2.331,-7.946,0.016,0.988,-0.066,0.549,-0.275,0.702,66.667,500768.000,1.000
-6.789,-5.455,-4.892,0.370,-2.767,-3.350,4.000,-4.883,0.015,0.989,-0.066,0.458,-0.397,0.702,66.667,500769.000,1.000
-5.621,-4.467,-4.138,1.216,-1.276,-2.681,2.736,-2.346,0.013,0.989,-0.067,0.488,-0.488,0.732,66.667,500770.000,1.000
-3.898,-3.065,-3.078,1.875,-0.224,-2.313,-0.001,-0.522,0.012,0.990,-0.066,0.458,-0.580,0.732,66.667,500771.000,1.000
-1.918,-1.141,-1.668,2.398,0.493,-1.892,-2.031,0.564,0.011,0.990,-0.065,0.397,-0.702,0.763,66.667,500772.000,1.000
-0.020,1.202,-0.112,2.546,0.820,-1.128,-2.106,0.625,0.010,0.991,-0.069,0.427,-0.916,0.671,66.667,500773.000,1.000
1.466,3.607,1.104,1.897,0.507,0.000,-0.872,-0.783,0.011,0.991,-0.067,0.305,-1.068,0.641,66.667,500774.000,1.000
2.265,5.613,1.496,0.265,-0.573,1.281,0.126,-3.533,0.011,0.990,-0.067,0.305,-1.190,0.732,66.667,500775.000,1.000
2.332,6.926,1.006,-1.990,-2.059,2.507,0.290,-6.511,0.012,0.990,-0.068,0.275,-1.343,0.885,66.667,500776.000,1.000
1.953,7.521,0.064,-4.134,-3.238,3.521,0.475,-8.223,0.011,0.989,-0.066,0.214,-1.526,0.793,66.667,500777.000,1.000
1.596,7.538,-0.738,-5.512,-3.536,4.211,1.982,-7.756,0.010,0.988,-0.067,0.000,-1.709,0.885,66.667,500778.000,1.000
1.635,7.216,-0.986,-5.865,-2.865,4.584,5.125,-5.294,0.010,0.989,-0.070,0.061,-1.740,0.916,66.667,500779.000,1.000
2.061,6.720,-0.695,-5.495,-1.809,4.601,8.348,-2.248,0.011,0.989,-0.070,0.000,-1.801,0.977,66.667,500780.000,1.000
2.397,5.922,-0.344,-5.124,-1.319,4.039,9.277,-0.462,0.013,0.989,-0.069,0.031,-1.953,0.977,66.667,500781.000,1.000
2.040,4.562,-0.462,-5.314,-1.847,2.855,7.250,-0.437,0.013,0.990,-0.068,0.000,-2.167,1.099,66.667,500782.000,1.000
0.713,2.630,-1.211,-6.029,-2.966,1.401,3.955,-0.857,0.014,0.988,-0.068,0.000,-2.228,1.068,66.667,500783.000,1.000
-1.276,0.524,-2.303,-6.820,-3.948,0.120,1.473,-0.382,0.014,0.988,-0.069,-0.031,-2.350,1.099,66.667,500784.000,1.000
-3.043,-0.961,-3.051,-7.096,-4.209,-0.534,0.878,0.968,0.016,0.988,-0.068,0.000,-2.350,1.190,66.667,500785.000,1.000
-3.599,-1.008,-2.701,-6.355,-3.398,-0.086,2.282,2.428,0.019,0.990,-0.069,-0.031,-2.289,1.099,66.667,500786.000,1.000
-2.718,0.312,-1.287,-4.719,-1.946,1.208,4.404,3.030,0.020,0.987,-0.069,-0.122,-2.197,1.038,66.667,500787.000,1.000
-1.269,1.590,-0.041,-3.196,-1.393,1.843,4.383,1.525,0.020,0.987,-0.068,-0.153,-2.045,1.129,66.667,500788.000,1.000
-0.505,1.120,-0.409,-2.860,-3.183,0.218,-0.005,-2.624,0.022,0.989,-0.068,-0.183,-2.075,1.221,66.667,500789.000,1.000
-1.089,-1.575,-2.718,-3.798,-7.049,-3.663,-7.631,-7.832,0.022,0.987,-0.070,-0.122,-2.045,1.221,66.667,500790.000,1.000
-2.780,-5.393,-5.994,-5.083,-11.026,-8.029,-14.425,-10.965,0.023,0.988,-0.069,-0.183,-1.923,1.221,66.667,500791.000,1.000
-4.791,-8.575,-8.825,-5.727,-13.044,-10.755,-16.662,-9.971,0.023,0.989,-0.069,-0.244,-1.740,1.190,66.667,500792.000,1.000
-6.386,-9.925,-10.344,-5.582,-12.507,-10.885,-13.889,-5.949,0.023,0.987,-0.066,-0.244,-1.709,1.251,66.667,500793.000,1.000
-7.357,-9.547,-10.728,-5.406,-10.588,-9.156,-9.012,-2.360,0.024,0.987,-0.066,-0.244,-1.709,1.282,66.667,500794.000,1.000
-8.058,-8.644,-10.887,-6.156,-9.117,-7.223,-5.668,-2.160,0.022,0.988,-0.067,-0.214,-1.587,1.343,66.667,500795.000,1.000
-8.868,-8.393,-11.496,-8.093,-9.056,-6.241,-5.447,-5.652,0.023,0.988,-0.066,-0.275,-1.282,1.282,66.667,500796.000,1.000
-9.625,-8.952,-12.339,-10.450,-9.927,-6.138,-7.344,-10.753,0.022,0.989,-0.066,-0.244,-1.190,1.251,66.667,500797.000,1.000
-9.847,-9.628,-12.686,-12.021,-10.535,-6.150,-9.208,-14.735,0.022,0.987,-0.067,-0.275,-1.129,1.190,66.667,500798.000,1.000
-9.409,-9.794,-12.137,-12.110,-10.097,-5.782,-9.503,-15.761,0.023,0.987,-0.067,-0.122,-0.916,1.129,66.667,500799.000,1.000
-8.744,-9.461,-11.007,-10.993,-8.788,-5.246,-8.079,-13.634,0.023,0.987,-0.065,-0.153,-0.793,1.129,66.667,500800.000,1.000
-8.297,-9.054,-9.934,-9.490,-7.367,-5.071,-5.569,-9.462,0.023,0.989,-0.065,-0.092,-0.671,1.068,66.667,500801.000,1.000
-8.009,-8.837,-9.244,-8.197,-6.432,-5.393,-2.428,-4.599,0.022,0.990,-0.068,-0.214,-0.488,1.038,66.667,500802.000,1.000
-7.451,-8.625,-8.733,-7.186,-6.133,-5.769,0.946,-0.192,0.023,0.989,-0.070,-0.244,-0.488,1.038,66.667,500803.000,1.000
-6.261,-7.945,-7.917,-6.250,-6.290,-5.586,3.668,2.674,0.021,0.989,-0.067,-0.275,-0.305,1.099,66.667,500804.000,1.000
-4.453,-6.448,-6.433,-5.231,-6.514,-4.553,4.740,3.335,0.019,0.989,-0.070,-0.275,-0.153,1.221,66.667,500805.000,1.000
-2.548,-4.309,-4.382,-4.195,-6.403,-2.885,3.912,2.062,0.019,0.991,-0.067,-0.244,-0.061,1.068,66.667,500806.000,1.000
-1.407,-2.158,-2.338,-3.390,-5.775,-1.038,1.751,-0.166,0.019,0.988,-0.070,-0.183,0.000,1.099,66.667,500807.000,1.000
-1.635,-0.564,-0.938,-2.940,-4.614,0.679,-0.748,-2.101,0.019,0.988,-0.066,-0.183,0.061,1.007,66.667,500808.000,1.000
-3.031,0.408,-0.381,-2.636,-2.824,2.282,-2.167,-2.424,0.018,0.989,-0.068,-0.153,0.122,1.007,66.667,500809.000,1.000
-4.769,1.084,-0.428,-2.192,-0.398,3.848,-1.248,-0.445,0.016,0.989,-0.068,-0.153,0.092,1.038,66.667,500810.000,1.000
-6.107,1.755,-0.820,-1.690,2.092,5.111,1.633,2.971,0.016,0.988,-0.067,-0.092,0.122,1.099,66.667,500811.000,1.000
-6.809,2.503,-1.421,-1.497,3.666,5.613,4.552,5.940,0.015,0.989,-0.065,-0.214,0.092,1.190,66.667,500812.000,1.000
-6.977,3.375,-1.949,-1.701,3.855,5.365,6.139,7.437,0.017,0.988,-0.065,-0.183,0.092,1.251,66.667,500813.000,1.000
-6.745,4.478,-1.945,-1.933,3.127,5.014,6.613,7.973,0.016,0.988,-0.065,-0.183,-0.031,1.282,66.667,500814.000,1.000
-6.173,5.826,-1.174,-1.804,2.218,5.168,6.442,8.315,0.017,0.987,-0.069,-0.122,-0.153,1.221,66.667,500815.000,1.000
-5.224,7.255,0.168,-1.236,1.479,5.847,5.243,8.454,0.014,0.988,-0.069,-0.061,-0.275,1.343,66.667,500816.000,1.000
-3.770,8.560,1.713,-0.358,1.023,6.728,2.697,7.987,0.015,0.987,-0.068,-0.153,-0.244,1.343,66.667,500817.000,1.000
-1.798,9.552,3.146,0.646,1.001,7.514,-0.338,6.857,0.016,0.988,-0.065,0.031,-0.397,1.373,66.667,500818.000,1.000
0.442,10.039,4.190,1.551,1.469,7.993,-2.394,5.444,0.015,0.989,-0.066,-0.031,-0.397,1.343,66.667,500819.000,1.000
2.557,9.912,4.642,2.090,2.129,8.044,-2.892,3.881,0.017,0.990,-0.066,0.092,-0.488,1.434,66.667,500820.000,1.000
4.253,9.243,4.520,2.061,2.449,7.680,-2.590,1.718,0.016,0.989,-0.065,0.061,-0.519,1.404,66.667,500821.000,1.000
5.473,8.295,4.142,1.547,2.181,7.090,-2.436,-1.193,0.015,0.989,-0.067,0.153,-0.641,1.434,66.667,500822.000,1.000
6.342,7.388,3.907,0.954,1.587,6.583,-2.615,-4.014,0.016,0.988,-0.070,0.153,-0.671,1.434,66.667,500823.000,1.000
6.922,6.604,3.883,0.664,1.023,6.279,-2.852,-5.651,0.017,0.988,-0.070,0.153,-0.641,1.434,66.667,500824.000,1.000
7.041,5.672,3.664,0.701,0.494,5.931,-2.999,-5.714,0.016,0.989,-0.072,0.183,-0.671,1.495,66.667,500825.000,1.000
6.504,4.283,2.734,0.766,-0.212,5.182,-3.155,-4.629,0.016,0.987,-0.070,0.275,-0.763,1.373,66.667,500826.000,1.000
5.444,2.501,0.974,0.558,-1.147,3.948,-3.474,-3.144,0.017,0.987,-0.068,0.366,-0.824,1.404,66.667,500827.000,1.000
4.359,0.789,-1.165,0.040,-2.124,2.470,-4.022,-1.927,0.017,0.987,-0.068,0.458,-0.885,1.404,66.667,500828.000,1.000
3.818,-0.302,-2.874,-0.492,-2.881,1.199,-4.528,-1.356,0.019,0.987,-0.067,0.397,-0.885,1.465,66.667,500829.000,1.000
4.132,-0.472,-3.429,-0.566,-3.144,0.623,-4.020,-1.316,0.015,0.989,-0.067,0.427,-0.885,1.526,66.667,500830.000,1.000
5.090,0.044,-2.734,0.020,-2.831,0.792,-1.585,-1.509,0.015,0.989,-0.067,0.397,-0.885,1.343,66.667,500831.000,1.000
5.942,0.488,-1.486,0.878,-2.346,0.983,1.911,-2.157,0.016,0.988,-0.070,0.305,-1.007,1.404,66.667,500832.000,1.000
5.981,0.221,-0.527,1.431,-2.271,0.361,3.906,-3.699,0.018,0.987,-0.066,0.366,-0.916,1.251,66.667,500833.000,1.000
5.171,-0.660,-0.092,1.558,-2.673,-1.081,2.503,-5.857,0.017,0.987,-0.066,0.397,-1.068,1.251,66.667,500834.000,1.000
4.007,-1.538,0.055,1.559,-3.163,-2.644,-2.069,-7.720,0.016,0.988,-0.068,0.336,-1.129,1.221,66.667,500835.000,1.000
3.004,-1.830,0.162,1.791,-3.390,-3.602,-8.005,-8.499,0.018,0.988,-0.070,0.397,-1.068,1.312,66.667,500836.000,1.000
2.478,-1.185,0.482,2.551,-3.149,-3.491,-12.947,-7.874,0.017,0.987,-0.069,0.397,-1.099,1.312,66.667,500837.000,1.000
2.454,0.375,1.250,3.973,-2.336,-2.245,-14.979,-5.943,0.017,0.990,-0.069,0.427,-1.068,1.160,66.667,500838.000,1.000
2.576,2.291,2.373,5.815,-1.038,-0.324,-13.467,-3.015,0.018,0.988,-0.066,0.397,-1.099,1.129,66.667,500839.000,1.000
2.282,3.672,3.286,7.397,0.318,1.407,-9.388,0.203,0.018,0.990,-0.068,0.458,-1.099,1.221,66.667,500840.000,1.000
1.177,3.839,3.287,7.916,1.088,2.097,-4.956,2.438,0.018,0.991,-0.069,0.427,-1.221,1.160,66.667,500841.000,1.000
-0.645,2.862,2.211,7.093,1.038,1.590,-2.094,2.830,0.018,0.991,-0.069,0.366,-1.221,1.190,66.667,500842.000,1.000
-2.575,1.598,0.726,5.469,0.758,0.761,-0.890,1.897,0.019,0.991,-0.067,0.305,-1.129,1.099,66.667,500843.000,1.000
-3.947,0.956,-0.236,3.849,1.080,0.760,-0.082,0.851,0.021,0.990,-0.068,0.244,-1.099,1.160,66.667,500844.000,1.000
-4.586,1.121,-0.279,2.641,2.226,1.927,1.301,0.474,0.021,0.990,-0.069,0.214,-1.160,1.129,66.667,500845.000,1.000
-4.844,1.571,0.292,1.797,3.739,3.670,3.379,0.916,0.021,0.988,-0.071,0.366,-1.190,1.129,66.667,500846.000,1.000
-5.143,1.685,0.877,1.146,4.953,5.131,5.810,1.903,0.019,0.986,-0.073,0.275,-1.129,1.251,66.667,500847.000,1.000
-5.615,1.137,0.932,0.573,5.327,5.669,7.927,2.828,0.020,0.985,-0.068,0.275,-1.221,1.190,66.667,500848.000,1.000
-6.192,-0.148,0.110,-0.028,4.586,4.982,8.716,2.986,0.019,0.985,-0.067,0.214,-1.221,1.221,66.667,500849.000,1.000
-6.834,-2.060,-1.611,-0.786,2.863,3.180,7.317,2.065,0.020,0.985,-0.067,0.275,-1.068,1.129,66.667,500850.000,1.000
-7.473,-4.169,-3.774,-1.682,0.783,0.824,3.886,0.415,0.020,0.986,-0.068,0.305,-0.977,1.221,66.667,500851.000,1.000
-7.857,-5.713,-5.592,-2.427,-0.705,-1.152,0.084,-1.145,0.021,0.987,-0.069,0.336,-0.946,1.190,66.667,500852.000,1.000
-7.643,-5.961,-6.410,-2.637,-0.809,-1.803,-1.633,-1.734,0.021,0.986,-0.066,0.397,-1.007,1.282,66.667,500853.000,1.000
-6.670,-4.676,-6.031,-2.155,0.604,-0.784,0.101,-0.981,0.021,0.989,-0.070,0.427,-0.916,1.282,66.667,500854.000,1.000
-5.034,-2.176,-4.611,-1.100,2.952,1.422,4.356,0.592,0.021,0.991,-0.069,0.397,-1.038,1.160,66.667,500855.000,1.000
-2.928,0.975,-2.417,0.340,5.421,3.999,8.898,2.085,0.019,0.992,-0.066,0.366,-0.946,1.160,66.667,500856.000,1.000
-0.555,4.156,0.170,1.965,7.382,6.235,11.738,3.008,0.018,0.991,-0.067,0.214,-0.885,1.190,66.667,500857.000,1.000
1.905,6.757,2.649,3.501,8.491,7.613,11.846,3.419,0.017,0.988,-0.067,0.122,-0.916,1.221,66.667,500858.000,1.000
4.413,8.468,4.651,4.740,8.814,8.005,9.668,3.771,0.015,0.988,-0.069,0.122,-0.885,1.099,66.667,500859.000,1.000
7.019,9.374,6.046,5.644,8.668,7.670,6.741,4.416,0.017,0.990,-0.068,0.122,-0.885,1.007,66.667,500860.000,1.000
9.644,9.725,6.859,6.303,8.304,6.969,4.357,5.160,0.017,0.989,-0.069,0.122,-0.885,1.007,66.667,500861.000,1.000
12.071,9.745,7.269,6.941,7.919,6.225,3.003,5.546,0.019,0.988,-0.066,0.092,-0.854,0.916,66.667,500862.000,1.000
14.061,9.541,7.534,7.825,7.635,5.577,2.324,5.103,0.019,0.987,-0.065,0.092,-0.916,0.885,66.667,500863.000,1.000
15.426,9.144,7.886,9.094,7.442,4.903,1.361,3.606,0.021,0.988,-0.067,-0.031,-0.885,0.824,66.667,500864.000,1.000
16.186,8.744,8.643,10.835,7.489,4.138,-0.289,1.767,0.022,0.984,-0.068,-0.031,-0.702,0.946,66.667,500865.000,1.000
16.614,8.664,10.169,13.062,8.114,3.477,-1.832,1.064,0.023,0.981,-0.070,-0.031,-0.671,1.038,66.667,500866.000,1.000
16.950,8.968,12.404,15.421,9.312,3.089,-2.265,2.203,0.022,0.978,-0.069,0.122,-0.671,1.068,66.667,500867.000,1.000
17.120,9.348,14.665,17.219,10.548,2.882,-1.357,4.335,0.020,0.977,-0.068,0.122,-0.641,1.068,66.667,500868.000,1.000
16.903,9.498,16.146,17.984,11.265,2.697,0.496,6.105,0.022,0.980,-0.070,0.336,-0.519,1.007,66.667,500869.000,1.000
16.246,9.335,16.479,17.801,11.215,2.433,2.430,6.759,0.018,0.981,-0.069,0.458,-0.427,1.129,66.667,500870.000,1.000
15.390,8.932,15.871,17.130,10.415,2.027,3.263,6.266,0.021,0.986,-0.070,0.458,-0.488,1.129,66.667,500871.000,1.000
14.722,8.482,14.930,16.528,9.203,1.573,2.537,5.249,0.021,0.987,-0.072,0.397,-0.397,1.251,66.667,500872.000,1.000
14.469,8.252,14.299,16.369,8.213,1.283,1.303,4.689,0.022,0.990,-0.072,0.427,-0.397,1.495,66.667,500873.000,1.000
14.542,8.456,14.325,16.680,8.008,1.265,1.292,5.172,0.020,0.990,-0.071,0.397,-0.366,1.465,66.667,500874.000,1.000
14.666,9.200,15.005,17.229,8.737,1.561,3.344,6.618,0.018,0.992,-0.070,0.244,-0.397,1.556,66.667,500875.000,1.000
14.620,10.466,16.123,17.728,10.136,2.323,6.655,8.644,0.019,0.991,-0.072,0.275,-0.397,1.587,66.667,500876.000,1.000
14.295,12.010,17.345,17.850,11.672,3.639,9.409,10.726,0.019,0.992,-0.072,0.305,-0.488,1.587,66.667,500877.000,1.000
13.591,13.309,18.216,17.202,12.672,5.192,10.079,12.146,0.014,0.991,-0.071,0.214,-0.519,1.526,66.667,500878.000,1.000
12.480,13.789,18.324,15.548,12.605,6.339,8.315,12.266,0.012,0.993,-0.070,0.092,-0.519,1.465,66.667,500879.000,1.000
11.143,13.182,17.551,13.082,11.415,6.600,5.079,10.981,0.011,0.995,-0.068,0.183,-0.641,1.404,66.667,500880.000,1.000
9.873,11.665,16.086,10.375,9.568,6.019,2.106,8.983,0.011,0.996,-0.068,0.031,-0.793,1.190,66.667,500881.000,1.000
8.823,9.733,14.236,8.033,7.786,5.168,0.898,7.455,0.011,0.998,-0.069,-0.061,-0.946,1.068,66.667,500882.000,1.000
7.871,7.877,12.216,6.300,6.533,4.705,1.690,6.980,0.012,0.999,-0.068,-0.336,-1.038,0.977,66.667,500883.000,1.000
6.702,6.297,10.072,4.947,5.715,4.803,3.156,6.826,0.014,0.999,-0.066,-0.549,-1.221,0.824,66.667,500884.000,1.000
5.094,4.961,7.826,3.606,5.024,5.181,3.639,5.879,0.016,0.998,-0.070,-0.641,-1.373,0.763,66.667,500885.000,1.000
3.090,3.864,5.635,2.187,4.490,5.645,2.888,4.146,0.016,0.997,-0.072,-0.702,-1.404,0.641,66.667,500886.000,1.000
0.931,3.094,3.735,0.913,4.450,6.212,2.117,2.844,0.017,0.996,-0.067,-0.824,-1.465,0.549,66.667,500887.000,1.000
-1.067,2.667,2.297,0.070,5.140,6.839,2.554,3.219,0.017,0.995,-0.065,-0.885,-1.556,0.549,66.667,500888.000,1.000
-2.527,2.511,1.468,-0.119,6.632,7.480,4.700,5.741,0.018,0.994,-0.064,-0.885,-1.556,0.610,66.667,500889.000,1.000
-3.114,2.554,1.398,0.437,8.844,8.218,8.275,9.894,0.019,0.993,-0.061,-0.946,-1.587,0.671,66.667,500890.000,1.000
-2.799,2.690,2.061,1.541,11.340,8.991,12.070,14.185,0.017,0.995,-0.065,-0.946,-1.556,0.793,66.667,500891.000,1.000
-1.970,2.826,3.162,2.747,13.414,9.476,14.571,17.003,0.017,0.990,-0.063,-0.916,-1.556,0.885,66.667,500892.000,1.000
-1.149,2.981,4.320,3.657,14.517,9.375,15.029,17.896,0.019,0.989,-0.063,-0.854,-1.556,0.916,66.667,500893.000,1.000
-0.608,3.187,5.258,4.133,14.485,8.621,13.730,17.634,0.018,0.987,-0.065,-0.824,-1.587,0.916,66.667,500894.000,1.000
-0.271,3.338,5.851,4.273,13.492,7.350,11.777,17.074,0.016,0.986,-0.065,-0.793,-1.526,0.885,66.667,500895.000,1.000
0.134,3.311,6.130,4.336,12.001,5.842,10.652,16.404,0.016,0.989,-0.063,-0.763,-1.678,0.946,66.667,500896.000,1.000
0.897,3.142,6.248,4.604,10.582,4.457,11.015,15.275,0.016,0.987,-0.063,-0.732,-1.678,0.916,66.667,500897.000,1.000
2.152,2.975,6.363,5.184,9.559,3.481,11.688,13.268,0.016,0.987,-0.065,-0.580,-1.678,0.885,66.667,500898.000,1.000
3.779,2.979,6.603,5.992,8.947,3.069,10.785,10.541,0.016,0.986,-0.063,-0.519,-1.617,0.793,66.667,500899.000,1.000
5.497,3.317,7.092,6.911,8.691,3.236,7.862,8.022,0.017,0.985,-0.064,-0.305,-1.740,0.763,66.667,500900.000,1.000
7.034,3.993,7.852,7.804,8.690,3.715,4.086,6.584,0.018,0.986,-0.064,-0.366,-1.678,0.671,66.667,500901.000,1.000
8.286,4.785,8.781,8.480,8.720,3.982,0.950,6.334,0.018,0.984,-0.063,-0.092,-1.678,0.702,66.667,500902.000,1.000
9.450,5.542,9.869,8.911,8.708,3.746,-0.303,7.052,0.019,0.984,-0.063,0.092,-1.556,0.763,66.667,500903.000,1.000
10.933,6.456,11.306,9.357,8.943,3.347,0.946,8.576,0.018,0.981,-0.063,0.214,-1.495,0.824,66.667,500904.000,1.000
12.855,7.747,13.077,9.936,9.564,3.348,3.786,10.255,0.019,0.980,-0.065,0.305,-1.465,0.885,66.667,500905.000,1.000
14.736,9.130,14.630,10.248,10.082,3.802,6.008,10.868,0.020,0.979,-0.065,0.488,-1.465,0.793,66.667,500906.000,1.000
15.795,9.872,15.200,9.719,9.767,4.277,6.114,9.755,0.019,0.977,-0.066,0.702,-1.434,0.763,66.667,500907.000,1.000
15.525,9.405,14.383,8.181,8.378,4.452,4.682,7.522,0.021,0.979,-0.067,0.916,-1.312,0.793,66.667,500908.000,1.000
14.038,7.834,12.379,6.030,6.360,4.417,3.498,5.436,0.021,0.981,-0.064,1.068,-1.251,0.854,66.667,500909.000,1.000
11.961,5.861,9.836,3.966,4.486,4.487,3.757,4.469,0.019,0.978,-0.065,1.190,-1.221,0.885,66.667,500910.000,1.000
10.002,4.263,7.535,2.662,3.417,4.919,5.251,4.864,0.021,0.982,-0.064,1.404,-1.068,0.824,66.667,500911.000,1.000
8.486,3.405,6.052,2.468,3.462,5.718,7.036,6.280,0.022,0.982,-0.067,1.556,-1.007,0.885,66.667,500912.000,1.000
7.106,2.966,5.386,3.131,4.389,6.403,8.369,8.092,0.020,0.981,-0.070,1.648,-0.854,1.038,66.667,500913.000,1.000
5.051,1.985,4.741,3.736,5.319,6.028,8.873,9.562,0.020,0.982,-0.066,1.709,-0.793,1.099,66.667,500914.000,1.000
1.648,-0.553,2.922,3.176,5.039,3.743,8.164,9.833,0.019,0.983,-0.067,1.862,-0.732,1.068,66.667,500915.000,1.000
-2.915,-4.812,-0.701,0.978,2.863,-0.385,5.956,8.272,0.020,0.986,-0.068,1.862,-0.793,1.160,66.667,500916.000,1.000
-7.508,-9.716,-5.495,-2.198,-0.608,-5.050,2.935,5.425,0.020,0.987,-0.070,1.892,-0.641,1.282,66.667,500917.000,1.000
-10.781,-13.649,-9.919,-4.973,-3.817,-8.432,0.665,3.046,0.020,0.990,-0.070,1.892,-0.580,1.312,66.667,500918.000,1.000
-12.045,-15.606,-12.606,-6.314,-5.527,-9.511,0.045,2.474,0.020,0.990,-0.068,1.709,-0.397,1.465,66.667,500919.000,1.000
-11.611,-15.709,-13.157,-6.162,-5.617,-8.678,0.724,3.590,0.020,0.993,-0.072,1.770,-0.397,1.465,66.667,500920.000,1.000
-10.494,-14.876,-12.186,-5.252,-4.828,-7.239,1.989,5.381,0.018,0.993,-0.072,1.678,-0.366,1.556,66.667,500921.000,1.000
-9.873,-14.234,-10.911,-4.626,-4.291,-6.658,2.920,6.458,0.017,0.994,-0.073,1.556,-0.397,1.556,66.667,500922.000,1.000
-10.486,-14.504,-10.477,-5.098,-5.041,-7.856,2.248,5.560,0.017,0.994,-0.072,1.404,-0.397,1.587,66.667,500923.000,1.000
-12.145,-15.485,-11.159,-6.664,-7.161,-10.437,-0.145,2.803,0.016,0.996,-0.070,1.129,-0.366,1.587,66.667,500924.000,1.000
-13.857,-16.218,-12.179,-8.456,-9.547,-12.813,-2.471,-0.227,0.017,0.997,-0.071,0.946,-0.427,1.678,66.667,500925.000,1.000
-14.555,-15.834,-12.464,-9.447,-10.865,-13.590,-3.040,-2.091,0.018,0.997,-0.070,0.763,-0.336,1.587,66.667,500926.000,1.000
-13.736,-14.174,-11.476,-9.126,-10.553,-12.618,-2.054,-2.485,0.014,0.996,-0.069,0.549,-0.305,1.495,66.667,500927.000,1.000
-11.548,-11.640,-9.405,-7.638,-8.978,-10.638,-1.003,-2.098,0.016,0.996,-0.070,0.427,-0.366,1.434,66.667,500928.000,1.000
-8.553,-8.761,-6.880,-5.586,-6.984,-8.416,-1.162,-2.124,0.013,0.998,-0.070,0.305,-0.397,1.373,66.667,500929.000,1.000
-5.418,-5.921,-4.537,-3.651,-5.287,-6.367,-2.578,-3.226,0.013,0.996,-0.068,0.061,-0.427,1.434,66.667,500930.000,1.000
-2.583,-3.248,-2.655,-2.215,-4.089,-4.616,-4.094,-4.814,0.014,0.995,-0.068,0.061,-0.549,1.221,66.667,500931.000,1.000
-0.159,-0.771,-1.135,-1.298,-3.224,-3.228,-4.505,-5.785,0.015,0.993,-0.067,-0.214,-0.549,1.160,66.667,500932.000,1.000
1.921,1.389,0.252,-0.735,-2.455,-2.335,-3.643,-5.644,0.017,0.988,-0.072,-0.397,-0.641,1.160,66.667,500933.000,1.000
3.776,3.117,1.745,-0.212,-1.479,-1.880,-2.113,-4.455,0.018,0.986,-0.072,-0.458,-0.641,1.190,66.667,500934.000,1.000
5.545,4.535,3.551,0.665,0.113,-1.386,-0.212,-2.166,0.021,0.985,-0.070,-0.519,-0.610,1.190,66.667,500935.000,1.000
7.238,5.940,5.688,2.068,2.508,-0.252,2.284,1.291,0.020,0.985,-0.073,-0.397,-0.610,1.099,66.667,500936.000,1.000
8.585,7.436,7.763,3.660,5.209,1.617,4.931,5.078,0.020,0.987,-0.073,-0.366,-0.549,1.099,66.667,500937.000,1.000
9.186,8.679,9.048,4.760,7.125,3.545,6.058,7.335,0.017,0.986,-0.070,-0.275,-0.610,1.129,66.667,500938.000,1.000
8.964,9.152,9.052,4.985,7.479,4.639,4.356,6.746,0.019,0.986,-0.071,-0.214,-0.641,1.129,66.667,500939.000,1.000
8.410,8.678,8.069,4.671,6.571,4.587,0.628,4.126,0.018,0.984,-0.074,-0.183,-0.519,1.312,66.667,500940.000,1.000
8.244,7.543,6.988,4.559,5.489,3.785,-2.712,1.884,0.020,0.983,-0.074,-0.031,-0.549,1.373,66.667,500941.000,1.000
8.785,6.094,6.447,5.029,5.036,2.723,-3.771,1.678,0.022,0.982,-0.070,0.061,-0.580,1.404,66.667,500942.000,1.000
9.690,4.404,6.309,5.736,5.073,1.498,-2.537,3.027,0.018,0.983,-0.069,0.122,-0.488,1.434,66.667,500943.000,1.000
10.231,2.382,5.955,5.995,4.871,-0.050,-0.362,4.337,0.016,0.984,-0.068,0.183,-0.519,1.404,66.667,500944.000,1.000
9.638,-0.032,4.776,5.275,3.764,-2.037,1.171,4.436,0.013,0.985,-0.067,0.061,-0.641,1.282,66.667,500945.000,1.000
7.369,-2.821,2.435,3.435,1.556,-4.366,1.063,3.008,0.010,0.985,-0.069,0.061,-0.580,1.312,66.667,500946.000,1.000
3.467,-5.803,-0.936,0.811,-1.333,-6.634,-0.546,0.420,0.009,0.985,-0.072,0.183,-0.702,0.946,66.667,500947.000,1.000
-1.314,-8.616,-4.736,-1.917,-4.144,-8.326,-2.597,-2.692,0.011,0.984,-0.071,0.244,-0.885,0.793,66.667,500948.000,1.000
-5.919,-10.913,-8.219,-4.110,-6.266,-9.180,-3.961,-5.867,0.014,0.984,-0.072,0.275,-1.038,0.702,66.667,500949.000,1.000
-9.574,-12.587,-10.887,-5.484,-7.495,-9.372,-4.151,-8.893,0.016,0.985,-0.071,0.427,-1.038,0.732,66.667,500950.000,1.000
-12.008,-13.792,-12.624,-6.090,-7.985,-9.384,-3.741,-11.549,0.018,0.987,-0.067,0.366,-1.129,0.702,66.667,500951.000,1.000
-13.266,-14.712,-13.501,-6.069,-8.002,-9.607,-3.774,-13.279,0.018,0.990,-0.069,0.305,-1.068,0.732,66.667,500952.000,1.000
-13.527,-15.327,-13.586,-5.560,-7.706,-9.971,-4.429,-13.341,0.020,0.992,-0.068,0.275,-1.038,0.610,66.667,500953.000,1.000
-13.168,-15.457,-13.031,-4.871,-7.250,-10.074,-5.103,-11.783,0.020,0.993,-0.068,0.214,-1.099,0.763,66.667,500954.000,1.000
-12.844,-15.063,-12.290,-4.573,-7.014,-9.669,-5.872,-10.062,0.019,0.992,-0.071,0.183,-1.160,0.854,66.667,500955.000,1.000
-13.271,-14.406,-12.002,-5.187,-7.411,-8.821,-7.628,-9.902,0.019,0.992,-0.069,0.061,-1.068,0.946,66.667,500956.000,1.000
-14.793,-13.897,-12.558,-6.766,-8.453,-7.745,-10.616,-11.588,0.018,0.992,-0.072,0.092,-1.068,1.038,66.667,500957.000,1.000
-17.159,-13.797,-13.844,-8.876,-9.744,-6.741,-13.898,-14.014,0.019,0.989,-0.071,0.000,-1.007,1.160,66.667,500958.000,1.000
-19.627,-14.046,-15.301,-10.876,-10.816,-6.143,-16.342,-15.967,0.018,0.991,-0.071,0.000,-1.007,1.190,66.667,500959.000,1.000
-21.317,-14.348,-16.237,-12.208,-11.355,-6.087,-17.250,-16.701,0.018,0.993,-0.071,0.061,-1.007,1.221,66.667,500960.000,1.000
-21.658,-14.465,-16.253,-12.688,-11.325,-6.436,-16.306,-15.925,0.016,0.992,-0.069,0.122,-1.099,1.343,66.667,500961.000,1.000
-20.652,-14.339,-15.411,-12.555,-10.954,-6.917,-13.697,-13.870,0.016,0.991,-0.069,0.000,-1.068,1.373,66.667,500962.000,1.000
-18.731,-13.902,-13.960,-12.127,-10.417,-7.170,-10.129,-11.079,0.016,0.991,-0.069,-0.031,-1.068,1.404,66.667,500963.000,1.000
-16.399,-12.961,-12.054,-11.505,-9.642,-6.902,-6.716,-8.193,0.017,0.992,-0.068,-0.122,-1.068,1.373,66.667,500964.000,1.000
-14.053,-11.468,-9.861,-10.720,-8.659,-6.229,-4.903,-6.078,0.017,0.992,-0.070,-0.153,-1.068,1.434,66.667,500965.000,1.000
-12.018,-9.747,-7.781,-9.935,-7.812,-5.609,-5.583,-5.471,0.019,0.992,-0.069,-0.183,-1.068,1.434,66.667,500966.000,1.000
-10.573,-8.273,-6.381,-9.371,-7.458,-5.310,-7.900,-6.290,0.020,0.991,-0.068,-0.061,-1.099,1.434,66.667,500967.000,1.000
-9.902,-7.305,-6.116,-9.127,-7.702,-5.219,-9.732,-7.673,0.021,0.989,-0.067,0.000,-1.038,1.495,66.667,500968.000,1.000
-10.027,-6.813,-7.044,-9.135,-8.424,-5.173,-9.587,-8.560,0.021,0.989,-0.069,0.061,-0.977,1.343,66.667,500969.000,1.000
-10.720,-6.648,-8.693,-9.223,-9.353,-5.188,-7.757,-8.368,0.021,0.990,-0.068,0.031,-0.946,1.251,66.667,500970.000,1.000
-11.410,-6.547,-10.115,-9.159,-10.096,-5.280,-5.599,-7.424,0.022,0.988,-0.067,0.061,-0.763,1.404,66.667,500971.000,1.000
-11.347,-6.127,-10.257,-8.668,-10.280,-5.292,-3.984,-6.555,0.026,0.987,-0.070,0.092,-0.732,1.343,66.667,500972.000,1.000
-10.143,-5.203,-8.726,-7.655,-9.925,-5.156,-3.040,-6.382,0.026,0.987,-0.069,0.153,-0.519,1.343,66.667,500973.000,1.000
-8.096,-4.093,-6.216,-6.422,-9.588,-5.155,-3.097,-7.215,0.023,0.986,-0.068,0.092,-0.366,1.190,66.667,500974.000,1.000
-5.807,-3.284,-3.862,-5.380,-9.692,-5.548,-4.423,-8.851,0.022,0.985,-0.065,0.244,-0.336,1.099,66.667,500975.000,1.000
-3.573,-2.744,-2.185,-4.555,-9.784,-5.989,-6.039,-10.256,0.021,0.987,-0.068,0.244,-0.244,1.129,66.667,500976.000,1.000
-1.367,-1.915,-0.913,-3.669,-8.998,-5.744,-6.413,-10.325,0.020,0.987,-0.068,0.397,-0.275,1.160,66.667,500977.000,1.000
0.762,-0.421,0.354,-2.591,-7.113,-4.472,-5.221,-8.824,0.018,0.986,-0.066,0.488,-0.214,1.190,66.667,500978.000,1.000
2.492,1.475,1.649,-1.446,-4.694,-2.448,-3.302,-6.181,0.018,0.986,-0.070,0.519,-0.183,1.221,66.667,500979.000,1.000
3.401,3.054,2.645,-0.459,-2.577,-0.279,-1.724,-3.208,0.015,0.987,-0.068,0.549,-0.153,1.129,66.667,500980.000,1.000
3.295,3.670,2.928,0.129,-1.436,1.463,-1.332,-0.974,0.014,0.986,-0.071,0.610,-0.214,1.129,66.667,500981.000,1.000
2.386,3.194,2.315,0.166,-1.464,2.578,-2.047,-0.001,0.013,0.986,-0.069,0.763,-0.336,1.038,66.667,500982.000,1.000
1.108,1.987,0.929,-0.356,-2.396,3.162,-2.773,-0.021,0.012,0.989,-0.069,0.854,-0.549,1.007,66.667,500983.000,1.000
-0.240,0.507,-0.993,-1.370,-3.865,3.214,-2.601,-0.757,0.011,0.988,-0.069,0.885,-0.732,0.977,66.667,500984.000,1.000
-1.617,-0.984,-3.234,-2.736,-5.568,2.572,-1.780,-2.239,0.012,0.989,-0.069,0.916,-0.854,1.038,66.667,500985.000,1.000
-2.997,-2.349,-5.504,-4.138,-7.114,1.254,-1.265,-4.423,0.011,0.990,-0.067,0.946,-1.007,1.129,66.667,500986.000,1.000
-4.109,-3.318,-7.321,-5.067,-7.897,-0.282,-1.489,-6.815,0.010,0.989,-0.070,0.916,-1.068,1.007,66.667,500987.000,1.000
-4.521,-3.450,-8.130,-5.056,-7.327,-1.317,-1.916,-8.489,0.011,0.988,-0.067,0.824,-1.282,1.068,66.667,500988.000,1.000
-3.870,-2.355,-7.510,-3.916,-5.145,-1.221,-1.706,-8.496,0.011,0.989,-0.066,0.824,-1.404,1.099,66.667,500989.000,1.000
-2.078,-0.019,-5.427,-1.844,-1.680,0.201,-0.489,-6.466,0.011,0.989,-0.065,0.793,-1.465,1.099,66.667,500990.000,1.000
0.401,2.891,-2.518,0.489,2.030,2.357,1.253,-3.070,0.013,0.989,-0.067,0.824,-1.617,1.190,66.667,500991.000,1.000
2.659,5.213,0.078,2.113,4.642,4.057,2.522,0.253,0.015,0.989,-0.065,0.793,-1.740,1.190,66.667,500992.000,1.000
3.903,6.006,1.416,2.331,5.350,4.303,2.698,2.190,0.016,0.990,-0.068,0.793,-1.801,1.129,66.667,500993.000,1.000
4.041,5.170,1.401,1.229,4.432,3.004,2.155,2.343,0.017,0.989,-0.067,0.732,-1.923,1.129,66.667,500994.000,1.000
3.777,3.536,0.889,-0.277,3.145,1.161,2.186,1.571,0.017,0.988,-0.069,0.732,-1.892,1.160,66.667,500995.000,1.000
4.042,2.380,1.049,-0.983,2.982,0.332,4.139,1.436,0.017,0.989,-0.068,0.702,-2.014,1.251,66.667,500996.000,1.000
5.168,2.547,2.382,-0.293,4.569,1.493,8.242,2.761,0.020,0.988,-0.072,0.641,-2.014,1.099,66.667,500997.000,1.000
6.621,3.767,4.277,1.253,7.041,4.174,12.999,4.659,0.022,0.988,-0.070,0.488,-1.984,1.099,66.667,500998.000,1.000
7.574,4.915,5.575,2.442,8.631,6.794,15.815,5.268,0.023,0.989,-0.068,0.397,-1.770,1.007,66.667,500999.000,1.000
7.708,5.049,5.538,2.432,8.038,7.918,14.847,3.580,0.023,0.987,-0.070,0.427,-1.648,1.007,66.667,501000.000,1.000
7.390,4.039,4.299,1.286,5.222,7.077,10.243,0.277,0.025,0.988,-0.069,0.397,-1.678,0.885,66.667,501001.000,1.000
7.227,2.381,2.581,-0.353,1.131,4.656,3.531,-3.254,0.024,0.989,-0.069,0.366,-1.526,0.793,66.667,501002.000,1.000
7.643,0.833,1.306,-1.725,-2.783,1.620,-3.245,-5.887,0.023,0.988,-0.069,0.366,-1.373,0.793,66.667,501003.000,1.000
8.734,0.153,1.248,-2.228,-5.060,-0.811,-8.103,-7.126,0.023,0.987,-0.069,0.366,-1.251,0.793,66.667,501004.000,1.000
10.263,0.727,2.619,-1.684,-5.006,-1.814,-10.055,-7.441,0.025,0.989,-0.068,0.305,-1.068,0.763,66.667,501005.000,1.000
11.898,2.419,5.047,-0.292,-2.945,-1.350,-9.287,-7.624,0.025,0.988,-0.066,0.275,-0.977,0.732,66.667,501006.000,1.000
13.544,4.810,8.011,1.669,0.261,0.095,-6.687,-7.790,0.024,0.989,-0.068,0.275,-0.854,0.793,66.667,501007.000,1.000
15.250,7.376,11.070,3.878,3.652,1.891,-3.671,-7.645,0.021,0.989,-0.072,0.244,-0.671,0.763,66.667,501008.000,1.000
16.896,9.601,13.806,5.932,6.448,3.554,-1.292,-6.823,0.020,0.988,-0.069,0.244,-0.671,0.824,66.667,501009.000,1.000
18.117,11.157,15.789,7.423,8.191,4.835,0.595,-4.943,0.019,0.992,-0.071,0.183,-0.519,0.946,66.667,501010.000,1.000
18.476,11.956,16.599,7.944,8.602,5.535,2.326,-2.392,0.019,0.990,-0.071,0.153,-0.427,0.977,66.667,501011.000,1.000
17.744,12.126,16.028,7.249,7.643,5.549,3.358,-0.453,0.016,0.990,-0.070,0.092,-0.427,0.946,66.667,501012.000,1.000
16.149,12.027,14.357,5.603,5.846,5.150,2.896,0.013,0.015,0.990,-0.069,0.031,-0.366,1.007,66.667,501013.000,1.000
14.228,12.075,12.248,3.729,4.185,4.963,1.078,-0.650,0.014,0.990,-0.065,-0.031,-0.366,1.068,66.667,501014.000,1.000
12.303,12.380,10.197,2.257,3.355,5.472,-0.793,-1.505,0.014,0.990,-0.068,-0.061,-0.427,1.099,66.667,501015.000,1.000
10.205,12.599,8.172,1.282,3.218,6.556,-1.374,-1.995,0.015,0.989,-0.069,0.061,-0.366,1.221,66.667,501016.000,1.000
7.569,12.174,5.809,0.445,2.977,7.546,-0.490,-2.299,0.013,0.989,-0.068,0.000,-0.458,1.129,66.667,501017.000,1.000
4.301,10.698,2.835,-0.670,1.865,7.733,0.994,-2.926,0.015,0.989,-0.069,0.000,-0.427,1.190,66.667,501018.000,1.000
0.763,8.212,-0.649,-2.204,-0.301,6.844,2.270,-4.039,0.015,0.989,-0.066,0.031,-0.549,1.373,66.667,501019.000,1.000
-2.418,5.325,-4.124,-3.913,-3.027,5.126,3.222,-5.070,0.014,0.986,-0.067,-0.061,-0.580,1.404,66.667,501020.000,1.000
-4.704,2.973,-6.861,-5.280,-5.467,3.079,3.892,-5.012,0.014,0.986,-0.068,0.061,-0.641,1.465,66.667,501021.000,1.000
-5.898,1.892,-8.266,-5.819,-6.893,1.209,3.706,-3.529,0.016,0.986,-0.070,0.214,-0.671,1.373,66.667,501022.000,1.000
-6.194,2.177,-8.205,-5.429,-7.038,-0.077,1.869,-1.618,0.016,0.988,-0.070,0.183,-0.671,1.343,66.667,501023.000,1.000
-6.039,3.329,-7.038,-4.384,-6.034,-0.494,-1.343,-0.446,0.018,0.988,-0.068,0.092,-0.671,1.312,66.667,501024.000,1.000
-5.864,4.754,-5.343,-3.006,-4.101,0.148,-4.226,0.075,0.019,0.987,-0.070,0.214,-0.641,1.373,66.667,501025.000,1.000
-5.878,6.036,-3.689,-1.576,-1.575,1.766,-5.105,0.691,0.021,0.988,-0.069,0.183,-0.549,1.373,66.667,501026.000,1.000
-6.140,6.822,-2.603,-0.484,0.815,3.668,-3.908,1.346,0.018,0.988,-0.069,0.244,-0.488,1.373,66.667,501027.000,1.000
-6.695,6.801,-2.409,-0.082,2.186,4.813,-1.850,1.367,0.021,0.987,-0.070,0.366,-0.458,1.312,66.667,501028.000,1.000
-7.569,5.883,-3.061,-0.411,2.077,4.538,-0.191,0.466,0.019,0.988,-0.070,0.366,-0.366,1.343,66.667,501029.000,1.000
-8.691,4.182,-4.297,-1.290,0.557,2.851,0.324,-1.226,0.020,0.989,-0.070,0.397,-0.366,1.404,66.667,501030.000,1.000
-9.832,1.955,-5.803,-2.454,-1.833,0.360,-0.090,-3.203,0.021,0.989,-0.067,0.397,-0.336,1.404,66.667,501031.000,1.000
-10.630,-0.333,-7.173,-3.498,-4.127,-1.926,-0.166,-4.413,0.021,0.990,-0.066,0.336,-0.183,1.343,66.667,501032.000,1.000
-10.835,-2.187,-8.080,-4.070,-5.441,-3.268,0.939,-4.026,0.020,0.990,-0.068,0.427,-0.122,1.343,66.667,501033.000,1.000
-10.540,-3.424,-8.522,-4.148,-5.577,-3.789,2.472,-2.313,0.021,0.990,-0.073,0.427,-0.092,1.343,66.667,501034.000,1.000
-10.018,-4.147,-8.644,-3.924,-4.910,-4.118,3.178,-0.268,0.020,0.988,-0.072,0.244,0.000,1.373,66.667,501035.000,1.000
-9.371,-4.455,-8.370,-3.471,-3.812,-4.629,3.109,1.523,0.021,0.989,-0.071,0.336,0.031,1.251,66.667,501036.000,1.000
-8.392,-4.330,-7.353,-2.586,-2.294,-5.119,3.955,3.577,0.020,0.990,-0.068,0.397,0.000,1.312,66.667,501037.000,1.000
-6.732,-3.725,-5.305,-1.031,-0.244,-5.101,7.258,6.716,0.021,0.989,-0.067,0.366,0.031,1.312,66.667,501038.000,1.000
-4.319,-2.773,-2.489,0.900,1.852,-4.452,11.799,9.984,0.020,0.989,-0.067,0.366,0.183,1.251,66.667,501039.000,1.000
-1.665,-1.923,0.164,2.209,2.695,-3.839,13.410,10.220,0.020,0.990,-0.068,0.427,0.183,1.190,66.667,501040.000,1.000
0.446,-1.588,1.742,1.968,1.232,-4.177,8.292,4.880,0.019,0.988,-0.073,0.427,0.214,1.282,66.667,501041.000,1.000
1.681,-1.584,2.201,0.316,-2.061,-5.521,-3.163,-4.880,0.020,0.987,-0.073,0.427,0.275,1.190,66.667,501042.000,1.000
2.488,-1.095,2.439,-1.442,-5.185,-6.716,-15.747,-14.173,0.021,0.989,-0.069,0.397,0.366,1.129,66.667,501043.000,1.000
3.596,0.567,3.436,-1.867,-6.136,-6.411,-22.937,-17.738,0.018,0.988,-0.068,0.519,0.305,1.160,66.667,501044.000,1.000
5.123,3.115,5.263,-0.697,-4.675,-4.502,-21.952,-14.357,0.016,0.989,-0.069,0.458,0.275,1.190,66.667,501045.000,1.000
6.442,5.357,7.051,1.036,-2.418,-2.284,-15.498,-7.849,0.015,0.989,-0.069,0.610,0.214,1.160,66.667,501046.000,1.000
7.026,6.269,8.023,2.290,-1.021,-1.040,-8.447,-3.079,0.016,0.986,-0.069,0.641,0.031,1.190,66.667,501047.000,1.000
7.161,5.895,8.284,3.030,-0.665,-0.900,-3.761,-1.888,0.016,0.988,-0.071,0.641,0.122,1.129,66.667,501048.000,1.000
7.628,5.195,8.565,3.885,-0.372,-1.137,-1.651,-2.987,0.017,0.988,-0.069,0.641,-0.031,1.129,66.667,501049.000,1.000
8.807,5.130,9.383,5.208,0.698,-1.082,-1.017,-4.161,0.017,0.987,-0.068,0.671,-0.092,1.190,66.667,501050.000,1.000
10.238,5.917,10.518,6.653,2.441,-0.617,-0.843,-4.013,0.015,0.984,-0.069,0.702,-0.183,1.221,66.667,501051.000,1.000
11.071,7.064,11.256,7.567,4.088,0.031,-0.615,-2.383,0.015,0.988,-0.068,0.702,-0.275,1.160,66.667,501052.000,1.000
10.773,7.976,11.059,7.636,5.038,0.814,0.091,0.277,0.016,0.989,-0.068,0.824,-0.366,1.099,66.667,501053.000,1.000
9.378,8.408,9.905,7.081,5.340,2.016,1.986,3.678,0.014,0.988,-0.070,0.763,-0.488,1.221,66.667,501054.000,1.000
7.308,8.448,8.191,6.367,5.487,3.879,5.781,7.767,0.014,0.987,-0.072,0.763,-0.549,1.251,66.667,501055.000,1.000
5.152,8.320,6.496,5.849,5.910,6.205,11.352,12.187,0.016,0.990,-0.069,0.763,-0.641,1.251,66.667,501056.000,1.000
3.459,8.210,5.295,5.597,6.581,8.401,17.032,15.865,0.015,0.989,-0.069,0.732,-0.763,1.160,66.667,501057.000,1.000
2.490,8.152,4.706,5.362,6.997,9.849,20.067,17.250,0.017,0.988,-0.071,0.702,-0.732,1.373,66.667,501058.000,1.000
2.086,8.030,4.506,4.784,6.630,10.242,18.489,15.327,0.017,0.989,-0.069,0.549,-0.763,1.343,66.667,501059.000,1.000
1.874,7.725,4.411,3.796,5.516,9.720,12.757,10.727,0.017,0.987,-0.069,0.610,-0.763,1.343,66.667,501060.000,1.000
1.628,7.296,4.342,2.864,4.375,8.828,5.573,5.713,0.018,0.989,-0.072,0.641,-0.885,1.404,66.667,501061.000,1.000
1.335,6.963,4.385,2.654,4.082,8.187,0.140,2.780,0.019,0.991,-0.073,0.580,-0.824,1.373,66.667,501062.000,1.000
0.985,6.867,4.540,3.400,4.971,8.006,-1.661,3.034,0.021,0.990,-0.070,0.397,-0.854,1.312,66.667,501063.000,1.000
0.482,6.896,4.626,4.695,6.653,8.008,0.027,5.668,0.019,0.990,-0.070,0.336,-0.793,1.312,66.667,501064.000,1.000
-0.220,6.777,4.424,5.856,8.380,7.819,3.621,8.913,0.021,0.988,-0.072,0.244,-0.854,1.282,66.667,501065.000,1.000
-1.037,6.284,3.869,6.399,9.571,7.374,7.532,11.635,0.020,0.988,-0.071,0.244,-0.824,1.404,66.667,501066.000,1.000
-1.881,5.328,3.094,6.197,10.072,6.928,11.321,13.936,0.019,0.988,-0.069,0.122,-0.885,1.312,66.667,501067.000,1.000
-2.848,3.883,2.225,5.294,9.948,6.673,15.159,16.114,0.020,0.986,-0.069,0.092,-0.946,1.282,66.667,501068.000,1.000
-4.181,1.943,1.163,3.710,9.133,6.425,18.346,17.436,0.021,0.986,-0.069,0.031,-0.977,1.160,66.667,501069.000,1.000
-5.985,-0.393,-0.316,1.506,7.487,5.832,19.186,16.544,0.020,0.986,-0.070,-0.031,-1.007,1.129,66.667,501070.000,1.000
-8.049,-2.868,-2.320,-1.079,5.070,4.741,16.319,12.871,0.019,0.986,-0.070,-0.061,-0.916,1.007,66.667,501071.000,1.000
-10.037,-5.227,-4.842,-3.768,2.106,3.222,9.707,7.021,0.019,0.986,-0.073,0.000,-0.977,1.038,66.667,501072.000,1.000
-11.675,-7.299,-7.768,-6.331,-1.141,1.444,0.786,0.291,0.018,0.986,-0.074,-0.092,-0.946,0.946,66.667,501073.000,1.000
-12.570,-8.808,-10.586,-8.335,-4.154,-0.213,-7.704,-5.417,0.019,0.986,-0.072,-0.061,-0.916,0.885,66.667,501074.000,1.000
-12.085,-9.285,-12.268,-9.036,-6.019,-1.097,-12.532,-7.816,0.019,0.986,-0.071,-0.031,-1.038,0.854,66.667,501075.000,1.000
-9.839,-8.444,-11.871,-7.907,-5.948,-0.698,-11.771,-5.590,0.019,0.983,-0.071,0.061,-1.099,0.854,66.667,501076.000,1.000
-6.386,-6.671,-9.448,-5.376,-4.175,0.651,-6.445,0.033,0.018,0.984,-0.072,0.031,-1.068,0.793,66.667,501077.000,1.000
-3.061,-4.895,-6.163,-2.705,-1.951,1.802,0.111,5.956,0.019,0.985,-0.069,0.092,-0.977,0.793,66.667,501078.000,1.000
-0.949,-3.763,-3.288,-0.879,-0.279,1.906,5.244,10.152,0.020,0.988,-0.071,-0.031,-1.038,0.763,66.667,501079.000,1.000
-0.125,-3.053,-1.274,0.134,1.009,1.292,8.881,13.102,0.018,0.989,-0.072,-0.031,-1.038,0.854,66.667,501080.000,1.000
-0.040,-2.153,0.004,0.815,2.473,0.834,11.694,15.622,0.018,0.989,-0.070,-0.092,-1.099,0.916,66.667,501081.000,1.000
-0.351,-0.980,0.503,1.140,3.842,0.747,12.491,16.356,0.019,0.990,-0.072,-0.244,-1.068,1.038,66.667,501082.000,1.000
-1.067,-0.080,0.043,0.687,4.271,0.593,9.327,13.048,0.017,0.990,-0.070,-0.305,-1.038,1.007,66.667,501083.000,1.000
-2.090,0.100,-1.121,-0.559,3.531,0.195,2.684,5.824,0.016,0.992,-0.069,-0.305,-1.068,0.977,66.667,501084.000,1.000
-2.993,-0.333,-2.241,-1.936,2.366,-0.047,-4.086,-2.160,0.015,0.992,-0.068,-0.336,-1.129,0.977,66.667,501085.000,1.000
-3.252,-0.880,-2.552,-2.566,1.893,0.456,-7.226,-7.089,0.017,0.990,-0.071,-0.397,-1.129,1.038,66.667,501086.000,1.000
-2.654,-1.071,-1.776,-2.003,2.761,1.941,-5.286,-7.124,0.019,0.990,-0.070,-0.397,-1.190,1.007,66.667,501087.000,1.000
-1.584,-0.834,-0.373,-0.617,4.536,3.847,-0.275,-3.494,0.020,0.990,-0.070,-0.458,-1.190,1.099,66.667,501088.000,1.000
-0.899,-0.615,0.652,0.600,5.886,4.966,3.753,0.554,0.021,0.990,-0.066,-0.458,-1.160,1.099,66.667,501089.000,1.000
-1.383,-1.032,0.419,0.763,5.598,4.298,3.709,2.119,0.020,0.989,-0.067,-0.458,-1.160,1.129,66.667,501090.000,1.000
-3.164,-2.319,-1.167,-0.239,3.564,1.851,-0.551,0.469,0.019,0.986,-0.068,-0.458,-1.160,1.068,66.667,501091.000,1.000
-5.574,-4.149,-3.366,-1.762,0.796,-1.404,-6.511,-2.919,0.017,0.986,-0.070,-0.488,-1.068,1.160,66.667,501092.000,1.000
-7.589,-5.967,-5.199,-3.013,-1.448,-4.263,-10.896,-5.802,0.018,0.986,-0.069,-0.397,-1.099,1.190,66.667,501093.000,1.000
-8.500,-7.377,-6.102,-3.650,-2.530,-5.987,-11.732,-6.744,0.020,0.985,-0.065,-0.275,-1.068,1.129,66.667,501094.000,1.000
-8.218,-8.244,-6.102,-3.833,-2.649,-6.503,-9.112,-5.720,0.021,0.985,-0.068,-0.244,-0.977,1.160,66.667,501095.000,1.000
-6.992,-8.498,-5.477,-3.772,-2.332,-6.114,-4.320,-3.452,0.020,0.986,-0.070,-0.122,-0.916,1.160,66.667,501096.000,1.000
-4.977,-7.961,-4.353,-3.365,-1.844,-5.117,1.359,-0.434,0.021,0.988,-0.068,-0.183,-0.885,1.190,66.667,501097.000,1.000
-2.216,-6.538,-2.774,-2.386,-1.240,-3.841,6.657,2.882,0.023,0.989,-0.067,-0.122,-0.824,1.282,66.667,501098.000,1.000
1.024,-4.594,-1.046,-0.982,-0.826,-2.883,9.770,5.125,0.021,0.991,-0.069,-0.183,-0.793,1.373,66.667,501099.000,1.000
4.065,-2.908,0.212,0.222,-1.172,-2.918,8.853,4.364,0.020,0.988,-0.070,-0.122,-0.732,1.434,66.667,501100.000,1.000
6.091,-2.182,0.443,0.560,-2.612,-4.228,3.321,0.037,0.017,0.989,-0.068,-0.092,-0.671,1.404,66.667,501101.000,1.000
6.584,-2.614,-0.464,-0.194,-4.829,-6.445,-5.263,-5.987,0.018,0.988,-0.070,-0.092,-0.702,1.312,66.667,501102.000,1.000
5.583,-3.754,-2.049,-1.651,-6.857,-8.539,-13.385,-10.573,0.018,0.987,-0.071,-0.122,-0.732,1.160,66.667,501103.000,1.000
3.618,-4.716,-3.486,-3.014,-7.568,-9.226,-17.349,-11.336,0.020,0.988,-0.070,0.031,-0.641,1.190,66.667,501104.000,1.000
1.412,-4.774,-4.084,-3.602,-6.452,-7.825,-15.699,-8.009,0.019,0.989,-0.070,0.061,-0.610,1.099,66.667,501105.000,1.000
-0.451,-3.881,-3.730,-3.287,-3.972,-4.753,-9.994,-2.556,0.021,0.990,-0.070,0.183,-0.702,1.099,66.667,501106.000,1.000
-1.619,-2.515,-2.790,-2.351,-1.055,-1.149,-3.254,2.336,0.020,0.991,-0.069,0.183,-0.671,1.068,66.667,501107.000,1.000
-1.853,-1.145,-1.623,-1.061,1.581,1.798,1.916,5.186,0.021,0.989,-0.070,0.122,-0.610,1.129,66.667,501108.000,1.000
-0.969,0.048,-0.272,0.480,3.648,3.338,4.212,6.193,0.021,0.984,-0.068,0.000,-0.519,1.129,66.667,501109.000,1.000
1.034,1.129,1.377,2.175,5.173,3.435,3.702,6.214,0.021,0.982,-0.069,0.061,-0.427,1.099,66.667,501110.000,1.000
3.854,2.232,3.269,3.812,6.300,2.681,1.398,5.790,0.021,0.978,-0.068,0.153,-0.458,1.129,66.667,501111.000,1.000
7.050,3.499,5.226,5.207,7.267,1.981,-1.107,5.350,0.022,0.978,-0.069,0.336,-0.488,1.160,66.667,501112.000,1.000
10.207,5.033,7.154,6.357,8.432,2.147,-2.006,5.645,0.021,0.979,-0.069,0.458,-0.366,1.129,66.667,501113.000,1.000
12.878,6.668,8.932,7.299,9.959,3.346,-0.492,7.128,0.021,0.982,-0.072,0.488,-0.305,1.221,66.667,501114.000,1.000
14.634,7.961,10.293,7.973,11.582,4.991,2.459,9.317,0.019,0.986,-0.071,0.641,-0.244,1.312,66.667,501115.000,1.000
15.273,8.524,10.981,8.306,12.849,6.322,5.130,11.237,0.021,0.990,-0.072,0.610,-0.092,1.404,66.667,501116.000,1.000
14.789,8.138,10.846,8.219,13.353,6.864,6.491,12.148,0.020,0.991,-0.070,0.519,-0.183,1.373,66.667,501117.000,1.000
13.288,6.794,9.880,7.648,12.918,6.589,6.839,12.091,0.021,0.991,-0.072,0.458,-0.061,1.526,66.667,501118.000,1.000
11.184,4.925,8.409,6.737,11.921,6.073,7.761,12.126,0.020,0.991,-0.069,0.458,-0.092,1.617,66.667,501119.000,1.000
9.189,3.375,7.038,5.766,11.036,6.117,10.523,13.249,0.020,0.992,-0.068,0.366,-0.153,1.648,66.667,501120.000,1.000
7.817,2.788,6.183,4.804,10.466,6.849,13.955,15.008,0.018,0.990,-0.069,0.336,-0.122,1.556,66.667,501121.000,1.000
7.106,3.204,5.867,3.805,9.919,7.676,15.516,16.166,0.016,0.992,-0.068,0.244,-0.214,1.556,66.667,501122.000,1.000
6.900,4.275,6.011,3.010,9.276,8.108,14.232,16.227,0.013,0.994,-0.070,0.214,-0.305,1.434,66.667,501123.000,1.000
7.045,5.468,6.475,2.732,8.511,7.972,10.743,15.083,0.010,0.994,-0.068,0.122,-0.366,1.251,66.667,501124.000,1.000
7.178,6.065,6.789,2.724,7.096,6.904,5.327,11.880,0.009,0.994,-0.070,-0.031,-0.549,0.946,66.667,501125.000,1.000
6.679,5.500,6.263,2.278,4.325,4.435,-2.046,5.778,0.010,0.994,-0.068,-0.061,-0.854,0.885,66.667,501126.000,1.000
5.007,3.806,4.518,0.935,0.251,0.768,-10.135,-2.407,0.010,0.994,-0.069,-0.183,-1.007,0.824,66.667,501127.000,1.000
1.970,1.496,1.677,-1.229,-4.238,-3.091,-16.524,-10.371,0.013,0.995,-0.068,-0.305,-1.129,0.580,66.667,501128.000,1.000
-2.262,-0.918,-1.835,-3.830,-8.126,-6.074,-19.383,-15.844,0.015,0.993,-0.070,-0.336,-1.312,0.519,66.667,501129.000,1.000
-7.125,-3.075,-5.410,-6.322,-10.657,-7.586,-18.351,-17.531,0.017,0.992,-0.070,-0.458,-1.404,0.488,66.667,501130.000,1.000
-11.642,-4.613,-8.283,-8.043,-11.369,-7.429,-14.086,-15.346,0.018,0.993,-0.069,-0.397,-1.495,0.580,66.667,501131.000,1.000
-14.823,-5.291,-9.896,-8.570,-10.442,-5.953,-8.074,-10.669,0.019,0.992,-0.068,-0.549,-1.556,0.610,66.667,501132.000,1.000
-16.268,-5.314,-10.348,-8.123,-8.972,-4.302,-2.828,-6.081,0.017,0.989,-0.068,-0.488,-1.556,0.763,66.667,501133.000,1.000
-16.239,-5.170,-10.223,-7.269,-8.229,-3.737,-0.536,-3.620,0.020,0.990,-0.069,-0.488,-1.556,0.824,66.667,501134.000,1.000
-15.234,-5.109,-10.006,-6.245,-8.487,-4.459,-0.838,-3.158,0.017,0.991,-0.069,-0.458,-1.587,0.916,66.667,501135.000,1.000
-13.661,-4.977,-9.774,-4.895,-9.014,-5.597,-1.208,-3.189,0.015,0.990,-0.067,-0.458,-1.587,1.007,66.667,501136.000,1.000
-11.753,-4.540,-9.323,-3.165,-9.083,-6.261,-0.020,-2.874,0.017,0.989,-0.068,-0.488,-1.648,0.977,66.667,501137.000,1.000
-9.579,-3.713,-8.458,-1.339,-8.620,-6.256,1.491,-2.762,0.016,0.988,-0.068,-0.458,-1.709,0.946,66.667,501138.000,1.000
-7.173,-2.585,-7.231,0.156,-8.030,-5.973,0.669,-3.969,0.015,0.988,-0.066,-0.397,-1.678,1.007,66.667,501139.000,1.000
-4.765,-1.401,-5.972,1.016,-7.739,-5.885,-3.472,-6.844,0.014,0.988,-0.067,-0.336,-1.740,1.099,66.667,501140.000,1.000
-2.803,-0.467,-5.053,1.219,-7.785,-6.016,-8.777,-10.162,0.017,0.987,-0.066,-0.397,-1.831,0.977,66.667,501141.000,1.000
-1.688,0.025,-4.674,0.999,-7.767,-5.831,-11.454,-11.733,0.019,0.988,-0.068,-0.305,-1.923,0.946,66.667,501142.000,1.000
-1.602,-0.049,-4.959,0.544,-7.396,-4.890,-9.407,-10.298,0.019,0.988,-0.068,-0.244,-1.892,0.916,66.667,501143.000,1.000
-2.527,-0.908,-6.106,-0.259,-7.085,-3.561,-4.291,-6.871,0.020,0.988,-0.069,-0.153,-1.892,0.824,66.667,501144.000,1.000
-4.262,-2.766,-8.263,-1.645,-7.661,-2.805,0.096,-3.787,0.018,0.988,-0.066,-0.061,-1.892,0.854,66.667,501145.000,1.000
-6.403,-5.550,-11.297,-3.612,-9.599,-3.344,0.951,-2.798,0.019,0.986,-0.068,0.000,-1.740,0.946,66.667,501146.000,1.000
-8.498,-8.826,-14.745,-5.882,-12.717,-5.240,-2.220,-4.438,0.021,0.987,-0.069,-0.031,-1.740,0.946,66.667,501147.000,1.000
-10.184,-11.927,-17.887,-7.968,-16.221,-7.884,-7.848,-8.068,0.020,0.985,-0.070,0.031,-1.617,0.854,66.667,501148.000,1.000
-11.207,-14.184,-19.968,-9.284,-18.951,-10.185,-13.207,-11.994,0.021,0.985,-0.068,0.122,-1.556,0.977,66.667,501149.000,1.000
-11.486,-15.255,-20.615,-9.539,-20.071,-11.201,-16.065,-14.594,0.020,0.983,-0.067,0.275,-1.556,0.885,66.667,501150.000,1.000
-11.115,-15.294,-20.006,-8.991,-19.585,-10.833,-16.009,-15.444,0.019,0.984,-0.068,0.336,-1.495,0.977,66.667,501151.000,1.000
-10.214,-14.710,-18.652,-8.189,-18.127,-9.748,-14.196,-15.076,0.018,0.983,-0.069,0.549,-1.282,0.916,66.667,501152.000,1.000
-8.947,-13.872,-17.203,-7.653,-16.480,-8.730,-12.067,-14.115,0.018,0.982,-0.069,0.610,-1.160,0.793,66.667,501153.000,1.000
-7.657,-13.017,-16.286,-7.744,-15.265,-8.208,-10.446,-12.961,0.020,0.983,-0.068,0.641,-1.038,0.946,66.667,501154.000,1.000
-6.722,-12.235,-16.155,-8.478,-14.817,-8.266,-9.633,-11.954,0.019,0.982,-0.067,0.763,-1.007,0.977,66.667,501155.000,1.000
-6.309,-11.518,-16.566,-9.446,-15.173,-8.815,-9.770,-11.534,0.020,0.982,-0.068,0.793,-1.038,0.885,66.667,501156.000,1.000
-6.444,-10.950,-17.124,-10.148,-16.186,-9.744,-10.941,-12.298,0.019,0.984,-0.069,0.854,-0.977,0.854,66.667,501157.000,1.000
-7.148,-10.751,-17.589,-10.365,-17.530,-10.920,-12.960,-14.648,0.019,0.985,-0.069,0.854,-0.916,0.854,66.667,501158.000,1.000
-8.296,-11.036,-17.757,-10.096,-18.601,-12.079,-14.940,-17.992,0.019,0.984,-0.071,0.854,-0.824,0.916,66.667,501159.000,1.000
-9.567,-11.700,-17.426,-9.409,-18.792,-12.973,-15.553,-20.677,0.020,0.987,-0.067,0.946,-0.763,0.916,66.667,501160.000,1.000
-10.668,-12.588,-16.646,-8.541,-18.053,-13.672,-14.232,-21.179,0.018,0.987,-0.069,0.854,-0.793,0.916,66.667,501161.000,1.000
-11.468,-13.573,-15.751,-7.900,-16.961,-14.466,-11.866,-19.291,0.016,0.988,-0.071,0.793,-0.824,1.007,66.667,501162.000,1.000
-11.883,-14.459,-15.047,-7.788,-16.223,-15.467,-10.124,-16.250,0.017,0.990,-0.072,0.671,-0.702,1.129,66.667,501163.000,1.000
-11.812,-15.000,-14.565,-8.188,-16.208,-16.478,-10.192,-13.898,0.017,0.991,-0.070,0.580,-0.702,1.221,66.667,501164.000,1.000
-11.277,-15.056,-14.129,-8.822,-16.744,-17.184,-11.774,-13.332,0.017,0.992,-0.069,0.519,-0.671,1.282,66.667,501165.000,1.000
-10.470,-14.586,-13.455,-9.265,-17.125,-17.241,-13.049,-13.907,0.016,0.994,-0.071,0.549,-0.671,1.221,66.667,501166.000,1.000
-9.621,-13.545,-12.261,-9.091,-16.562,-16.363,-12.232,-13.898,0.015,0.993,-0.068,0.397,-0.610,1.282,66.667,501167.000,1.000
-9.003,-12.001,-10.547,-8.215,-14.999,-14.672,-9.543,-12.547,0.015,0.993,-0.068,0.214,-0.793,1.221,66.667,501168.000,1.000
-8.985,-10.320,-8.768,-7.074,-13.295,-12.856,-7.046,-10.937,0.014,0.993,-0.070,0.092,-0.763,1.221,66.667,501169.000,1.000
-9.801,-9.003,-7.514,-6.308,-12.396,-11.650,-6.529,-10.611,0.014,0.993,-0.071,-0.153,-0.885,1.282,66.667,501170.000,1.000
-11.244,-8.374,-7.045,-6.276,-12.498,-11.220,-8.064,-12.010,0.013,0.993,-0.069,-0.275,-0.885,1.282,66.667,501171.000,1.000
-12.661,-8.388,-7.108,-6.838,-12.961,-11.107,-10.286,-14.297,0.013,0.993,-0.068,-0.336,-0.977,1.160,66.667,501172.000,1.000
-13.222,-8.561,-7.014,-7.371,-12.798,-10.598,-11.626,-16.082,0.012,0.994,-0.068,-0.458,-0.916,1.099,66.667,501173.000,1.000
-12.276,-8.185,-6.045,-7.110,-11.295,-9.111,-11.365,-16.329,0.014,0.993,-0.070,-0.458,-0.916,1.068,66.667,501174.000,1.000
-9.682,-6.827,-3.989,-5.695,-8.453,-6.482,-9.710,-14.816,0.013,0.993,-0.069,-0.549,-1.129,1.099,66.667,501175.000,1.000
-5.897,-4.681,-1.323,-3.492,-5.010,-3.094,-7.293,-12.077,0.015,0.991,-0.068,-0.641,-1.129,0.946,66.667,501176.000,1.000
-1.767,-2.468,1.124,-1.368,-2.051,0.181,-4.849,-9.210,0.015,0.986,-0.070,-0.763,-1.251,0.977,66.667,501177.000,1.000
1.832,-0.916,2.771,-0.082,-0.264,2.458,-2.844,-7.238,0.017,0.984,-0.068,-0.854,-1.282,0.977,66.667,501178.000,1.000
4.424,-0.123,3.736,0.338,0.706,3.619,-0.899,-6.031,0.018,0.984,-0.069,-0.732,-1.190,0.946,66.667,501179.000,1.000
6.084,0.500,4.660,0.558,1.952,4.421,1.812,-4.338,0.020,0.985,-0.072,-0.519,-1.190,0.946,66.667,501180.000,1.000
7.041,1.468,5.918,1.171,4.100,5.539,5.190,-1.325,0.021,0.986,-0.072,-0.366,-1.160,0.977,66.667,501181.000,1.000
7.336,2.642,7.201,2.204,6.735,6.896,8.149,2.594,0.020,0.987,-0.072,-0.305,-1.190,1.068,66.667,501182.000,1.000
6.898,3.408,7.816,3.259,8.945,7.936,9.869,6.320,0.016,0.987,-0.072,-0.458,-1.160,1.068,66.667,501183.000,1.000
5.688,3.069,7.155,3.731,9.888,8.000,10.046,8.516,0.017,0.986,-0.071,-0.427,-1.099,1.190,66.667,501184.000,1.000
3.881,1.330,5.149,3.145,9.189,6.781,8.760,8.205,0.021,0.985,-0.073,-0.275,-1.038,1.221,66.667,501185.000,1.000
2.091,-1.202,2.583,1.681,7.416,4.909,7.117,5.872,0.022,0.984,-0.071,-0.092,-1.007,1.404,66.667,501186.000,1.000
1.184,-3.260,0.663,0.128,5.838,3.622,6.756,3.342,0.022,0.985,-0.068,0.031,-0.885,1.465,66.667,501187.000,1.000
1.744,-3.840,0.176,-0.735,5.456,3.652,8.163,2.368,0.018,0.986,-0.068,0.092,-0.885,1.465,66.667,501188.000,1.000
3.811,-2.760,1.196,-0.471,6.540,4.857,10.683,3.862,0.016,0.986,-0.068,0.183,-0.824,1.465,66.667,501189.000,1.000
6.909,-0.589,3.280,0.947,8.699,6.598,13.472,7.473,0.012,0.988,-0.069,0.153,-0.793,1.251,66.667,501190.000,1.000
10.071,1.634,5.622,3.007,10.900,7.930,14.990,11.042,0.010,0.986,-0.070,0.153,-0.793,1.129,66.667,501191.000,1.000
12.201,2.936,7.386,4.863,11.985,8.029,13.304,11.787,0.010,0.987,-0.070,0.183,-1.007,1.038,66.667,501192.000,1.000
12.802,3.080,8.244,5.955,11.591,6.910,8.302,8.758,0.014,0.985,-0.069,0.305,-1.129,0.885,66.667,501193.000,1.000
12.222,2.627,8.500,6.297,10.313,5.353,2.194,3.511,0.015,0.986,-0.070,0.275,-1.129,0.916,66.667,501194.000,1.000
11.173,2.360,8.677,6.275,9.048,4.142,-2.621,-1.345,0.017,0.987,-0.071,0.336,-1.129,0.885,66.667,501195.000,1.000
10.211,2.740,9.096,6.310,8.428,3.607,-5.173,-3.825,0.019,0.990,-0.070,0.336,-1.068,0.793,66.667,501196.000,1.000
9.589,3.708,9.735,6.595,8.590,3.650,-5.668,-3.372,0.019,0.991,-0.073,0.244,-1.099,0.732,66.667,501197.000,1.000
9.317,4.843,10.396,7.051,9.275,3.948,-4.662,-0.675,0.019,0.994,-0.071,0.122,-0.977,0.732,66.667,501198.000,1.000
9.297,5.756,10.990,7.566,10.206,4.202,-2.618,3.110,0.019,0.993,-0.070,0.031,-1.068,0.916,66.667,501199.000,1.000
9.485,6.390,11.600,8.186,11.347,4.368,0.195,7.047,0.019,0.992,-0.068,-0.031,-0.916,1.007,66.667,501200.000,1.000
9.889,6.955,12.284,8.993,12.722,4.571,3.354,10.408,0.018,0.992,-0.070,-0.061,-0.854,1.099,66.667,501201.000,1.000
10.341,7.550,12.871,9.854,14.083,4.825,5.969,12.385,0.018,0.991,-0.072,-0.183,-0.885,1.190,66.667,501202.000,1.000
10.386,7.982,13.030,10.443,15.020,5.066,7.295,12.580,0.019,0.991,-0.069,-0.305,-0.824,1.282,66.667,501203.000,1.000
9.628,8.100,12.600,10.543,15.408,5.493,7.575,11.658,0.019,0.991,-0.070,-0.275,-0.824,1.404,66.667,501204.000,1.000
8.172,8.079,11.738,10.179,15.459,6.462,7.569,10.757,0.018,0.991,-0.069,-0.305,-0.824,1.556,66.667,501205.000,1.000
6.637,8.277,10.825,9.567,15.449,7.996,7.607,10.540,0.018,0.991,-0.068,-0.458,-0.793,1.617,66.667,501206.000,1.000
5.810,9.016,10.380,9.158,15.721,9.792,7.967,11.355,0.016,0.990,-0.068,-0.397,-0.854,1.648,66.667,501207.000,1.000
6.105,10.324,10.758,9.371,16.534,11.443,9.338,13.412,0.016,0.989,-0.070,-0.427,-0.885,1.648,66.667,501208.000,1.000
7.133,11.636,11.685,9.983,17.528,12.347,11.752,15.997,0.018,0.990,-0.067,-0.427,-0.763,1.648,66.667,501209.000,1.000
7.918,12.026,12.377,10.171,17.830,11.927,13.957,17.566,0.018,0.990,-0.071,-0.458,-0.763,1.648,66.667,501210.000,1.000
7.628,10.978,12.292,9.350,16.996,10.262,14.834,17.357,0.018,0.989,-0.072,-0.305,-0.732,1.801,66.667,501211.000,1.000
6.055,8.766,11.500,7.592,15.368,8.075,14.477,15.863,0.020,0.990,-0.070,-0.366,-0.763,1.709,66.667,501212.000,1.000
3.667,6.151,10.463,5.380,13.489,6.099,13.390,13.736,0.019,0.991,-0.070,-0.519,-0.671,1.740,66.667,501213.000,1.000
1.407,3.940,9.745,3.385,11.764,4.835,11.899,11.438,0.018,0.991,-0.068,-0.458,-0.702,1.678,66.667,501214.000,1.000
0.158,2.618,9.726,2.167,10.419,4.542,10.300,9.352,0.020,0.990,-0.068,-0.458,-0.702,1.587,66.667,501215.000,1.000
0.179,2.214,10.390,1.870,9.444,5.058,8.707,7.562,0.021,0.986,-0.069,-0.366,-0.580,1.709,66.667,501216.000,1.000
1.136,2.589,11.457,2.363,8.845,6.003,7.293,6.206,0.021,0.984,-0.068,-0.305,-0.610,1.526,66.667,501217.000,1.000
2.384,3.603,12.533,3.408,8.765,7.080,6.563,5.666,0.023,0.986,-0.068,-0.305,-0.580,1.404,66.667,501218.000,1.000
3.100,4.852,13.028,4.473,9.026,7.877,6.507,5.738,0.023,0.986,-0.069,-0.214,-0.580,1.373,66.667,501219.000,1.000
2.558,5.654,12.327,4.788,8.948,7.757,6.145,5.409,0.021,0.987,-0.069,-0.183,-0.519,1.404,66.667,501220.000,1.000
0.592,5.450,10.228,3.867,7.903,6.313,4.631,3.941,0.021,0.986,-0.068,-0.092,-0.519,1.221,66.667,501221.000,1.000
-2.229,4.120,7.107,1.879,5.826,3.767,2.238,1.602,0.021,0.986,-0.068,0.000,-0.519,1.190,66.667,501222.000,1.000
-4.887,2.054,3.777,-0.471,3.209,0.900,0.009,-0.757,0.020,0.984,-0.067,0.031,-0.488,1.160,66.667,501223.000,1.000
-6.339,0.034,1.211,-2.319,0.860,-1.267,-0.954,-2.276,0.018,0.985,-0.068,0.153,-0.580,1.129,66.667,501224.000,1.000
-5.870,-1.110,0.193,-2.989,-0.395,-1.915,0.104,-2.225,0.018,0.984,-0.067,0.244,-0.641,1.007,66.667,501225.000,1.000
-3.373,-1.024,0.898,-2.302,-0.227,-0.992,3.018,-0.414,0.017,0.984,-0.068,0.275,-0.702,0.885,66.667,501226.000,1.000
0.461,-0.118,2.699,-0.751,0.838,0.667,6.545,2.280,0.015,0.985,-0.067,0.305,-0.732,0.977,66.667,501227.000,1.000
4.355,0.759,4.498,0.749,1.778,1.992,9.221,4.384,0.017,0.987,-0.068,0.427,-0.732,0.763,66.667,501228.000,1.000
7.048,0.929,5.344,1.412,1.848,2.413,10.303,4.999,0.015,0.989,-0.066,0.366,-0.793,0.580,66.667,501229.000,1.000
7.843,0.223,4.837,0.955,0.956,1.985,9.833,4.283,0.014,0.989,-0.065,0.275,-0.916,0.641,66.667,501230.000,1.000
6.753,-1.070,3.182,-0.428,-0.502,1.132,8.178,2.909,0.015,0.990,-0.066,0.275,-0.946,0.671,66.667,501231.000,1.000
4.366,-2.400,1.036,-2.214,-1.883,0.479,5.896,1.530,0.015,0.991,-0.066,0.244,-1.099,0.580,66.667,501232.000,1.000
1.688,-3.072,-0.675,-3.594,-2.337,0.752,4.136,0.934,0.015,0.991,-0.065,0.244,-1.221,0.641,66.667,501233.000,1.000
-0.058,-2.412,-0.997,-3.644,-1.020,2.468,4.369,2.063,0.014,0.992,-0.065,0.275,-1.343,0.702,66.667,501234.000,1.000
0.069,-0.197,0.591,-1.877,2.177,5.387,6.825,5.062,0.014,0.991,-0.065,0.244,-1.434,0.671,66.667,501235.000,1.000
2.159,3.028,3.756,1.378,6.287,8.464,9.922,8.848,0.016,0.992,-0.064,0.122,-1.587,0.732,66.667,501236.000,1.000
5.429,6.246,7.514,5.250,9.962,10.640,12.177,12.205,0.014,0.989,-0.063,0.061,-1.617,0.854,66.667,501237.000,1.000
8.754,8.551,10.804,8.798,12.278,11.464,13.517,14.354,0.013,0.991,-0.064,-0.031,-1.678,0.793,66.667,501238.000,1.000
11.143,9.434,12.848,11.236,12.781,10.867,13.948,14.438,0.013,0.991,-0.064,-0.092,-1.862,0.824,66.667,501239.000,1.000
11.961,8.801,13.250,12.106,11.428,8.912,12.623,11.963,0.014,0.992,-0.066,-0.214,-1.892,0.732,66.667,501240.000,1.000
11.085,7.000,12.145,11.490,8.820,6.063,9.298,7.890,0.013,0.991,-0.067,-0.244,-1.984,0.885,66.667,501241.000,1.000
9.007,4.805,10.218,9.963,6.062,3.236,5.168,4.173,0.014,0.989,-0.065,-0.397,-2.197,0.793,66.667,501242.000,1.000
6.559,3.054,8.279,8.170,4.000,1.161,1.303,2.003,0.014,0.989,-0.064,-0.427,-2.228,0.916,66.667,501243.000,1.000
4.375,2.181,6.742,6.472,2.722,-0.106,-2.297,1.153,0.015,0.988,-0.064,-0.488,-2.350,0.946,66.667,501244.000,1.000
2.693,2.165,5.612,5.003,1.872,-0.870,-5.552,0.800,0.017,0.986,-0.065,-0.427,-2.411,1.068,66.667,501245.000,1.000
1.498,2.698,4.732,3.811,1.099,-1.354,-7.716,0.197,0.018,0.986,-0.063,-0.427,-2.411,1.068,66.667,501246.000,1.000
0.612,3.264,3.885,2.842,0.193,-1.664,-8.233,-1.054,0.017,0.986,-0.065,-0.427,-2.441,1.068,66.667,501247.000,1.000
-0.234,3.318,2.896,2.005,-0.837,-1.830,-7.344,-2.601,0.017,0.987,-0.065,-0.366,-2.411,1.007,66.667,501248.000,1.000
-1.242,2.600,1.792,1.332,-1.735,-1.816,-5.670,-3.358,0.019,0.988,-0.066,-0.244,-2.350,0.977,66.667,501249.000,1.000
-2.413,1.342,0.860,1.011,-2.157,-1.569,-3.498,-2.295,0.021,0.990,-0.069,-0.336,-2.350,1.007,66.667,501250.000,1.000
-3.480,0.168,0.505,1.281,-1.831,-1.023,-0.714,0.767,0.020,0.989,-0.065,-0.366,-2.319,1.068,66.667,501251.000,1.000
-3.996,-0.252,1.018,2.287,-0.642,-0.102,2.735,5.144,0.020,0.988,-0.068,-0.275,-2.228,1.007,66.667,501252.000,1.000
-3.504,0.467,2.466,4.022,1.368,1.260,6.658,10.036,0.020,0.989,-0.067,-0.244,-2.228,1.099,66.667,501253.000,1.000
-1.731,2.426,4.830,6.392,4.157,3.229,10.908,15.105,0.021,0.988,-0.066,-0.336,-2.075,0.946,66.667,501254.000,1.000
1.217,5.528,8.063,9.174,7.665,6.081,15.474,20.145,0.023,0.989,-0.064,-0.305,-1.984,0.977,66.667,501255.000,1.000
4.718,9.318,11.787,11.800,11.374,9.696,19.556,24.273,0.024,0.988,-0.068,-0.305,-1.923,1.007,66.667,501256.000,1.000
7.784,12.879,15.085,13.315,14.051,13.162,21.130,25.842,0.023,0.987,-0.068,-0.275,-1.709,0.916,66.667,501257.000,1.000
9.474,15.154,16.803,12.821,14.395,15.302,18.655,23.549,0.022,0.986,-0.066,-0.183,-1.617,0.885,66.667,501258.000,1.000
9.320,15.471,16.174,10.092,12.013,15.498,12.852,17.625,0.021,0.987,-0.065,-0.153,-1.404,0.977,66.667,501259.000,1.000
7.526,13.841,13.306,5.865,7.759,13.966,6.242,10.005,0.021,0.988,-0.066,-0.092,-1.312,0.885,66.667,501260.000,1.000
4.910,11.010,9.256,1.570,3.286,11.562,1.404,3.422,0.020,0.987,-0.066,-0.122,-1.312,0.793,66.667,501261.000,1.000
2.526,8.196,5.598,-1.381,0.169,9.347,-0.470,0.001,0.019,0.988,-0.064,-0.031,-1.190,0.793,66.667,501262.000,1.000
1.121,6.493,3.592,-2.342,-0.910,7.997,-0.096,0.168,0.019,0.988,-0.064,-0.122,-1.099,0.793,66.667,501263.000,1.000
0.754,6.286,3.497,-1.696,-0.344,7.526,0.809,2.698,0.018,0.990,-0.065,-0.092,-0.916,0.763,66.667,501264.000,1.000
0.959,7.211,4.640,-0.394,1.042,7.626,1.266,5.845,0.019,0.989,-0.062,0.031,-0.885,0.793,66.667,501265.000,1.000
1.208,8.531,6.012,0.703,2.620,7.977,1.472,8.207,0.016,0.987,-0.063,0.061,-0.824,0.793,66.667,501266.000,1.000
1.197,9.427,6.701,1.017,3.823,8.024,1.479,8.669,0.013,0.986,-0.067,0.031,-0.702,0.763,66.667,501267.000,1.000
0.848,9.209,6.070,0.232,3.928,6.959,0.439,6.494,0.015,0.986,-0.066,0.092,-0.702,0.763,66.667,501268.000,1.000
0.226,7.631,3.972,-1.512,2.528,4.394,-2.246,2.073,0.017,0.987,-0.067,0.061,-0.732,0.732,66.667,501269.000,1.000
-0.561,5.087,0.829,-3.545,-0.002,0.894,-5.632,-2.810,0.017,0.988,-0.066,0.122,-0.671,0.763,66.667,501270.000,1.000
-1.421,2.440,-2.526,-4.980,-2.708,-2.344,-7.727,-5.977,0.016,0.989,-0.065,0.122,-0.641,0.824,66.667,501271.000,1.000
-2.201,0.596,-5.111,-5.142,-4.569,-4.185,-6.950,-6.077,0.016,0.990,-0.067,0.244,-0.671,0.946,66.667,501272.000,1.000
-2.746,-0.007,-6.222,-3.951,-5.004,-4.173,-3.100,-3.172,0.015,0.989,-0.064,0.305,-0.702,1.038,66.667,501273.000,1.000
-3.135,0.224,-5.944,-2.163,-4.371,-2.941,2.261,0.986,0.015,0.990,-0.068,0.336,-0.702,0.946,66.667,501274.000,1.000
-3.723,0.288,-5.164,-1.044,-3.897,-1.863,6.258,3.525,0.014,0.990,-0.066,0.336,-0.763,1.007,66.667,501275.000,1.000
-4.781,-0.587,-4.870,-1.461,-4.705,-2.010,6.456,2.401,0.015,0.990,-0.066,0.397,-0.671,1.129,66.667,501276.000,1.000
-6.178,-2.334,-5.417,-3.199,-6.848,-3.390,2.696,-1.884,0.014,0.990,-0.067,0.366,-0.732,1.099,66.667,501277.000,1.000
-7.412,-4.152,-6.404,-5.152,-9.299,-5.116,-2.825,-6.700,0.015,0.990,-0.070,0.366,-0.732,1.129,66.667,501278.000,1.000
-7.980,-5.128,-7.157,-6.179,-10.837,-6.208,-7.295,-9.354,0.016,0.991,-0.068,0.458,-0.824,1.221,66.667,501279.000,1.000
-7.776,-4.851,-7.321,-5.868,-10.909,-6.290,-8.944,-8.765,0.017,0.990,-0.068,0.397,-0.916,1.251,66.667,501280.000,1.000
-7.203,-3.719,-7.148,-4.736,-9.918,-5.746,-7.656,-5.911,0.016,0.991,-0.066,0.519,-0.916,1.343,66.667,501281.000,1.000
-6.990,-2.761,-7.345,-3.882,-8.961,-5.437,-4.948,-3.329,0.016,0.990,-0.065,0.458,-0.885,1.373,66.667,501282.000,1.000
-7.718,-2.877,-8.480,-4.163,-9.013,-6.016,-3.102,-3.342,0.016,0.990,-0.065,0.427,-1.068,1.434,66.667,501283.000,1.000
-9.329,-4.110,-10.411,-5.535,-10.130,-7.368,-3.675,-6.228,0.018,0.990,-0.064,0.427,-1.038,1.373,66.667,501284.000,1.000
-11.181,-5.777,-12.449,-7.312,-11.628,-8.874,-6.746,-10.397,0.017,0.991,-0.067,0.427,-1.099,1.465,66.667,501285.000,1.000
-12.576,-7.164,-13.953,-8.858,-12.858,-10.052,-11.251,-13.939,0.017,0.989,-0.067,0.488,-1.068,1.312,66.667,501286.000,1.000
-13.164,-7.979,-14.665,-9.883,-13.582,-10.811,-15.587,-15.608,0.019,0.987,-0.068,0.458,-0.977,1.251,66.667,501287.000,1.000
-12.938,-8.335,-14.627,-10.291,-13.867,-11.307,-18.288,-15.027,0.017,0.986,-0.069,0.549,-1.068,1.373,66.667,501288.000,1.000
-12.060,-8.477,-13.984,-10.054,-13.892,-11.748,-18.744,-12.765,0.018,0.984,-0.068,0.671,-1.129,1.343,66.667,501289.000,1.000
-10.835,-8.604,-12.944,-9.300,-13.847,-12.229,-17.364,-10.147,0.018,0.984,-0.068,0.641,-1.038,1.312,66.667,501290.000,1.000
-9.761,-8.844,-11.860,-8.389,-13.887,-12.710,-15.177,-8.452,0.019,0.986,-0.069,0.763,-0.916,1.404,66.667,501291.000,1.000
-9.333,-9.191,-11.146,-7.707,-14.028,-13.043,-13.303,-8.135,0.017,0.984,-0.068,0.824,-0.946,1.221,66.667,501292.000,1.000
-9.676,-9.385,-10.933,-7.315,-13.989,-12.906,-12.239,-8.648,0.019,0.985,-0.069,0.824,-0.977,1.221,66.667,501293.000,1.000
-10.473,-9.101,-10.949,-6.919,-13.286,-11.826,-11.330,-8.832,0.018,0.986,-0.070,0.916,-0.824,1.190,66.667,501294.000,1.000
-11.250,-8.307,-10.841,-6.239,-11.683,-9.529,-9.217,-7.678,0.019,0.989,-0.071,0.885,-0.854,1.160,66.667,501295.000,1.000
-11.630,-7.303,-10.446,-5.307,-9.513,-6.403,-5.277,-5.196,0.020,0.988,-0.073,0.885,-0.854,1.099,66.667,501296.000,1.000
-11.431,-6.501,-9.766,-4.390,-7.533,-3.528,-0.724,-2.686,0.020,0.990,-0.069,0.885,-0.885,1.099,66.667,501297.000,1.000
-10.682,-6.208,-8.831,-3.706,-6.413,-2.056,2.111,-1.674,0.019,0.989,-0.070,0.854,-0.885,1.068,66.667,501298.000,1.000
-9.444,-6.415,-7.528,-3.124,-6.148,-2.373,2.010,-2.301,0.021,0.989,-0.070,0.885,-0.793,1.068,66.667,501299.000,1.000
-7.605,-6.725,-5.599,-2.240,-6.098,-3.942,-0.096,-3.431,0.018,0.990,-0.069,0.763,-0.824,1.099,66.667,501300.000,1.000
-5.016,-6.667,-2.963,-0.857,-5.749,-5.990,-2.603,-4.425,0.017,0.991,-0.070,0.824,-0.641,1.160,66.667,501301.000,1.000
-1.778,-6.062,0.035,0.783,-5.134,-7.982,-4.736,-5.581,0.018,0.990,-0.068,0.793,-0.641,1.099,66.667,501302.000,1.000
1.685,-5.042,2.772,2.203,-4.556,-9.498,-6.405,-7.079,0.019,0.990,-0.067,0.763,-0.671,1.190,66.667,501303.000,1.000
4.752,-3.932,4.602,2.901,-4.355,-10.254,-7.828,-8.829,0.017,0.989,-0.067,0.671,-0.671,1.160,66.667,501304.000,1.000
6.842,-3.065,5.127,2.523,-4.765,-10.237,-9.445,-10.753,0.015,0.987,-0.067,0.610,-0.610,1.099,66.667,501305.000,1.000
7.729,-2.534,4.468,1.142,-5.551,-9.513,-11.378,-12.339,0.014,0.989,-0.067,0.519,-0.549,1.190,66.667,501306.000,1.000
7.636,-2.146,3.227,-0.731,-5.990,-8.061,-12.822,-12.569,0.016,0.989,-0.068,0.549,-0.702,1.099,66.667,501307.000,1.000
7.040,-1.715,2.024,-2.518,-5.501,-6.047,-12.609,-10.919,0.015,0.990,-0.070,0.427,-0.732,1.221,66.667,501308.000,1.000
6.386,-1.321,1.089,-3.944,-4.279,-4.104,-10.604,-8.177,0.015,0.988,-0.069,0.458,-0.763,1.160,66.667,501309.000,1.000
5.909,-1.166,0.320,-4.973,-3.092,-2.979,-7.864,-5.741,0.016,0.989,-0.070,0.427,-0.916,1.068,66.667,501310.000,1.000
5.665,-1.268,-0.356,-5.443,-2.462,-2.816,-5.223,-4.051,0.017,0.990,-0.070,0.366,-0.916,1.129,66.667,501311.000,1.000
5.542,-1.503,-0.958,-5.118,-2.386,-3.070,-2.598,-2.381,0.017,0.989,-0.070,0.244,-0.916,1.129,66.667,501312.000,1.000
5.145,-1.975,-1.781,-4.216,-2.882,-3.267,-0.130,-0.376,0.015,0.990,-0.069,0.214,-1.038,1.221,66.667,501313.000,1.000
4.005,-3.015,-3.302,-3.462,-4.221,-3.508,1.115,1.100,0.014,0.990,-0.070,0.275,-1.007,1.373,66.667,501314.000,1.000
2.177,-4.675,-5.526,-3.354,-6.352,-4.042,0.413,1.136,0.015,0.989,-0.069,0.214,-1.038,1.251,66.667,501315.000,1.000
0.461,-6.421,-7.708,-3.660,-8.499,-4.738,-1.331,0.048,0.016,0.986,-0.072,0.183,-1.007,1.343,66.667,501316.000,1.000
-0.124,-7.426,-8.835,-3.722,-9.590,-5.134,-2.058,-0.833,0.014,0.987,-0.069,0.122,-0.916,1.343,66.667,501317.000,1.000
0.938,-7.097,-8.312,-3.060,-8.984,-4.900,-0.385,-0.397,0.014,0.985,-0.073,0.092,-1.007,1.343,66.667,501318.000,1.000
3.325,-5.472,-6.358,-1.726,-6.971,-4.286,2.608,1.010,0.016,0.984,-0.073,0.061,-1.129,1.343,66.667,501319.000,1.000
6.087,-3.217,-3.897,-0.267,-4.669,-4.029,3.686,1.518,0.018,0.987,-0.074,0.092,-1.099,1.373,66.667,501320.000,1.000
8.189,-1.226,-2.014,0.644,-3.244,-4.588,0.441,-0.589,0.019,0.987,-0.070,0.092,-1.099,1.526,66.667,501321.000,1.000
8.980,-0.108,-1.389,0.669,-3.071,-5.551,-5.890,-4.989,0.020,0.988,-0.069,0.092,-1.007,1.465,66.667,501322.000,1.000
8.337,0.008,-2.108,-0.071,-3.734,-6.062,-11.407,-9.696,0.017,0.990,-0.070,0.061,-1.099,1.526,66.667,501323.000,1.000
6.635,-0.637,-3.768,-1.176,-4.645,-5.711,-13.373,-13.037,0.016,0.994,-0.067,0.061,-1.099,1.495,66.667,501324.000,1.000
4.650,-1.532,-5.580,-2.079,-5.269,-4.618,-11.976,-14.285,0.016,0.993,-0.067,-0.092,-1.099,1.434,66.667,501325.000,1.000
3.187,-2.057,-6.634,-2.196,-5.022,-2.915,-8.818,-13.034,0.016,0.990,-0.066,-0.122,-1.099,1.373,66.667,501326.000,1.000
2.591,-1.844,-6.408,-1.362,-3.655,-0.758,-5.475,-9.558,0.016,0.988,-0.067,-0.122,-1.129,1.312,66.667,501327.000,1.000
2.742,-0.943,-4.991,-0.014,-1.600,1.369,-3.282,-5.406,0.015,0.988,-0.068,0.000,-1.221,1.190,66.667,501328.000,1.000
3.497,0.432,-2.765,1.310,0.495,2.938,-2.691,-2.266,0.013,0.985,-0.071,0.031,-1.282,1.129,66.667,501329.000,1.000
4.799,2.094,-0.126,2.450,2.385,3.817,-2.672,-0.388,0.017,0.986,-0.071,0.122,-1.282,0.916,66.667,501330.000,1.000
6.401,3.759,2.454,3.511,4.168,4.125,-1.792,1.174,0.018,0.987,-0.070,0.061,-1.221,0.916,66.667,501331.000,1.000
7.793,5.038,4.429,4.498,5.901,3.956,0.333,3.126,0.019,0.985,-0.070,0.092,-1.282,0.885,66.667,501332.000,1.000
8.444,5.661,5.372,5.212,7.426,3.474,2.994,5.180,0.021,0.983,-0.067,0.061,-1.282,0.854,66.667,501333.000,1.000
8.093,5.606,5.160,5.444,8.474,3.071,5.332,6.592,0.022,0.981,-0.067,0.092,-1.251,0.854,66.667,501334.000,1.000
6.866,5.029,4.037,5.196,8.873,3.204,6.929,7.049,0.025,0.979,-0.067,0.122,-1.068,1.007,66.667,501335.000,1.000
5.264,4.150,2.517,4.698,8.597,3.986,7.462,6.690,0.022,0.979,-0.068,0.183,-1.038,1.068,66.667,501336.000,1.000
3.994,3.173,1.151,4.233,7.679,4.961,6.386,5.597,0.020,0.980,-0.067,0.183,-0.977,1.251,66.667,501337.000,1.000
3.682,2.301,0.355,4.056,6.360,5.527,3.932,4.033,0.021,0.982,-0.063,0.214,-0.854,1.312,66.667,501338.000,1.000
4.521,1.732,0.330,4.393,5.273,5.566,2.216,3.153,0.020,0.984,-0.066,0.366,-0.793,1.312,66.667,501339.000,1.000
6.065,1.468,0.909,5.230,5.000,5.341,3.813,4.258,0.018,0.987,-0.068,0.305,-0.793,1.373,66.667,501340.000,1.000
7.461,1.177,1.525,6.089,5.317,4.835,8.528,6.917,0.019,0.992,-0.066,0.183,-0.732,1.343,66.667,501341.000,1.000
7.966,0.395,1.518,6.244,5.154,3.579,12.550,8.597,0.018,0.992,-0.070,0.183,-0.732,1.343,66.667,501342.000,1.000
7.270,-1.191,0.523,5.210,3.439,1.095,11.666,6.705,0.018,0.992,-0.070,0.061,-0.702,1.465,66.667,501343.000,1.000
5.561,-3.606,-1.339,3.049,-0.010,-2.651,4.994,0.930,0.019,0.991,-0.068,0.000,-0.732,1.526,66.667,501344.000,1.000
3.474,-6.517,-3.513,0.316,-4.367,-7.182,-4.675,-6.487,0.018,0.991,-0.067,-0.061,-0.641,1.587,66.667,501345.000,1.000
1.837,-9.261,-5.273,-2.225,-8.391,-11.722,-13.534,-12.584,0.016,0.993,-0.070,0.031,-0.641,1.434,66.667,501346.000,1.000
1.285,-10.971,-5.971,-3.859,-10.935,-15.287,-18.962,-15.434,0.015,0.994,-0.070,0.000,-0.641,1.434,66.667,501347.000,1.000
1.965,-10.855,-5.221,-4.084,-11.146,-16.749,-19.749,-14.419,0.015,0.997,-0.068,0.000,-0.885,1.495,66.667,501348.000,1.000
3.459,-8.644,-3.138,-2.887,-8.786,-15.358,-16.034,-10.039,0.015,1.001,-0.070,-0.153,-0.885,1.343,66.667,501349.000,1.000
4.980,-4.911,-0.405,-0.890,-4.589,-11.399,-9.572,-4.017,0.012,1.003,-0.068,-0.336,-0.824,1.221,66.667,501350.000,1.000
5.797,-0.856,2.127,0.995,0.092,-6.123,-2.800,1.524,0.013,1.003,-0.065,-0.610,-0.977,1.190,66.667,501351.000,1.000
5.677,2.410,4.068,2.224,4.210,-0.906,3.016,5.823,0.015,1.004,-0.066,-0.763,-1.007,1.251,66.667,501352.000,1.000
4.985,4.477,5.685,2.905,7.440,3.398,7.980,9.717,0.016,1.003,-0.066,-1.038,-1.038,1.099,66.667,501353.000,1.000
4.345,5.515,7.343,3.354,9.663,6.325,11.880,13.572,0.017,1.002,-0.067,-1.221,-1.099,1.129,66.667,501354.000,1.000
4.126,5.759,8.857,3.575,10.452,7.485,13.360,15.979,0.017,0.998,-0.067,-1.282,-1.099,1.068,66.667,501355.000,1.000
4.315,5.380,9.665,3.446,9.521,6.837,11.277,15.328,0.019,0.996,-0.065,-1.282,-1.221,1.038,66.667,501356.000,1.000
4.829,4.737,9.567,3.223,7.472,5.139,6.425,11.993,0.021,0.994,-0.063,-1.251,-1.251,1.129,66.667,501357.000,1.000
5.671,4.362,8.987,3.479,5.668,3.605,1.338,8.335,0.019,0.991,-0.064,-1.251,-1.251,1.190,66.667,501358.000,1.000
6.730,4.602,8.533,4.535,5.270,3.020,-1.613,6.735,0.018,0.989,-0.064,-1.160,-1.221,1.312,66.667,501359.000,1.000
7.670,5.424,8.562,6.119,6.485,3.402,-1.804,7.515,0.018,0.986,-0.061,-1.038,-1.160,1.404,66.667,501360.000,1.000
8.254,6.657,9.200,7.690,8.768,4.482,-0.303,8.854,0.017,0.985,-0.061,-0.885,-1.099,1.434,66.667,501361.000,1.000
8.652,8.251,10.487,9.017,11.522,6.198,1.506,8.972,0.017,0.981,-0.062,-0.702,-1.190,1.373,66.667,501362.000,1.000
9.231,10.138,12.213,10.161,14.243,8.499,2.903,7.616,0.019,0.979,-0.066,-0.488,-1.068,1.434,66.667,501363.000,1.000
10.118,11.966,13.783,11.072,16.332,10.930,3.723,5.523,0.018,0.979,-0.066,-0.305,-1.190,1.434,66.667,501364.000,1.000
11.097,13.305,14.558,11.590,17.396,12.875,4.428,3.778,0.018,0.980,-0.062,-0.031,-1.221,1.404,66.667,501365.000,1.000
11.803,13.976,14.237,11.649,17.511,13.962,6.135,3.459,0.020,0.980,-0.061,0.214,-1.160,1.282,66.667,501366.000,1.000
11.984,14.035,12.919,11.242,16.888,13.994,9.280,4.838,0.019,0.978,-0.063,0.458,-1.190,1.160,66.667,501367.000,1.000
11.683,13.669,11.098,10.414,15.650,12.954,12.522,7.380,0.018,0.979,-0.063,0.610,-1.221,1.251,66.667,501368.000,1.000
11.141,13.155,9.531,9.310,14.027,11.299,13.917,10.663,0.018,0.979,-0.065,0.732,-0.977,1.129,66.667,501369.000,1.000
10.475,12.695,8.701,7.992,12.334,9.867,12.722,14.302,0.019,0.980,-0.064,0.854,-0.916,1.099,66.667,501370.000,1.000
9.503,12.256,8.407,6.371,10.780,9.314,9.809,17.307,0.019,0.983,-0.067,1.007,-1.007,1.038,66.667,501371.000,1.000
7.956,11.657,8.034,4.468,9.541,9.783,7.074,18.645,0.020,0.984,-0.065,1.282,-0.977,1.007,66.667,501372.000,1.000
5.758,10.765,7.114,2.557,8.833,10.998,6.321,18.004,0.021,0.982,-0.068,1.343,-1.038,1.038,66.667,501373.000,1.000
3.110,9.576,5.616,0.993,8.763,12.450,8.065,15.729,0.020,0.984,-0.068,1.343,-0.885,0.977,66.667,501374.000,1.000
0.461,8.245,3.899,-0.004,9.209,13.589,11.167,12.731,0.018,0.985,-0.066,1.495,-0.977,1.007,66.667,501375.000,1.000
-1.614,7.066,2.453,-0.440,9.830,14.014,13.476,10.198,0.017,0.983,-0.065,1.526,-0.916,0.977,66.667,501376.000,1.000
-2.780,6.252,1.496,-0.543,10.152,13.596,13.227,8.740,0.015,0.984,-0.067,1.709,-0.854,0.946,66.667,501377.000,1.000
-3.170,5.775,0.888,-0.552,9.868,12.524,10.278,8.009,0.016,0.985,-0.063,1.709,-0.885,0.793,66.667,501378.000,1.000
-3.082,5.567,0.514,-0.405,9.169,11.263,6.105,7.296,0.014,0.986,-0.064,1.709,-0.824,0.885,66.667,501379.000,1.000
-2.690,5.629,0.495,0.173,8.597,10.236,2.816,6.401,0.014,0.986,-0.065,1.678,-0.854,0.916,66.667,501380.000,1.000
-2.212,5.737,0.831,1.156,8.423,9.346,1.878,5.756,0.013,0.988,-0.065,1.709,-0.916,1.068,66.667,501381.000,1.000
-2.034,5.326,1.113,1.992,8.277,7.939,3.135,5.679,0.013,0.988,-0.066,1.709,-0.946,1.038,66.667,501382.000,1.000
-2.435,3.958,0.834,2.045,7.587,5.478,5.045,5.796,0.013,0.989,-0.066,1.587,-1.099,1.160,66.667,501383.000,1.000
-3.246,1.878,-0.078,1.246,6.340,2.339,6.127,5.534,0.014,0.990,-0.069,1.434,-1.068,1.099,66.667,501384.000,1.000
-3.850,-0.016,-1.136,0.219,5.219,-0.266,6.089,5.002,0.014,0.992,-0.068,1.343,-1.099,1.190,66.667,501385.000,1.000
-3.626,-0.817,-1.713,-0.255,4.951,-1.269,5.610,4.898,0.015,0.992,-0.068,1.190,-1.160,1.221,66.667,501386.000,1.000
-2.500,-0.255,-1.613,0.063,5.629,-0.558,5.504,5.483,0.015,0.992,-0.071,1.038,-1.190,1.404,66.667,501387.000,1.000
-1.089,1.139,-1.261,0.647,6.623,1.022,5.859,5.935,0.017,0.991,-0.069,1.007,-1.251,1.404,66.667,501388.000,1.000
-0.241,2.446,-1.313,0.645,7.069,2.247,5.641,5.108,0.018,0.990,-0.072,0.946,-1.282,1.465,66.667,501389.000,1.000
-0.407,2.963,-2.107,-0.445,6.432,2.292,3.554,3.231,0.020,0.992,-0.076,0.854,-1.312,1.617,66.667,501390.000,1.000
-1.424,2.532,-3.486,-2.503,4.747,1.181,-0.473,2.208,0.018,0.990,-0.071,0.763,-1.190,1.709,66.667,501391.000,1.000
-2.773,1.455,-4.995,-4.966,2.549,-0.329,-4.756,3.565,0.017,0.992,-0.070,0.702,-1.129,1.801,66.667,501392.000,1.000
-3.913,0.238,-6.147,-7.111,0.603,-1.252,-6.911,6.742,0.019,0.992,-0.073,0.519,-1.221,1.740,66.667,501393.000,1.000
-4.587,-0.745,-6.711,-8.343,-0.543,-1.000,-5.755,9.757,0.019,0.992,-0.073,0.397,-1.190,1.831,66.667,501394.000,1.000
-5.020,-1.496,-6.859,-8.484,-0.907,0.224,-2.277,10.777,0.019,0.994,-0.070,0.336,-1.160,1.862,66.667,501395.000,1.000
-5.764,-2.346,-7.031,-7.850,-1.042,1.598,0.965,8.825,0.019,0.992,-0.070,0.183,-1.007,1.740,66.667,501396.000,1.000
-7.207,-3.671,-7.578,-7.020,-1.628,2.251,1.493,3.996,0.018,0.992,-0.069,0.092,-1.068,1.678,66.667,501397.000,1.000
-9.201,-5.582,-8.496,-6.454,-2.980,1.753,-1.259,-2.376,0.019,0.992,-0.071,0.031,-0.977,1.709,66.667,501398.000,1.000
-11.107,-7.737,-9.434,-6.245,-4.817,0.273,-5.419,-8.351,0.018,0.989,-0.067,-0.061,-1.160,1.465,66.667,501399.000,1.000
-12.152,-9.379,-9.901,-6.161,-6.471,-1.632,-8.295,-12.693,0.019,0.986,-0.065,-0.244,-1.038,1.404,66.667,501400.000,1.000
-11.873,-9.744,-9.541,-5.888,-7.344,-3.449,-8.623,-15.269,0.022,0.982,-0.065,-0.336,-1.007,1.221,66.667,501401.000,1.000
-10.433,-8.654,-8.352,-5.317,-7.283,-5.053,-7.261,-16.392,0.023,0.981,-0.068,-0.153,-0.946,1.221,66.667,501402.000,1.000
-8.491,-6.692,-6.687,-4.652,-6.665,-6.657,-6.207,-16.477,0.024,0.981,-0.072,-0.061,-0.854,1.221,66.667,501403.000,1.000
-6.667,-4.664,-4.903,-4.138,-6.006,-8.357,-6.942,-16.020,0.024,0.983,-0.075,0.061,-0.641,1.160,66.667,501404.000,1.000
-5.180,-2.971,-3.001,-3.682,-5.403,-9.780,-9.111,-15.331,0.022,0.984,-0.073,0.214,-0.610,1.190,66.667,501405.000,1.000
-3.937,-1.554,-0.745,-2.997,-4.592,-10.386,-11.074,-14.689,0.021,0.985,-0.072,0.122,-0.580,1.160,66.667,501406.000,1.000
-2.743,-0.213,1.911,-2.037,-3.472,-10.014,-11.753,-14.580,0.024,0.984,-0.070,0.183,-0.305,1.221,66.667,501407.000,1.000
-1.452,1.168,4.628,-1.056,-2.270,-8.919,-11.294,-15.045,0.024,0.985,-0.070,0.244,-0.244,1.221,66.667,501408.000,1.000
-0.111,2.584,6.871,-0.315,-1.247,-7.461,-10.218,-15.307,0.024,0.983,-0.073,0.275,-0.275,1.343,66.667,501409.000,1.000
1.002,3.908,8.207,0.088,-0.510,-5.943,-8.700,-14.657,0.020,0.985,-0.075,0.397,-0.153,1.282,66.667,501410.000,1.000
1.569,4.950,8.496,0.199,0.013,-4.539,-6.505,-13.174,0.017,0.987,-0.070,0.458,-0.183,1.343,66.667,501411.000,1.000
1.475,5.624,7.954,0.176,0.583,-3.170,-3.287,-11.179,0.014,0.990,-0.070,0.488,-0.153,1.251,66.667,501412.000,1.000
0.829,5.970,6.999,0.137,1.423,-1.698,0.655,-8.774,0.010,0.990,-0.068,0.397,-0.183,1.007,66.667,501413.000,1.000
-0.213,5.938,5.892,-0.094,2.260,-0.331,3.805,-6.406,0.010,0.988,-0.069,0.275,-0.336,0.916,66.667,501414.000,1.000
-1.551,5.377,4.585,-0.919,2.441,0.588,4.496,-5.060,0.010,0.989,-0.070,0.305,-0.458,0.671,66.667,501415.000,1.000
-3.103,4.316,2.990,-2.445,1.722,1.226,2.798,-5.200,0.011,0.988,-0.070,0.214,-0.641,0.519,66.667,501416.000,1.000
-4.792,3.022,1.204,-4.238,0.569,2.173,0.713,-6.027,0.012,0.989,-0.070,0.244,-0.854,0.488,66.667,501417.000,1.000
-6.572,1.768,-0.605,-5.641,-0.401,3.647,0.397,-6.159,0.015,0.988,-0.068,0.275,-1.007,0.549,66.667,501418.000,1.000
-8.325,0.718,-2.222,-6.117,-0.850,5.251,2.696,-4.694,0.016,0.989,-0.070,0.305,-1.038,0.458,66.667,501419.000,1.000
-9.823,-0.068,-3.364,-5.423,-0.755,6.404,6.790,-1.842,0.018,0.989,-0.072,0.275,-1.007,0.427,66.667,501420.000,1.000
-10.912,-0.692,-3.881,-3.760,-0.408,6.674,10.356,1.062,0.018,0.988,-0.071,0.244,-1.007,0.641,66.667,501421.000,1.000
-11.610,-1.235,-3.858,-1.676,-0.124,6.073,10.998,2.583,0.017,0.989,-0.073,0.305,-1.038,0.732,66.667,501422.000,1.000
-12.028,-1.575,-3.532,0.224,0.043,5.146,8.015,2.131,0.017,0.990,-0.070,0.244,-1.099,1.038,66.667,501423.000,1.000
-12.407,-1.688,-3.309,1.372,0.080,4.460,2.497,-0.188,0.017,0.992,-0.071,0.275,-1.190,1.160,66.667,501424.000,1.000
-13.125,-1.961,-3.690,1.389,-0.166,4.124,-3.526,-3.733,0.016,0.993,-0.071,0.183,-1.190,1.251,66.667,501425.000,1.000
-14.367,-2.904,-4.912,0.355,-0.760,3.895,-7.817,-7.146,0.016,0.990,-0.072,0.153,-1.160,1.343,66.667,501426.000,1.000
-15.813,-4.607,-6.681,-1.179,-1.581,3.435,-8.924,-8.923,0.016,0.991,-0.072,0.214,-1.160,1.465,66.667,501427.000,1.000
-16.770,-6.551,-8.330,-2.570,-2.536,2.460,-7.024,-8.606,0.016,0.991,-0.073,0.214,-1.221,1.648,66.667,501428.000,1.000
-16.616,-7.916,-9.235,-3.403,-3.607,0.967,-3.601,-6.965,0.017,0.993,-0.073,0.275,-1.251,1.648,66.667,501429.000,1.000
-15.122,-8.060,-9.137,-3.518,-4.603,-0.591,-0.068,-4.896,0.016,0.993,-0.075,0.153,-1.343,1.678,66.667,501430.000,1.000
-12.503,-6.886,-8.191,-2.961,-5.161,-1.616,2.965,-2.771,0.017,0.991,-0.071,0.214,-1.312,1.648,66.667,501431.000,1.000
-9.281,-4.910,-6.809,-2.000,-5.141,-1.912,5.138,-1.009,0.017,0.992,-0.069,0.153,-1.343,1.678,66.667,501432.000,1.000
-6.125,-3.016,-5.534,-1.146,-4.890,-1.842,5.904,-0.506,0.018,0.991,-0.067,0.000,-1.373,1.648,66.667,501433.000,1.000
-3.707,-2.063,-4.947,-0.984,-5.045,-2.008,4.899,-2.082,0.019,0.990,-0.067,0.061,-1.404,1.709,66.667,501434.000,1.000
-2.398,-2.426,-5.355,-1.768,-6.014,-2.757,2.445,-5.682,0.019,0.990,-0.072,0.031,-1.282,1.587,66.667,501435.000,1.000
-2.029,-3.728,-6.426,-3.093,-7.515,-3.891,-0.378,-10.075,0.019,0.987,-0.072,-0.031,-1.343,1.556,66.667,501436.000,1.000
-2.064,-5.102,-7.314,-4.102,-8.731,-4.822,-2.312,-13.311,0.021,0.987,-0.068,0.000,-1.221,1.282,66.667,501437.000,1.000
-2.071,-5.834,-7.338,-4.184,-9.051,-5.033,-2.964,-13.995,0.024,0.986,-0.070,0.061,-1.190,1.221,66.667,501438.000,1.000
-1.967,-5.809,-6.528,-3.472,-8.642,-4.436,-3.172,-12.350,0.025,0.984,-0.070,0.153,-1.068,1.190,66.667,501439.000,1.000
-1.909,-5.445,-5.543,-2.658,-8.295,-3.448,-4.172,-9.940,0.026,0.983,-0.071,0.122,-1.007,1.129,66.667,501440.000,1.000
-2.132,-5.298,-5.125,-2.408,-8.727,-2.729,-6.474,-8.382,0.026,0.982,-0.071,0.244,-0.916,1.160,66.667,501441.000,1.000
-2.771,-5.564,-5.484,-2.821,-9.890,-2.556,-9.186,-8.048,0.026,0.983,-0.071,0.336,-0.793,1.007,66.667,501442.000,1.000
-3.685,-5.889,-6.126,-3.334,-10.890,-2.460,-10.248,-7.757,0.025,0.983,-0.070,0.458,-0.610,0.854,66.667,501443.000,1.000
-4.521,-5.777,-6.360,-3.265,-10.768,-1.787,-8.040,-6.048,0.024,0.984,-0.069,0.580,-0.641,0.763,66.667,501444.000,1.000
-4.965,-5.118,-5.903,-2.488,-9.383,-0.499,-3.031,-2.788,0.023,0.983,-0.068,0.671,-0.427,0.732,66.667,501445.000,1.000
-4.824,-4.138,-4.928,-1.437,-7.380,0.854,2.661,0.825,0.023,0.983,-0.071,0.793,-0.427,0.671,66.667,501446.000,1.000
-3.989,-3.043,-3.699,-0.601,-5.521,1.669,7.068,3.486,0.021,0.982,-0.073,0.854,-0.427,0.732,66.667,501447.000,1.000
-2.440,-1.913,-2.334,-0.201,-4.284,1.553,9.055,4.394,0.020,0.985,-0.072,0.916,-0.397,0.671,66.667,501448.000,1.000
-0.261,-0.787,-0.783,-0.212,-3.815,0.382,8.072,3.123,0.021,0.985,-0.072,0.854,-0.305,0.671,66.667,501449.000,1.000
2.290,0.180,0.934,-0.542,-4.067,-1.722,4.276,-0.346,0.020,0.987,-0.069,0.854,-0.305,0.671,66.667,501450.000,1.000
4.643,0.604,2.410,-1.216,-5.013,-4.531,-1.353,-5.377,0.017,0.987,-0.068,0.824,-0.336,0.580,66.667,501451.000,1.000
6.064,0.066,2.933,-2.312,-6.620,-7.688,-7.248,-10.635,0.014,0.988,-0.068,0.763,-0.397,0.458,66.667,501452.000,1.000
6.082,-1.495,2.037,-3.708,-8.634,-10.651,-11.727,-14.466,0.014,0.990,-0.069,0.824,-0.549,0.549,66.667,501453.000,1.000
4.828,-3.568,0.028,-4.923,-10.453,-12.816,-13.564,-15.563,0.013,0.990,-0.071,0.824,-0.610,0.397,66.667,501454.000,1.000
3.021,-5.190,-2.004,-5.250,-11.214,-13.598,-12.232,-13.452,0.012,0.992,-0.069,0.671,-0.763,0.427,66.667,501455.000,1.000
1.496,-5.505,-2.923,-4.244,-10.261,-12.556,-7.854,-8.677,0.012,0.992,-0.067,0.519,-0.824,0.397,66.667,501456.000,1.000
0.681,-4.445,-2.460,-2.154,-7.713,-9.785,-1.183,-2.568,0.011,0.993,-0.065,0.336,-0.854,0.366,66.667,501457.000,1.000
0.544,-2.828,-1.277,0.276,-4.412,-6.139,6.358,3.474,0.010,0.993,-0.070,0.214,-0.946,0.488,66.667,501458.000,1.000
0.854,-1.761,-0.264,2.348,-1.384,-2.894,12.625,8.353,0.012,0.992,-0.067,0.092,-1.160,0.458,66.667,501459.000,1.000
1.324,-1.958,0.018,3.592,0.467,-1.150,15.248,10.936,0.011,0.991,-0.070,0.061,-1.312,0.610,66.667,501460.000,1.000
1.715,-3.341,-0.514,3.738,0.544,-1.302,12.913,10.127,0.010,0.989,-0.070,0.031,-1.465,0.671,66.667,501461.000,1.000
1.975,-5.100,-1.475,2.891,-1.075,-2.798,6.315,5.822,0.010,0.987,-0.068,-0.031,-1.556,0.732,66.667,501462.000,1.000
2.140,-6.279,-2.255,1.588,-3.541,-4.462,-2.052,-0.495,0.011,0.988,-0.068,-0.061,-1.709,0.732,66.667,501463.000,1.000
2.144,-6.431,-2.440,0.491,-5.628,-5.147,-8.776,-6.191,0.013,0.988,-0.072,-0.122,-1.862,0.732,66.667,501464.000,1.000
1.849,-5.774,-2.026,-0.024,-6.431,-4.340,-11.229,-8.970,0.012,0.989,-0.070,-0.061,-2.014,0.824,66.667,501465.000,1.000
1.185,-4.981,-1.351,-0.086,-5.978,-2.458,-9.712,-8.660,0.014,0.988,-0.072,-0.061,-1.984,0.854,66.667,501466.000,1.000
0.190,-4.743,-0.859,-0.082,-5.046,-0.465,-7.082,-7.134,0.015,0.988,-0.071,-0.092,-2.014,0.854,66.667,501467.000,1.000
-0.975,-5.257,-0.778,-0.139,-4.224,0.991,-5.447,-6.033,0.016,0.987,-0.072,-0.183,-2.045,0.793,66.667,501468.000,1.000
-2.070,-6.134,-1.015,-0.018,-3.454,1.912,-4.232,-5.323,0.014,0.987,-0.072,-0.183,-2.167,0.916,66.667,501469.000,1.000
-2.891,-6.804,-1.324,0.499,-2.529,2.491,-1.910,-4.254,0.015,0.988,-0.067,-0.183,-2.228,0.854,66.667,501470.000,1.000
-3.268,-6.894,-1.455,1.359,-1.592,2.653,1.394,-2.743,0.018,0.990,-0.069,-0.275,-2.197,1.007,66.667,501471.000,1.000
-2.981,-6.337,-1.203,2.367,-0.995,2.197,3.858,-1.332,0.019,0.989,-0.071,-0.458,-2.075,0.916,66.667,501472.000,1.000
-1.847,-5.342,-0.514,3.360,-0.904,1.182,3.953,-0.414,0.018,0.988,-0.068,-0.488,-2.075,1.038,66.667,501473.000,1.000
0.051,-4.254,0.452,4.232,-1.137,0.037,1.838,0.083,0.019,0.988,-0.069,-0.366,-2.075,1.007,66.667,501474.000,1.000
2.286,-3.336,1.412,4.895,-1.314,-0.655,-0.914,0.452,0.021,0.989,-0.071,-0.458,-2.014,1.038,66.667,501475.000,1.000
4.229,-2.714,2.036,5.210,-1.180,-0.517,-2.544,0.809,0.020,0.991,-0.068,-0.488,-2.014,1.129,66.667,501476.000,1.000
5.231,-2.527,1.959,4.920,-0.877,0.324,-2.299,0.762,0.021,0.990,-0.069,-0.580,-1.892,1.068,66.667,501477.000,1.000
4.863,-2.947,0.935,3.754,-0.844,1.243,-0.877,-0.487,0.021,0.990,-0.069,-0.610,-1.740,1.099,66.667,501478.000,1.000
3.221,-3.920,-0.838,1.744,-1.343,1.544,0.242,-3.311,0.023,0.990,-0.072,-0.641,-1.526,1.160,66.667,501479.000,1.000
1.034,-4.953,-2.631,-0.554,-2.046,1.013,0.203,-6.758,0.023,0.991,-0.072,-0.702,-1.434,1.221,66.667,501480.000,1.000
-0.626,-5.333,-3.572,-2.283,-2.171,0.061,-0.365,-8.786,0.026,0.991,-0.072,-0.793,-1.251,1.129,66.667,501481.000,1.000
-0.909,-4.647,-3.218,-2.896,-1.210,-0.697,-0.141,-7.867,0.025,0.990,-0.067,-0.854,-1.160,1.160,66.667,501482.000,1.000
0.254,-3.183,-1.935,-2.670,0.346,-1.048,1.109,-4.641,0.023,0.990,-0.068,-0.824,-0.916,1.099,66.667,501483.000,1.000
2.012,-1.830,-0.739,-2.510,1.263,-1.321,2.228,-1.391,0.020,0.988,-0.068,-0.763,-0.793,1.038,66.667,501484.000,1.000
3.081,-1.498,-0.644,-3.135,0.700,-1.865,2.489,0.313,0.021,0.988,-0.069,-0.763,-0.641,1.160,66.667,501485.000,1.000
2.487,-2.640,-2.137,-4.640,-1.240,-2.706,2.381,0.559,0.023,0.989,-0.066,-0.824,-0.549,1.129,66.667,501486.000,1.000
0.048,-5.182,-5.066,-6.750,-4.063,-3.787,2.116,-0.232,0.023,0.988,-0.066,-0.702,-0.366,1.007,66.667,501487.000,1.000
-3.519,-8.575,-8.743,-9.096,-7.351,-5.121,0.879,-2.122,0.023,0.986,-0.067,-0.641,-0.153,1.068,66.667,501488.000,1.000
-6.900,-11.866,-12.136,-11.177,-10.528,-6.457,-1.683,-4.736,0.023,0.988,-0.070,-0.580,0.000,1.007,66.667,501489.000,1.000
-8.851,-14.006,-14.266,-12.380,-12.737,-7.141,-4.309,-6.676,0.021,0.987,-0.068,-0.580,0.214,0.977,66.667,501490.000,1.000
-8.830,-14.398,-14.688,-12.386,-13.458,-6.733,-5.605,-6.939,0.022,0.987,-0.068,-0.488,0.305,1.038,66.667,501491.000,1.000
-7.108,-13.213,-13.621,-11.464,-13.000,-5.558,-5.728,-6.242,0.021,0.988,-0.069,-0.488,0.244,1.038,66.667,501492.000,1.000
-4.437,-11.130,-11.663,-10.161,-12.044,-4.339,-5.573,-5.937,0.020,0.987,-0.069,-0.488,0.275,1.007,66.667,501493.000,1.000
-1.706,-8.886,-9.507,-8.917,-11.071,-3.607,-5.535,-6.490,0.020,0.989,-0.068,-0.366,0.336,0.977,66.667,501494.000,1.000
0.322,-6.988,-7.745,-8.004,-10.326,-3.585,-5.778,-7.493,0.018,0.987,-0.066,-0.336,0.488,0.977,66.667,501495.000,1.000
1.360,-5.551,-6.596,-7.473,-9.771,-4.113,-6.360,-8.122,0.017,0.989,-0.064,-0.336,0.488,1.099,66.667,501496.000,1.000
1.665,-4.318,-5.803,-7.118,-8.987,-4.542,-6.560,-7.594,0.017,0.989,-0.063,-0.244,0.366,1.129,66.667,501497.000,1.000
1.681,-2.954,-4.960,-6.713,-7.548,-4.132,-5.149,-5.859,0.016,0.990,-0.065,-0.275,0.397,1.129,66.667,501498.000,1.000
1.622,-1.442,-3.951,-6.267,-5.584,-2.797,-2.039,-3.718,0.014,0.988,-0.065,-0.214,0.488,1.068,66.667,501499.000,1.000
1.388,-0.202,-3.068,-5.988,-3.823,-1.311,0.901,-2.108,0.012,0.988,-0.069,-0.214,0.336,1.068,66.667,501500.000,1.000
0.835,0.215,-2.730,-6.027,-2.987,-0.696,1.424,-1.404,0.012,0.987,-0.068,-0.183,0.275,1.068,66.667,501501.000,1.000
0.039,-0.375,-3.078,-6.293,-3.184,-1.443,-0.880,-1.302,0.010,0.988,-0.067,-0.092,0.183,1.190,66.667,501502.000,1.000
-0.721,-1.561,-3.776,-6.458,-3.821,-3.235,-4.369,-1.123,0.009,0.987,-0.066,-0.031,0.031,1.282,66.667,501503.000,1.000
-1.114,-2.547,-4.152,-6.083,-4.010,-5.194,-6.893,-0.215,0.010,0.989,-0.064,0.092,-0.122,1.373,66.667,501504.000,1.000
-0.904,-2.617,-3.574,-4.882,-3.173,-6.408,-7.174,1.588,0.010,0.990,-0.068,0.183,-0.183,1.251,66.667,501505.000,1.000
-0.068,-1.532,-1.843,-2.974,-1.420,-6.397,-5.240,3.715,0.010,0.991,-0.067,0.122,-0.366,1.404,66.667,501506.000,1.000
1.153,0.427,0.721,-0.817,0.709,-5.192,-1.960,5.423,0.013,0.992,-0.064,0.153,-0.427,1.404,66.667,501507.000,1.000
2.445,2.812,3.584,1.198,2.872,-3.022,1.774,6.673,0.012,0.992,-0.063,0.244,-0.580,1.404,66.667,501508.000,1.000
3.687,5.367,6.320,2.962,5.128,-0.051,5.371,7.959,0.014,0.992,-0.066,0.214,-0.641,1.404,66.667,501509.000,1.000
4.855,7.943,8.632,4.459,7.557,3.473,8.310,9.375,0.015,0.992,-0.065,0.336,-0.671,1.556,66.667,501510.000,1.000
5.761,10.171,10.225,5.569,9.962,6.980,10.063,10.509,0.012,0.990,-0.066,0.366,-0.916,1.709,66.667,501511.000,1.000
6.114,11.512,10.888,6.148,12.002,9.685,10.522,11.202,0.013,0.989,-0.067,0.427,-0.916,1.740,66.667,501512.000,1.000
5.945,11.726,10.756,6.238,13.431,11.058,10.196,11.802,0.015,0.986,-0.064,0.427,-0.977,1.831,66.667,501513.000,1.000
5.776,11.192,10.391,6.159,14.210,11.175,9.663,12.642,0.016,0.988,-0.068,0.458,-0.977,1.770,66.667,501514.000,1.000
6.268,10.686,10.490,6.397,14.587,10.716,9.401,13.964,0.015,0.987,-0.067,0.519,-0.946,1.801,66.667,501515.000,1.000
7.696,10.873,11.459,7.371,15.082,10.600,10.189,16.342,0.016,0.986,-0.069,0.519,-1.038,1.770,66.667,501516.000,1.000
9.681,11.859,13.106,9.060,16.031,11.291,12.474,20.052,0.017,0.986,-0.069,0.458,-0.946,1.556,66.667,501517.000,1.000
11.401,13.133,14.718,10.835,17.085,12.321,15.026,23.846,0.018,0.987,-0.071,0.702,-1.129,1.678,66.667,501518.000,1.000
12.101,13.877,15.491,11.777,17.340,12.627,15.137,25.234,0.018,0.987,-0.069,0.671,-1.190,1.678,66.667,501519.000,1.000
11.458,13.385,14.922,11.213,15.932,11.296,10.666,22.197,0.020,0.987,-0.069,0.671,-1.099,1.648,66.667,501520.000,1.000
9.809,11.555,13.125,9.184,12.777,8.230,2.109,14.886,0.020,0.986,-0.066,0.793,-1.129,1.526,66.667,501521.000,1.000
8.100,9.220,10.953,6.601,8.963,4.416,-7.188,6.085,0.019,0.987,-0.067,0.885,-1.038,1.495,66.667,501522.000,1.000
7.259,7.617,9.463,4.671,6.118,1.305,-13.230,-0.419,0.019,0.990,-0.068,0.824,-1.038,1.465,66.667,501523.000,1.000
7.486,7.355,9.072,4.016,5.178,-0.313,-14.059,-2.365,0.018,0.990,-0.069,0.946,-0.946,1.251,66.667,501524.000,1.000
8.256,8.007,9.363,4.405,5.791,-0.782,-10.452,-0.111,0.018,0.990,-0.067,0.885,-0.824,1.221,66.667,501525.000,1.000
8.822,8.592,9.580,5.176,6.744,-1.096,-4.807,4.249,0.017,0.988,-0.066,0.854,-0.946,1.129,66.667,501526.000,1.000
8.553,8.210,9.060,5.656,6.701,-2.223,0.065,8.264,0.019,0.988,-0.067,0.793,-1.007,1.007,66.667,501527.000,1.000
6.988,6.324,7.269,5.274,4.726,-4.750,1.731,9.939,0.019,0.988,-0.067,0.824,-0.977,0.946,66.667,501528.000,1.000
3.972,2.854,3.899,3.680,0.710,-8.643,-0.799,8.387,0.020,0.987,-0.070,0.793,-0.916,0.763,66.667,501529.000,1.000
-0.063,-1.616,-0.743,1.047,-4.354,-13.036,-6.249,4.300,0.020,0.988,-0.069,0.793,-0.916,0.702,66.667,501530.000,1.000
-4.116,-5.888,-5.596,-1.834,-8.758,-16.552,-11.825,-0.469,0.022,0.986,-0.070,0.793,-0.702,0.702,66.667,501531.000,1.000
-7.121,-8.729,-9.344,-3.937,-11.056,-18.119,-14.926,-3.924,0.022,0.986,-0.070,0.732,-0.763,0.732,66.667,501532.000,1.000
-8.491,-9.505,-11.101,-4.559,-10.748,-17.431,-14.051,-4.554,0.022,0.985,-0.070,0.671,-0.671,0.824,66.667,501533.000,1.000
-8.210,-8.324,-10.711,-3.629,-8.311,-14.826,-9.082,-1.786,0.023,0.983,-0.071,0.641,-0.610,0.946,66.667,501534.000,1.000
-6.617,-5.756,-8.647,-1.697,-4.892,-11.047,-1.707,3.234,0.022,0.984,-0.069,0.732,-0.580,0.916,66.667,501535.000,1.000
-4.273,-2.560,-5.760,0.373,-1.767,-6.988,5.185,7.857,0.021,0.982,-0.066,0.702,-0.519,1.007,66.667,501536.000,1.000
-1.901,0.498,-2.924,1.925,0.359,-3.362,9.332,10.062,0.019,0.983,-0.068,0.732,-0.427,1.099,66.667,501537.000,1.000
-0.167,2.759,-0.772,2.778,1.479,-0.636,9.840,9.862,0.019,0.986,-0.070,0.641,-0.427,1.129,66.667,501538.000,1.000
0.608,3.791,0.367,2.990,1.812,0.859,6.808,8.182,0.019,0.987,-0.070,0.549,-0.427,1.251,66.667,501539.000,1.000
0.601,3.627,0.582,2.686,1.610,1.109,1.426,5.605,0.019,0.990,-0.069,0.580,-0.397,1.343,66.667,501540.000,1.000
0.488,2.937,0.541,2.239,1.364,0.633,-4.239,2.659,0.018,0.989,-0.068,0.488,-0.305,1.434,66.667,501541.000,1.000
1.046,2.660,1.146,2.192,1.691,0.264,-8.160,0.244,0.018,0.989,-0.070,0.488,-0.305,1.434,66.667,501542.000,1.000
2.390,3.153,2.601,2.685,2.727,0.572,-8.975,-0.792,0.020,0.989,-0.072,0.305,-0.366,1.434,66.667,501543.000,1.000
3.740,3.800,4.017,3.156,3.812,1.447,-6.434,-0.272,0.018,0.988,-0.073,0.214,-0.397,1.434,66.667,501544.000,1.000
4.091,3.624,4.187,2.857,4.070,2.309,-1.701,1.323,0.016,0.989,-0.072,0.214,-0.488,1.312,66.667,501545.000,1.000
2.948,2.159,2.611,1.555,3.246,2.686,3.189,3.340,0.015,0.993,-0.074,0.244,-0.458,1.404,66.667,501546.000,1.000
0.486,-0.276,-0.231,-0.318,1.861,2.534,6.445,5.185,0.015,0.995,-0.073,0.092,-0.549,1.312,66.667,501547.000,1.000
-2.511,-2.734,-3.151,-1.907,0.802,2.230,7.222,6.347,0.015,0.995,-0.070,0.031,-0.671,1.221,66.667,501548.000,1.000
-4.805,-4.009,-4.728,-2.267,0.871,2.344,5.798,6.700,0.014,0.998,-0.069,-0.153,-0.671,1.160,66.667,501549.000,1.000
-5.401,-3.358,-4.095,-0.896,2.393,3.196,3.448,6.784,0.013,1.000,-0.072,-0.336,-0.793,1.129,66.667,501550.000,1.000
-4.387,-1.180,-1.654,1.765,4.888,4.452,1.668,7.305,0.013,1.001,-0.069,-0.641,-0.916,1.099,66.667,501551.000,1.000
-2.851,1.234,1.164,4.528,7.213,5.329,1.077,8.144,0.014,1.001,-0.069,-0.702,-1.038,0.854,66.667,501552.000,1.000
-1.923,2.707,2.950,6.261,8.267,5.210,1.163,8.211,0.015,1.002,-0.069,-0.977,-1.099,0.916,66.667,501553.000,1.000
-2.016,2.896,3.207,6.620,7.760,4.194,1.455,6.812,0.017,0.999,-0.066,-1.099,-1.221,0.854,66.667,501554.000,1.000
-2.703,2.334,2.472,6.169,6.414,3.170,2.636,4.893,0.019,0.999,-0.067,-1.404,-1.221,0.824,66.667,501555.000,1.000
-3.141,1.944,1.714,5.816,5.285,3.139,5.698,4.230,0.021,0.997,-0.069,-1.617,-1.251,0.824,66.667,501556.000,1.000
-2.670,2.409,1.647,6.141,4.954,4.429,10.371,5.646,0.021,0.994,-0.068,-1.709,-1.160,0.824,66.667,501557.000,1.000
-1.117,3.883,2.574,7.198,5.401,6.603,14.939,8.385,0.021,0.993,-0.066,-1.678,-1.221,0.885,66.667,501558.000,1.000
1.208,6.023,4.481,8.682,6.301,8.850,17.245,10.911,0.021,0.992,-0.067,-1.740,-1.221,0.854,66.667,501559.000,1.000
3.640,8.183,7.030,10.152,7.311,10.433,16.174,12.132,0.018,0.989,-0.062,-1.678,-1.251,0.916,66.667,501560.000,1.000
5.405,9.658,9.525,11.165,8.129,10.963,12.298,11.690,0.019,0.987,-0.064,-1.587,-1.282,0.946,66.667,501561.000,1.000
5.956,9.858,11.107,11.315,8.376,10.330,6.974,9.417,0.018,0.988,-0.065,-1.495,-1.251,0.916,66.667,501562.000,1.000
5.270,8.535,11.235,10.492,7.821,8.659,1.738,5.672,0.017,0.985,-0.064,-1.465,-1.312,0.732,66.667,501563.000,1.000
3.815,6.019,10.033,9.107,6.734,6.400,-1.603,2.022,0.016,0.986,-0.060,-1.373,-1.282,0.824,66.667,501564.000,1.000
2.148,3.064,8.071,7.736,5.597,4.104,-2.025,0.253,0.015,0.986,-0.062,-1.282,-1.312,0.793,66.667,501565.000,1.000
0.657,0.462,5.958,6.643,4.592,2.109,-0.520,0.753,0.015,0.986,-0.064,-1.068,-1.343,0.732,66.667,501566.000,1.000
-0.368,-1.168,4.217,5.809,3.711,0.686,1.029,2.536,0.014,0.985,-0.062,-1.038,-1.465,0.610,66.667,501567.000,1.000
-0.772,-1.513,3.207,5.160,3.055,0.176,1.813,4.384,0.014,0.983,-0.061,-0.854,-1.495,0.610,66.667,501568.000,1.000
-0.760,-0.781,2.913,4.568,2.704,0.630,2.066,5.382,0.016,0.983,-0.063,-0.793,-1.434,0.671,66.667,501569.000,1.000
-0.899,0.306,2.886,3.827,2.521,1.599,2.058,5.046,0.017,0.982,-0.061,-0.610,-1.465,0.458,66.667,501570.000,1.000
-1.791,0.978,2.552,2.796,2.305,2.540,2.019,3.679,0.016,0.982,-0.061,-0.366,-1.526,0.488,66.667,501571.000,1.000
-3.665,0.923,1.605,1.480,1.890,3.174,2.158,2.107,0.018,0.984,-0.060,-0.275,-1.465,0.610,66.667,501572.000,1.000
-6.177,0.362,0.152,-0.043,1.049,3.376,2.079,0.757,0.016,0.982,-0.061,-0.122,-1.465,0.610,66.667,501573.000,1.000
-8.534,-0.205,-1.357,-1.608,-0.324,3.114,1.041,-0.578,0.017,0.982,-0.062,0.031,-1.465,0.732,66.667,501574.000,1.000
-9.913,-0.316,-2.339,-2.896,-1.909,2.561,-0.897,-2.182,0.017,0.981,-0.061,0.122,-1.434,0.732,66.667,501575.000,1.000
-9.899,0.152,-2.395,-3.518,-3.065,1.984,-2.657,-3.946,0.018,0.982,-0.064,0.397,-1.434,0.793,66.667,501576.000,1.000
-8.617,0.942,-1.556,-3.277,-3.286,1.525,-3.032,-5.377,0.019,0.980,-0.065,0.610,-1.434,0.824,66.667,501577.000,1.000
-6.568,1.662,-0.325,-2.340,-2.530,1.217,-1.525,-5.944,0.018,0.983,-0.063,0.793,-1.404,0.946,66.667,501578.000,1.000
-4.450,1.991,0.546,-1.164,-1.177,1.145,1.510,-5.278,0.018,0.981,-0.062,0.916,-1.434,0.854,66.667,501579.000,1.000
-2.929,1.788,0.502,-0.247,0.228,1.457,5.105,-3.352,0.017,0.982,-0.065,1.007,-1.373,0.916,66.667,501580.000,1.000
-2.278,1.177,-0.471,0.060,1.164,2.193,7.891,-0.846,0.018,0.983,-0.066,1.160,-1.404,1.068,66.667,501581.000,1.000
-2.194,0.547,-1.856,-0.314,1.351,3.226,8.695,1.092,0.018,0.984,-0.066,1.312,-1.312,1.068,66.667,501582.000,1.000
-2.059,0.412,-2.843,-1.063,1.024,4.460,7.498,1.840,0.019,0.985,-0.066,1.404,-1.312,1.129,66.667,501583.000,1.000
-1.399,1.199,-2.706,-1.578,0.928,5.962,5.651,1.874,0.020,0.986,-0.068,1.526,-1.251,1.190,66.667,501584.000,1.000
-0.061,3.031,-1.205,-1.298,1.839,7.875,4.855,2.150,0.021,0.988,-0.067,1.587,-1.221,1.251,66.667,501585.000,1.000
1.907,5.637,1.285,-0.065,3.991,10.194,5.786,2.963,0.020,0.988,-0.067,1.526,-1.038,1.312,66.667,501586.000,1.000
4.261,8.323,3.960,1.690,6.793,12.504,7.542,3.462,0.020,0.990,-0.067,1.404,-0.977,1.343,66.667,501587.000,1.000
6.426,10.133,5.904,3.097,9.067,13.928,8.288,2.346,0.020,0.990,-0.070,1.495,-0.854,1.404,66.667,501588.000,1.000
7.768,10.416,6.535,3.428,9.843,13.707,6.886,-0.781,0.020,0.991,-0.069,1.465,-0.793,1.526,66.667,501589.000,1.000
8.076,9.351,5.968,2.676,9.103,11.976,4.093,-4.664,0.020,0.989,-0.071,1.343,-0.732,1.587,66.667,501590.000,1.000
7.586,7.726,4.869,1.489,7.670,9.695,1.788,-7.260,0.021,0.991,-0.070,1.251,-0.580,1.587,66.667,501591.000,1.000
6.589,6.231,3.896,0.597,6.440,7.826,1.281,-7.239,0.021,0.994,-0.071,1.190,-0.549,1.465,66.667,501592.000,1.000
5.287,5.116,3.384,0.428,5.855,6.729,2.666,-4.635,0.021,0.996,-0.069,1.038,-0.458,1.434,66.667,501593.000,1.000
3.991,4.307,3.420,1.026,5.820,6.161,4.975,-0.711,0.020,0.996,-0.069,0.916,-0.366,1.495,66.667,501594.000,1.000
3.084,3.528,3.812,1.970,5.674,5.444,6.375,2.452,0.018,0.997,-0.069,0.793,-0.336,1.404,66.667,501595.000,1.000
2.676,2.406,4.011,2.464,4.476,3.800,4.932,3.016,0.015,0.995,-0.069,0.671,-0.244,1.404,66.667,501596.000,1.000
2.531,0.791,3.470,1.912,1.829,1.044,0.288,0.837,0.015,0.993,-0.068,0.488,-0.305,1.373,66.667,501597.000,1.000
2.397,-0.985,2.197,0.469,-1.533,-1.984,-5.432,-2.227,0.016,0.991,-0.067,0.305,-0.244,1.251,66.667,501598.000,1.000
2.183,-2.361,0.698,-1.236,-4.353,-4.000,-9.202,-4.130,0.017,0.989,-0.070,0.122,-0.305,1.099,66.667,501599.000,1.000
1.700,-3.134,-0.677,-2.898,-6.076,-4.472,-9.868,-4.750,0.020,0.987,-0.070,0.031,-0.244,1.129,66.667,501600.000,1.000
0.554,-3.677,-2.085,-4.708,-7.104,-3.993,-8.708,-5.447,0.019,0.987,-0.071,0.031,-0.366,1.068,66.667,501601.000,1.000
-1.450,-4.503,-3.786,-6.723,-7.900,-3.434,-7.325,-6.801,0.021,0.987,-0.071,0.092,-0.305,1.099,66.667,501602.000,1.000
-3.931,-5.763,-5.696,-8.520,-8.443,-3.175,-6.354,-8.078,0.020,0.989,-0.072,0.092,-0.214,1.099,66.667,501603.000,1.000
-6.057,-7.213,-7.421,-9.543,-8.512,-3.221,-6.027,-8.525,0.018,0.990,-0.071,0.031,-0.153,1.160,66.667,501604.000,1.000
-7.057,-8.354,-8.464,-9.456,-7.877,-3.411,-6.210,-7.708,0.017,0.987,-0.070,-0.031,-0.153,1.312,66.667,501605.000,1.000
-6.663,-8.630,-8.397,-8.201,-6.267,-3.397,-6.002,-5.062,0.020,0.986,-0.074,0.031,-0.183,1.404,66.667,501606.000,1.000
-5.225,-7.826,-7.145,-6.091,-3.745,-2.915,-4.569,-0.663,0.023,0.984,-0.074,0.153,-0.214,1.373,66.667,501607.000,1.000
-3.490,-6.289,-5.159,-3.838,-1.047,-2.155,-2.038,3.920,0.023,0.984,-0.070,0.153,-0.153,1.556,66.667,501608.000,1.000
-2.256,-4.680,-3.217,-2.250,0.790,-1.685,0.810,6.604,0.020,0.984,-0.067,0.183,-0.092,1.678,66.667,501609.000,1.000
-2.136,-3.595,-2.091,-1.909,0.935,-2.217,2.812,6.193,0.018,0.985,-0.065,0.214,-0.061,1.587,66.667,501610.000,1.000
-3.329,-3.363,-2.199,-2.988,-0.956,-4.423,2.281,2.636,0.014,0.988,-0.065,0.122,-0.153,1.587,66.667,501611.000,1.000
-5.339,-3.837,-3.224,-5.028,-4.419,-8.355,-1.977,-3.114,0.010,0.989,-0.068,0.122,-0.122,1.434,66.667,501612.000,1.000
-7.058,-4.260,-4.109,-6.941,-8.059,-12.807,-8.901,-9.172,0.009,0.989,-0.067,0.153,-0.244,1.343,66.667,501613.000,1.000
-7.375,-3.588,-3.718,-7.507,-10.127,-15.724,-15.202,-13.324,0.009,0.986,-0.070,0.183,-0.519,1.129,66.667,501614.000,1.000
-5.845,-1.216,-1.637,-6.126,-9.602,-15.564,-17.623,-14.227,0.010,0.984,-0.070,0.183,-0.610,0.885,66.667,501615.000,1.000
-2.861,2.517,1.595,-3.211,-6.817,-12.280,-15.157,-12.153,0.012,0.981,-0.070,0.244,-0.793,0.793,66.667,501616.000,1.000
0.666,6.590,4.970,0.140,-2.980,-7.022,-9.044,-8.342,0.013,0.983,-0.070,0.275,-0.977,0.793,66.667,501617.000,1.000
3.784,10.007,7.640,2.850,0.781,-1.252,-1.382,-3.850,0.016,0.986,-0.069,0.397,-0.885,0.671,66.667,501618.000,1.000
5.840,12.150,9.143,4.278,3.727,3.669,5.537,0.460,0.016,0.986,-0.068,0.244,-0.946,0.702,66.667,501619.000,1.000
6.688,12.802,9.410,4.289,5.394,6.694,9.801,3.546,0.016,0.988,-0.069,0.336,-0.916,0.702,66.667,501620.000,1.000
6.673,12.150,8.719,3.225,5.700,7.463,10.999,4.786,0.016,0.988,-0.068,0.305,-1.099,0.854,66.667,501621.000,1.000
6.191,10.608,7.385,1.594,4.832,6.208,9.855,4.365,0.017,0.990,-0.070,0.183,-1.190,0.916,66.667,501622.000,1.000
5.264,8.534,5.453,-0.387,2.925,3.314,6.742,2.681,0.018,0.991,-0.072,0.214,-1.129,0.946,66.667,501623.000,1.000
3.794,6.284,2.971,-2.678,0.268,-0.577,1.905,0.082,0.018,0.990,-0.073,0.122,-1.160,1.099,66.667,501624.000,1.000
2.137,4.427,0.500,-4.927,-2.300,-4.265,-3.354,-2.898,0.018,0.992,-0.072,0.031,-1.251,1.129,66.667,501625.000,1.000
1.068,3.551,-1.022,-6.430,-3.730,-6.448,-7.092,-5.568,0.018,0.993,-0.070,0.000,-1.221,1.221,66.667,501626.000,1.000
1.170,3.842,-0.926,-6.609,-3.475,-6.542,-8.169,-7.251,0.018,0.993,-0.072,0.031,-1.251,1.282,66.667,501627.000,1.000
2.454,5.016,0.801,-5.320,-1.636,-4.806,-6.625,-7.245,0.017,0.993,-0.070,-0.061,-1.312,1.251,66.667,501628.000,1.000
4.445,6.550,3.640,-2.819,1.384,-1.891,-3.029,-4.902,0.017,0.993,-0.070,-0.275,-1.312,1.373,66.667,501629.000,1.000
6.382,7.797,6.745,0.343,5.007,1.357,1.721,-0.252,0.016,0.995,-0.068,-0.336,-1.312,1.404,66.667,501630.000,1.000
7.553,8.162,9.190,3.445,8.439,3.977,6.156,5.400,0.017,0.993,-0.069,-0.488,-1.312,1.434,66.667,501631.000,1.000
7.735,7.452,10.395,5.851,10.900,5.341,8.816,9.819,0.016,0.993,-0.068,-0.610,-1.373,1.434,66.667,501632.000,1.000
7.326,5.983,10.389,7.224,11.940,5.489,9.136,11.050,0.018,0.994,-0.070,-0.610,-1.343,1.556,66.667,501633.000,1.000
6.942,4.274,9.660,7.583,11.544,4.956,7.588,8.599,0.019,0.992,-0.068,-0.671,-1.404,1.434,66.667,501634.000,1.000
6.906,2.686,8.771,7.219,10.004,4.306,5.171,3.582,0.018,0.991,-0.069,-0.793,-1.312,1.434,66.667,501635.000,1.000
7.106,1.273,8.056,6.507,7.714,3.713,2.743,-2.092,0.021,0.990,-0.069,-0.793,-1.343,1.404,66.667,501636.000,1.000
7.194,-0.037,7.604,5.800,5.178,2.995,0.905,-6.494,0.020,0.988,-0.067,-0.763,-1.251,1.312,66.667,501637.000,1.000
6.895,-1.106,7.433,5.388,3.103,2.061,0.213,-8.185,0.021,0.988,-0.070,-0.824,-1.251,1.312,66.667,501638.000,1.000
6.200,-1.507,7.610,5.428,2.225,1.167,0.913,-6.679,0.022,0.990,-0.066,-0.824,-1.129,1.282,66.667,501639.000,1.000
5.283,-0.942,8.118,5.833,2.873,0.723,2.712,-2.570,0.023,0.988,-0.068,-0.763,-1.068,1.312,66.667,501640.000,1.000
4.165,0.083,8.472,6.098,4.466,0.775,4.922,2.532,0.023,0.985,-0.071,-0.702,-0.885,1.221,66.667,501641.000,1.000
2.559,0.189,7.631,5.363,5.469,0.672,6.531,6.320,0.021,0.985,-0.070,-0.671,-0.824,1.190,66.667,501642.000,1.000
0.250,-1.870,4.731,3.019,4.323,-0.496,6.410,6.890,0.021,0.984,-0.069,-0.641,-0.763,1.190,66.667,501643.000,1.000
-2.481,-6.194,-0.088,-0.707,0.585,-3.101,4.002,3.925,0.021,0.986,-0.066,-0.519,-0.763,1.038,66.667,501644.000,1.000
-4.961,-11.709,-5.649,-4.865,-4.814,-6.635,-0.037,-1.179,0.023,0.987,-0.069,-0.336,-0.732,1.129,66.667,501645.000,1.000
-6.470,-16.678,-10.252,-8.216,-10.034,-9.858,-3.974,-6.145,0.024,0.986,-0.069,-0.305,-0.763,1.129,66.667,501646.000,1.000
-6.527,-19.356,-12.384,-9.695,-13.157,-11.368,-6.109,-9.047,0.020,0.988,-0.066,-0.305,-0.641,1.038,66.667,501647.000,1.000
-5.212,-18.928,-11.620,-8.999,-13.291,-10.567,-6.113,-9.567,0.019,0.987,-0.065,-0.305,-0.580,1.099,66.667,501648.000,1.000
-3.275,-16.070,-8.901,-6.785,-11.013,-8.063,-5.101,-9.040,0.020,0.986,-0.069,-0.244,-0.519,0.977,66.667,501649.000,1.000
-1.696,-12.282,-5.669,-4.037,-7.528,-4.868,-4.226,-8.805,0.019,0.988,-0.066,-0.183,-0.580,0.977,66.667,501650.000,1.000
-1.122,-8.693,-2.843,-1.329,-3.618,-1.496,-3.519,-8.720,0.017,0.989,-0.068,-0.183,-0.549,0.885,66.667,501651.000,1.000
-1.644,-5.623,-0.627,1.236,0.491,1.941,-1.945,-7.422,0.019,0.988,-0.065,-0.092,-0.549,0.885,66.667,501652.000,1.000
-2.931,-3.045,1.075,3.651,4.564,5.128,1.416,-3.897,0.018,0.987,-0.063,-0.031,-0.610,0.824,66.667,501653.000,1.000
-4.500,-1.040,2.304,5.702,7.974,7.415,6.003,1.181,0.018,0.986,-0.064,0.000,-0.671,0.763,66.667,501654.000,1.000
-5.899,0.301,3.038,7.007,10.032,8.333,9.990,5.837,0.016,0.987,-0.066,0.000,-0.702,0.854,66.667,501655.000,1.000
-6.787,1.086,3.310,7.339,10.586,8.058,12.009,8.455,0.017,0.987,-0.065,0.061,-0.793,0.854,66.667,501656.000,1.000
-7.046,1.456,3.141,6.714,10.024,7.225,12.047,8.493,0.016,0.987,-0.065,0.031,-0.824,0.824,66.667,501657.000,1.000
-6.927,1.273,2.363,5.198,8.721,6.267,10.551,5.916,0.013,0.987,-0.066,0.031,-0.854,0.885,66.667,501658.000,1.000
-6.970,0.188,0.739,2.896,6.851,5.083,7.639,1.204,0.015,0.988,-0.067,0.153,-0.885,0.854,66.667,501659.000,1.000
-7.633,-1.960,-1.702,0.153,4.614,3.284,3.523,-4.227,0.014,0.988,-0.063,0.092,-1.007,0.793,66.667,501660.000,1.000
-8.967,-4.922,-4.574,-2.536,2.298,0.567,-1.256,-8.657,0.013,0.989,-0.063,0.122,-1.099,0.793,66.667,501661.000,1.000
-10.556,-8.100,-7.229,-4.777,0.224,-2.890,-5.989,-11.025,0.014,0.989,-0.062,0.061,-1.190,0.824,66.667,501662.000,1.000
-11.767,-10.732,-8.919,-6.361,-1.242,-6.254,-9.703,-11.071,0.013,0.989,-0.067,0.153,-1.312,0.763,66.667,501663.000,1.000
-12.208,-12.303,-9.258,-7.340,-1.951,-8.613,-11.464,-9.166,0.013,0.988,-0.068,0.214,-1.343,0.732,66.667,501664.000,1.000
-11.948,-12.796,-8.575,-7.986,-2.134,-9.585,-10.787,-6.000,0.016,0.990,-0.066,0.244,-1.373,0.793,66.667,501665.000,1.000
-11.140,-12.361,-7.491,-8.381,-1.949,-9.112,-7.256,-1.988,0.016,0.991,-0.068,0.153,-1.495,0.763,66.667,501666.000,1.000
-9.723,-11.042,-6.330,-8.231,-1.277,-7.229,-0.857,2.595,0.015,0.992,-0.067,0.214,-1.587,0.854,66.667,501667.000,1.000
-7.730,-9.121,-5.280,-7.362,-0.344,-4.536,6.404,6.669,0.015,0.989,-0.067,0.122,-1.648,0.916,66.667,501668.000,1.000
-5.506,-7.306,-4.658,-6.035,0.066,-2.239,10.804,8.504,0.015,0.990,-0.064,0.092,-1.709,0.885,66.667,501669.000,1.000
-3.358,-6.171,-4.587,-4.593,-0.594,-1.205,10.075,7.314,0.014,0.990,-0.063,0.092,-1.648,1.007,66.667,501670.000,1.000
-1.260,-5.623,-4.703,-3.082,-1.995,-1.252,5.304,4.144,0.016,0.991,-0.064,-0.031,-1.648,1.007,66.667,501671.000,1.000
0.903,-5.121,-4.500,-1.427,-3.298,-1.589,-0.514,1.013,0.016,0.991,-0.062,-0.092,-1.678,1.007,66.667,501672.000,1.000
3.008,-4.261,-3.845,0.274,-3.902,-1.648,-4.808,-0.560,0.016,0.990,-0.064,-0.122,-1.648,1.099,66.667,501673.000,1.000
4.806,-2.961,-2.933,1.817,-3.699,-1.281,-6.397,-0.279,0.017,0.989,-0.064,0.000,-1.801,1.160,66.667,501674.000,1.000
6.166,-1.264,-1.945,3.106,-2.875,-0.412,-5.310,1.206,0.019,0.988,-0.063,-0.061,-1.740,1.190,66.667,501675.000,1.000
7.014,0.705,-1.002,4.052,-1.785,0.992,-2.603,2.722,0.019,0.986,-0.066,-0.092,-1.770,1.129,66.667,501676.000,1.000
7.194,2.656,-0.307,4.408,-0.928,2.660,-0.009,3.009,0.019,0.989,-0.064,-0.244,-1.617,1.129,66.667,501677.000,1.000
6.597,4.265,-0.014,4.004,-0.636,4.135,1.246,1.769,0.019,0.989,-0.066,-0.122,-1.526,1.160,66.667,501678.000,1.000
5.391,5.351,-0.052,3.051,-0.766,5.156,1.288,0.172,0.019,0.987,-0.062,-0.183,-1.373,1.160,66.667,501679.000,1.000
3.956,5.847,-0.254,1.956,-0.960,5.712,0.880,-0.560,0.020,0.987,-0.064,-0.275,-1.373,1.282,66.667,501680.000,1.000
2.630,5.697,-0.576,0.917,-1.133,5.829,0.441,-0.698,0.022,0.988,-0.065,-0.153,-1.312,1.160,66.667,501681.000,1.000
1.587,4.891,-1.079,-0.104,-1.463,5.557,0.066,-1.406,0.020,0.988,-0.064,-0.153,-1.343,1.129,66.667,501682.000,1.000
0.841,3.494,-1.824,-1.199,-2.150,5.062,-0.465,-3.273,0.021,0.988,-0.066,-0.183,-1.190,1.129,66.667,501683.000,1.000
0.232,1.573,-2.882,-2.473,-3.363,4.493,-1.875,-5.992,0.022,0.986,-0.066,-0.153,-1.068,1.221,66.667,501684.000,1.000
-0.467,-0.789,-4.253,-3.964,-5.108,3.830,-4.643,-8.737,0.021,0.986,-0.064,-0.061,-0.916,1.251,66.667,501685.000,1.000
-1.349,-3.422,-5.794,-5.551,-7.056,2.902,-8.218,-10.568,0.023,0.987,-0.066,-0.061,-0.916,1.251,66.667,501686.000,1.000
-2.362,-6.074,-7.325,-7.007,-8.646,1.612,-11.152,-10.826,0.022,0.985,-0.066,-0.061,-0.763,1.251,66.667,501687.000,1.000
-3.358,-8.423,-8.709,-8.079,-9.373,0.144,-11.841,-9.300,0.022,0.987,-0.068,0.000,-0.671,1.129,66.667,501688.000,1.000
-4.070,-10.115,-9.812,-8.542,-9.127,-1.278,-9.833,-6.425,0.021,0.987,-0.068,0.092,-0.549,1.129,66.667,501689.000,1.000
-4.173,-10.874,-10.489,-8.318,-8.396,-2.704,-6.629,-3.442,0.018,0.988,-0.065,0.061,-0.519,1.068,66.667,501690.000,1.000
-3.458,-10.585,-10.583,-7.483,-7.937,-4.257,-4.618,-1.707,0.019,0.988,-0.067,0.122,-0.458,1.068,66.667,501691.000,1.000
-1.903,-9.222,-9.877,-6.076,-8.049,-5.662,-4.911,-1.506,0.020,0.988,-0.068,0.092,-0.397,1.068,66.667,501692.000,1.000
0.402,-6.673,-8.083,-3.968,-8.173,-6.173,-6.307,-1.806,0.019,0.988,-0.066,0.092,-0.397,1.038,66.667,501693.000,1.000
3.132,-3.035,-5.230,-1.207,-7.542,-5.296,-6.661,-1.380,0.017,0.990,-0.065,0.031,-0.305,0.977,66.667,501694.000,1.000
5.403,0.670,-2.320,1.328,-6.472,-3.828,-5.504,-0.336,0.016,0.991,-0.064,0.031,-0.305,0.946,66.667,501695.000,1.000
5.981,2.654,-1.140,2.075,-6.534,-3.718,-4.950,-0.314,0.015,0.990,-0.064,0.061,-0.305,0.916,66.667,501696.000,1.000
4.219,1.766,-2.847,0.124,-8.935,-6.323,-7.245,-2.654,0.016,0.992,-0.066,0.092,-0.305,0.946,66.667,501697.000,1.000
0.690,-1.467,-6.901,-3.810,-13.130,-11.014,-11.972,-6.699,0.015,0.990,-0.066,0.031,-0.305,0.977,66.667,501698.000,1.000
-3.237,-5.339,-11.543,-7.983,-17.370,-15.758,-16.569,-10.530,0.016,0.990,-0.066,0.031,-0.305,0.946,66.667,501699.000,1.000
-6.277,-8.105,-14.982,-10.830,-20.070,-18.593,-18.861,-12.704,0.015,0.990,-0.066,0.031,-0.458,1.099,66.667,501700.000,1.000
-7.738,-8.742,-16.150,-11.560,-20.532,-18.537,-18.439,-12.864,0.013,0.990,-0.065,-0.031,-0.549,1.007,66.667,501701.000,1.000
-7.625,-7.287,-15.000,-10.312,-19.093,-15.910,-16.360,-11.554,0.011,0.990,-0.066,0.092,-0.580,1.007,66.667,501702.000,1.000
-6.571,-4.881,-12.560,-8.145,-16.954,-12.198,-14.174,-10.002,0.011,0.992,-0.066,0.092,-0.702,1.068,66.667,501703.000,1.000
-5.596,-3.186,-10.472,-6.529,-15.433,-9.167,-12.859,-9.398,0.013,0.991,-0.066,0.061,-0.702,1.007,66.667,501704.000,1.000
-5.639,-3.348,-10.038,-6.408,-15.049,-7.718,-12.219,-9.959,0.013,0.993,-0.064,0.000,-0.854,1.068,66.667,501705.000,1.000
-6.957,-5.282,-11.426,-7.620,-15.291,-7.446,-11.221,-10.870,0.014,0.993,-0.063,-0.031,-0.946,1.129,66.667,501706.000,1.000
-8.841,-7.819,-13.606,-9.120,-15.118,-7.109,-8.686,-10.959,0.014,0.991,-0.065,-0.061,-0.916,1.160,66.667,501707.000,1.000
-10.078,-9.584,-15.149,-9.802,-13.828,-5.724,-4.222,-9.550,0.013,0.992,-0.064,-0.122,-0.885,1.251,66.667,501708.000,1.000
-9.898,-9.944,-15.279,-9.296,-11.686,-3.418,1.098,-7.097,0.014,0.990,-0.063,-0.153,-1.007,1.251,66.667,501709.000,1.000
-8.388,-9.173,-14.123,-7.964,-9.542,-1.082,5.781,-4.577,0.014,0.989,-0.062,-0.244,-1.038,1.404,66.667,501710.000,1.000
-6.160,-8.004,-12.328,-6.420,-8.064,0.386,8.909,-2.651,0.015,0.988,-0.063,-0.153,-1.160,1.373,66.667,501711.000,1.000
-4.019,-7.235,-10.766,-5.311,-7.702,0.239,9.163,-2.132,0.015,0.988,-0.064,-0.122,-1.221,1.434,66.667,501712.000,1.000
-2.675,-7.265,-10.085,-5.058,-8.618,-1.761,5.037,-3.978,0.016,0.987,-0.065,-0.092,-1.190,1.373,66.667,501713.000,1.000
-2.300,-7.619,-10.077,-5.361,-10.082,-4.634,-2.703,-7.830,0.017,0.987,-0.068,0.031,-1.251,1.465,66.667,501714.000,1.000
-2.453,-7.274,-9.823,-5.334,-10.655,-6.540,-10.609,-11.699,0.018,0.986,-0.067,0.061,-1.099,1.434,66.667,501715.000,1.000
