EEG 1,EEG 2,EEG 3,EEG 4,EEG 5,EEG 6,EEG 7,EEG 8,Accelerometer X,Accelerometer Y,Accelerometer Z,Gyroscope X,Gyroscope Y,Gyroscope Z,Battery Level,Counter,Validation Indicator
-6.141,-0.261,5.862,1.583,1.921,-2.980,-3.124,-1.212,0.013,0.984,-0.097,0.641,-0.061,1.282,66.667,643209.000,1.000
-4.616,-1.784,5.097,0.900,-1.294,-8.404,-8.376,-4.083,0.013,0.987,-0.098,0.549,-0.092,1.282,66.667,643210.000,1.000
-3.312,-2.966,3.699,0.116,-4.427,-12.515,-11.805,-5.729,0.011,0.988,-0.097,0.427,0.061,1.373,66.667,643211.000,1.000
-2.729,-3.755,1.390,-0.958,-7.178,-14.163,-12.200,-6.312,0.010,0.989,-0.096,0.458,0.153,1.404,66.667,643212.000,1.000
-3.135,-4.297,-1.983,-2.590,-9.530,-13.087,-9.886,-6.625,0.010,0.991,-0.093,0.336,0.122,1.373,66.667,643213.000,1.000
-4.370,-4.938,-6.276,-4.869,-11.682,-10.394,-6.743,-7.175,0.006,0.992,-0.092,0.122,0.000,1.404,66.667,643214.000,1.000
-5.865,-5.953,-10.876,-7.468,-13.684,-7.878,-4.602,-7.598,0.007,0.993,-0.094,-0.031,0.031,1.404,66.667,643215.000,1.000
-7.058,-7.328,-14.897,-9.915,-15.363,-6.633,-4.000,-7.473,0.006,0.990,-0.094,-0.214,-0.122,1.434,66.667,643216.000,1.000
-7.790,-8.861,-17.662,-12.042,-16.558,-6.538,-4.521,-7.295,0.006,0.987,-0.094,-0.366,-0.153,1.404,66.667,643217.000,1.000
-8.330,-10.465,-19.008,-13.997,-17.278,-7.030,-5.593,-8.046,0.007,0.983,-0.095,-0.580,-0.183,1.526,66.667,643218.000,1.000
-9.072,-12.213,-19.152,-15.803,-17.537,-7.820,-6.735,-9.996,0.010,0.980,-0.096,-0.610,-0.336,1.526,66.667,643219.000,1.000
-10.144,-13.960,-18.271,-16.998,-17.042,-8.570,-7.334,-12.189,0.012,0.980,-0.097,-0.549,-0.427,1.465,66.667,643220.000,1.000
-11.327,-15.074,-16.372,-16.854,-15.254,-8.484,-6.732,-13.073,0.013,0.984,-0.099,-0.336,-0.427,1.556,66.667,643221.000,1.000
-12.424,-14.975,-13.773,-15.126,-12.105,-6.978,-4.895,-11.803,0.011,0.988,-0.096,-0.366,-0.397,1.709,66.667,643222.000,1.000
-13.602,-13.886,-11.430,-12.530,-8.500,-4.472,-2.639,-8.960,0.011,0.991,-0.096,-0.427,-0.458,1.709,66.667,643223.000,1.000
-15.028,-12.572,-10.211,-10.204,-5.611,-1.827,-0.842,-5.802,0.012,0.991,-0.096,-0.519,-0.427,1.770,66.667,643224.000,1.000
-16.353,-11.430,-10.003,-8.775,-3.796,0.746,0.655,-2.929,0.015,0.988,-0.095,-0.671,-0.458,1.862,66.667,643225.000,1.000
-16.959,-10.272,-9.950,-8.173,-2.587,3.600,3.044,-0.103,0.019,0.984,-0.097,-0.671,-0.549,1.953,66.667,643226.000,1.000
-16.528,-8.833,-9.283,-7.955,-1.435,6.754,7.116,2.893,0.019,0.981,-0.095,-0.702,-0.519,2.136,66.667,643227.000,1.000
-15.209,-7.142,-7.748,-7.601,-0.234,9.449,11.900,5.668,0.017,0.982,-0.097,-0.671,-0.366,2.106,66.667,643228.000,1.000
-13.479,-5.520,-5.605,-6.837,0.654,10.511,14.718,7.289,0.017,0.980,-0.095,-0.549,-0.305,2.075,66.667,643229.000,1.000
-11.999,-4.388,-3.490,-5.877,0.782,9.232,13.118,6.946,0.015,0.981,-0.096,-0.519,-0.275,2.045,66.667,643230.000,1.000
-11.352,-4.038,-2.120,-5.201,0.131,5.986,7.260,4.857,0.010,0.982,-0.095,-0.427,-0.244,2.014,66.667,643231.000,1.000
-11.636,-4.428,-1.811,-4.993,-0.736,2.051,0.225,2.387,0.009,0.981,-0.096,-0.397,-0.366,1.831,66.667,643232.000,1.000
-12.388,-5.148,-2.281,-4.964,-1.036,-0.982,-4.083,1.095,0.009,0.980,-0.094,-0.366,-0.488,1.709,66.667,643233.000,1.000
-12.982,-5.624,-2.961,-4.697,-0.247,-1.793,-3.486,1.776,0.011,0.980,-0.093,-0.336,-0.580,1.556,66.667,643234.000,1.000
-13.076,-5.417,-3.530,-4.044,1.588,0.050,1.250,4.117,0.011,0.982,-0.094,-0.458,-0.671,1.465,66.667,643235.000,1.000
-12.774,-4.498,-4.186,-3.249,3.786,3.736,7.193,6.921,0.010,0.982,-0.097,-0.427,-0.763,1.343,66.667,643236.000,1.000
-12.470,-3.280,-5.382,-2.714,5.404,7.665,11.409,8.881,0.012,0.982,-0.095,-0.275,-0.854,1.099,66.667,643237.000,1.000
-12.556,-2.393,-7.360,-2.693,5.811,10.282,12.507,9.344,0.012,0.983,-0.094,-0.275,-0.793,1.068,66.667,643238.000,1.000
-13.184,-2.370,-9.905,-3.231,4.985,10.661,10.694,8.427,0.013,0.984,-0.094,-0.397,-0.763,0.946,66.667,643239.000,1.000
-14.097,-3.256,-12.354,-4.171,3.526,8.963,7.485,6.855,0.012,0.987,-0.093,-0.336,-0.824,0.885,66.667,643240.000,1.000
-14.700,-4.474,-13.826,-5.152,2.398,6.414,5.016,5.736,0.012,0.989,-0.093,-0.305,-0.793,1.007,66.667,643241.000,1.000
-14.560,-5.271,-13.785,-5.837,2.319,4.415,4.460,5.831,0.014,0.990,-0.096,-0.366,-0.885,0.977,66.667,643242.000,1.000
-13.770,-5.211,-12.373,-6.101,3.387,3.792,5.427,7.016,0.015,0.990,-0.097,-0.397,-0.946,1.099,66.667,643243.000,1.000
-12.661,-4.197,-10.047,-5.854,5.363,4.895,7.169,8.702,0.015,0.989,-0.096,-0.519,-0.916,0.916,66.667,643244.000,1.000
-11.495,-2.435,-7.205,-4.985,7.914,7.675,9.390,10.364,0.013,0.988,-0.093,-0.641,-1.007,1.190,66.667,643245.000,1.000
-10.545,-0.503,-4.243,-3.586,10.508,11.295,11.587,11.568,0.016,0.986,-0.094,-0.671,-1.068,1.312,66.667,643246.000,1.000
-10.101,0.851,-1.567,-1.984,12.565,14.260,12.822,12.069,0.014,0.987,-0.094,-0.702,-1.099,1.312,66.667,643247.000,1.000
-10.308,1.185,0.564,-0.573,13.810,15.370,12.726,12.014,0.013,0.987,-0.091,-0.702,-1.007,1.312,66.667,643248.000,1.000
-11.006,0.678,2.135,0.414,14.371,14.527,11.794,11.718,0.014,0.987,-0.092,-0.763,-1.129,1.465,66.667,643249.000,1.000
-11.712,0.017,3.320,1.034,14.513,12.573,10.528,11.330,0.011,0.986,-0.091,-0.732,-1.190,1.526,66.667,643250.000,1.000
-11.878,-0.132,4.326,1.505,14.400,10.436,9.226,11.053,0.012,0.988,-0.093,-0.824,-1.221,1.526,66.667,643251.000,1.000
-11.232,0.446,5.313,1.960,14.141,8.729,8.536,11.407,0.013,0.987,-0.094,-0.824,-1.190,1.465,66.667,643252.000,1.000
-9.861,1.474,6.334,2.263,13.731,7.900,8.897,12.451,0.014,0.985,-0.091,-0.885,-1.404,1.495,66.667,643253.000,1.000
-8.025,2.402,7.286,2.101,12.883,8.091,9.406,12.990,0.012,0.985,-0.092,-0.916,-1.312,1.465,66.667,643254.000,1.000
-5.935,2.790,8.024,1.375,11.250,8.827,8.510,11.480,0.012,0.984,-0.090,-0.824,-1.312,1.526,66.667,643255.000,1.000
-3.730,2.626,8.505,0.405,8.839,9.223,5.618,7.562,0.012,0.985,-0.089,-0.854,-1.404,1.495,66.667,643256.000,1.000
-1.533,2.317,8.777,-0.297,6.087,8.596,1.336,2.361,0.012,0.985,-0.088,-0.824,-1.495,1.465,66.667,643257.000,1.000
0.535,2.367,8.880,-0.401,3.575,6.759,-3.204,-2.344,0.014,0.984,-0.091,-0.824,-1.404,1.434,66.667,643258.000,1.000
2.296,2.919,8.706,0.018,1.692,3.944,-6.951,-5.224,0.015,0.982,-0.092,-0.824,-1.434,1.312,66.667,643259.000,1.000
3.439,3.559,7.958,0.502,0.463,0.859,-9.147,-6.072,0.014,0.981,-0.093,-0.702,-1.465,1.343,66.667,643260.000,1.000
3.658,3.604,6.327,0.537,-0.377,-1.406,-9.408,-5.558,0.014,0.985,-0.095,-0.580,-1.465,1.282,66.667,643261.000,1.000
2.842,2.512,3.697,-0.141,-1.252,-2.175,-8.005,-4.564,0.015,0.983,-0.092,-0.488,-1.434,1.282,66.667,643262.000,1.000
1.067,0.121,0.198,-1.492,-2.598,-1.885,-5.924,-3.735,0.017,0.984,-0.092,-0.458,-1.373,1.190,66.667,643263.000,1.000
-1.441,-3.265,-3.779,-3.261,-4.578,-1.649,-4.389,-3.359,0.016,0.982,-0.090,-0.397,-1.373,1.160,66.667,643264.000,1.000
-4.314,-6.951,-7.623,-5.096,-6.907,-2.239,-4.200,-3.446,0.017,0.981,-0.092,-0.244,-1.343,1.160,66.667,643265.000,1.000
-7.036,-10.041,-10.566,-6.593,-8.968,-3.603,-5.389,-3.854,0.018,0.981,-0.093,-0.244,-1.373,1.190,66.667,643266.000,1.000
-9.078,-11.744,-11.908,-7.343,-10.117,-5.097,-7.363,-4.346,0.017,0.980,-0.094,-0.153,-1.343,1.038,66.667,643267.000,1.000
-10.289,-11.859,-11.570,-7.234,-10.131,-6.105,-9.243,-4.731,0.016,0.979,-0.094,-0.061,-1.221,1.007,66.667,643268.000,1.000
-11.073,-11.027,-10.395,-6.637,-9.418,-6.572,-10.185,-4.985,0.016,0.981,-0.092,0.122,-1.190,0.977,66.667,643269.000,1.000
-11.942,-10.249,-9.497,-6.045,-8.646,-6.978,-9.484,-5.082,0.017,0.983,-0.092,0.153,-1.190,1.007,66.667,643270.000,1.000
-12.933,-10.081,-9.326,-5.598,-8.152,-7.795,-6.880,-4.827,0.016,0.984,-0.088,0.244,-1.221,1.038,66.667,643271.000,1.000
-13.545,-10.309,-9.462,-5.065,-7.784,-8.902,-3.229,-4.135,0.015,0.982,-0.090,0.214,-1.129,1.038,66.667,643272.000,1.000
-13.229,-10.301,-9.175,-4.202,-7.198,-9.557,-0.247,-3.276,0.014,0.983,-0.090,0.244,-1.038,1.007,66.667,643273.000,1.000
-11.941,-9.651,-8.081,-3.177,-6.229,-9.084,0.711,-2.722,0.015,0.985,-0.093,0.305,-1.038,1.007,66.667,643274.000,1.000
-10.260,-8.578,-6.456,-2.931,-5.190,-7.623,-0.842,-3.050,0.014,0.983,-0.090,0.336,-1.068,0.946,66.667,643275.000,1.000
-8.991,-7.814,-5.042,-4.954,-4.857,-6.104,-4.877,-4.914,0.011,0.984,-0.088,0.214,-1.099,0.885,66.667,643276.000,1.000
-8.551,-8.003,-4.410,-10.033,-5.808,-5.447,-10.683,-8.449,0.012,0.985,-0.091,0.183,-1.038,0.946,66.667,643277.000,1.000
-8.630,-9.008,-4.395,-17.040,-7.663,-5.726,-16.270,-12.518,0.011,0.985,-0.091,0.092,-1.007,0.916,66.667,643278.000,1.000
-8.420,-9.833,-4.226,-23.280,-9.173,-6.082,-19.047,-15.089,0.011,0.985,-0.092,0.031,-0.977,0.824,66.667,643279.000,1.000
-7.344,-9.492,-3.382,-26.266,-9.267,-5.630,-17.699,-14.745,0.012,0.987,-0.092,0.061,-1.007,0.854,66.667,643280.000,1.000
-5.625,-7.989,-2.254,-25.294,-7.985,-4.363,-13.164,-11.769,0.011,0.986,-0.091,0.122,-1.160,0.793,66.667,643281.000,1.000
-4.160,-6.369,-1.890,-21.644,-6.328,-2.975,-7.574,-7.709,0.010,0.986,-0.088,0.031,-1.160,0.702,66.667,643282.000,1.000
-3.889,-5.877,-3.222,-17.632,-5.508,-2.170,-2.697,-4.247,0.010,0.985,-0.089,-0.061,-1.099,0.763,66.667,643283.000,1.000
-5.166,-7.075,-6.471,-15.235,-6.331,-2.517,0.320,-2.529,0.010,0.985,-0.093,-0.031,-1.129,0.763,66.667,643284.000,1.000
-7.610,-9.588,-11.038,-15.090,-8.885,-4.487,0.635,-2.927,0.009,0.986,-0.091,-0.122,-1.251,0.885,66.667,643285.000,1.000
-10.421,-12.470,-15.829,-16.434,-12.462,-8.064,-1.951,-4.960,0.010,0.985,-0.092,-0.122,-1.282,0.885,66.667,643286.000,1.000
-12.740,-14.747,-19.700,-17.885,-15.842,-12.403,-6.520,-7.554,0.009,0.986,-0.090,-0.122,-1.465,0.946,66.667,643287.000,1.000
-13.905,-15.849,-21.868,-18.413,-17.976,-16.317,-11.309,-9.682,0.010,0.986,-0.090,-0.122,-1.495,0.946,66.667,643288.000,1.000
-13.592,-15.729,-22.043,-17.694,-18.426,-18.974,-14.410,-10.733,0.012,0.987,-0.090,-0.092,-1.526,1.007,66.667,643289.000,1.000
-11.836,-14.627,-20.292,-15.781,-17.226,-19.906,-14.326,-10.311,0.011,0.987,-0.090,-0.153,-1.465,1.160,66.667,643290.000,1.000
-9.016,-12.852,-16.995,-12.860,-14.749,-18.939,-10.757,-8.299,0.012,0.987,-0.091,-0.153,-1.526,1.190,66.667,643291.000,1.000
-5.733,-10.705,-12.795,-9.302,-11.584,-16.425,-5.006,-5.134,0.011,0.986,-0.093,-0.153,-1.587,1.221,66.667,643292.000,1.000
-2.614,-8.376,-8.346,-5.570,-8.180,-13.089,0.966,-1.551,0.011,0.986,-0.091,-0.153,-1.617,1.312,66.667,643293.000,1.000
-0.173,-5.939,-4.135,-2.058,-4.707,-9.547,5.462,1.750,0.012,0.986,-0.088,-0.244,-1.556,1.404,66.667,643294.000,1.000
1.213,-3.574,-0.527,0.872,-1.435,-6.232,7.117,4.007,0.012,0.987,-0.089,-0.214,-1.556,1.495,66.667,643295.000,1.000
1.316,-1.729,2.150,2.867,1.012,-3.696,5.180,4.458,0.012,0.988,-0.090,-0.153,-1.587,1.495,66.667,643296.000,1.000
0.147,-0.939,3.673,3.748,1.966,-2.548,0.136,2.803,0.014,0.986,-0.090,-0.244,-1.587,1.526,66.667,643297.000,1.000
-1.973,-1.359,4.062,3.624,1.273,-2.867,-6.134,-0.419,0.014,0.985,-0.091,-0.275,-1.617,1.587,66.667,643298.000,1.000
-4.444,-2.540,3.642,2.849,-0.486,-3.973,-11.036,-3.867,0.015,0.985,-0.092,-0.183,-1.526,1.617,66.667,643299.000,1.000
-6.550,-3.703,2.954,1.958,-2.263,-4.925,-12.485,-5.941,0.016,0.985,-0.088,-0.153,-1.556,1.678,66.667,643300.000,1.000
-7.682,-4.176,2.534,1.514,-3.115,-5.109,-10.155,-5.728,0.015,0.985,-0.091,-0.244,-1.495,1.678,66.667,643301.000,1.000
-7.508,-3.653,2.716,1.836,-2.673,-4.359,-5.711,-3.615,0.016,0.984,-0.092,-0.183,-1.495,1.587,66.667,643302.000,1.000
-6.049,-2.272,3.500,2.851,-1.250,-2.767,-1.438,-0.843,0.018,0.984,-0.090,-0.153,-1.373,1.678,66.667,643303.000,1.000
-3.693,-0.558,4.541,4.209,0.446,-0.566,1.397,1.510,0.018,0.985,-0.093,-0.153,-1.343,1.648,66.667,643304.000,1.000
-1.144,0.794,5.283,5.494,1.710,1.758,2.912,3.063,0.018,0.984,-0.091,-0.153,-1.160,1.648,66.667,643305.000,1.000
0.768,1.235,5.197,6.349,2.051,3.410,3.623,3.784,0.019,0.984,-0.091,-0.122,-1.129,1.678,66.667,643306.000,1.000
1.454,0.643,4.091,6.592,1.351,3.667,3.513,3.568,0.020,0.983,-0.093,-0.061,-0.977,1.587,66.667,643307.000,1.000
0.826,-0.582,2.298,6.278,-0.046,2.574,2.552,2.433,0.018,0.983,-0.092,-0.061,-0.916,1.678,66.667,643308.000,1.000
-0.781,-1.821,0.367,5.572,-1.570,1.103,1.580,0.809,0.021,0.981,-0.091,-0.031,-0.824,1.587,66.667,643309.000,1.000
-2.945,-2.817,-1.586,4.480,-3.025,0.190,1.709,-0.730,0.020,0.982,-0.093,0.000,-0.732,1.343,66.667,643310.000,1.000
-5.397,-3.931,-4.061,2.833,-4.828,-0.288,2.862,-1.906,0.019,0.984,-0.092,0.061,-0.671,1.312,66.667,643311.000,1.000
-7.907,-5.688,-7.559,0.609,-7.466,-1.241,3.545,-2.809,0.019,0.984,-0.093,0.122,-0.580,1.312,66.667,643312.000,1.000
-10.125,-8.168,-11.947,-1.861,-10.909,-3.344,2.245,-3.735,0.018,0.985,-0.092,0.031,-0.458,1.282,66.667,643313.000,1.000
-11.599,-10.876,-16.326,-3.985,-14.458,-6.388,-1.133,-4.792,0.016,0.984,-0.091,0.061,-0.397,1.221,66.667,643314.000,1.000
-11.944,-12.964,-19.356,-5.106,-16.983,-9.314,-5.095,-5.638,0.017,0.982,-0.090,0.122,-0.366,1.160,66.667,643315.000,1.000
-11.073,-13.726,-20.046,-4.894,-17.679,-11.046,-7.958,-6.113,0.016,0.983,-0.089,0.153,-0.214,1.038,66.667,643316.000,1.000
-9.386,-13.126,-18.515,-3.724,-16.775,-11.399,-9.351,-6.881,0.015,0.985,-0.092,0.214,-0.336,1.038,66.667,643317.000,1.000
-7.662,-11.828,-15.918,-2.496,-15.310,-11.014,-10.106,-8.737,0.014,0.984,-0.088,0.305,-0.275,1.007,66.667,643318.000,1.000
-6.648,-10.722,-13.615,-2.018,-14.304,-10.788,-11.387,-11.711,0.015,0.985,-0.090,0.244,-0.336,1.068,66.667,643319.000,1.000
-6.683,-10.412,-12.375,-2.532,-14.234,-11.511,-14.046,-15.131,0.014,0.985,-0.093,0.275,-0.305,1.068,66.667,643320.000,1.000
-7.564,-10.925,-12.094,-3.619,-14.875,-13.424,-17.887,-18.007,0.014,0.986,-0.090,0.366,-0.214,1.007,66.667,643321.000,1.000
-8.591,-11.646,-11.930,-4.397,-15.333,-15.666,-21.261,-19.146,0.015,0.986,-0.091,0.366,-0.275,1.007,66.667,643322.000,1.000
-8.792,-11.490,-10.697,-3.950,-14.432,-16.481,-21.841,-17.501,0.013,0.985,-0.089,0.397,-0.244,0.946,66.667,643323.000,1.000
-7.327,-9.458,-7.519,-1.817,-11.452,-14.542,-18.465,-12.977,0.012,0.984,-0.090,0.397,-0.244,0.946,66.667,643324.000,1.000
-3.966,-5.364,-2.451,1.678,-6.721,-10.123,-12.135,-6.856,0.013,0.985,-0.091,0.397,-0.275,1.068,66.667,643325.000,1.000
0.696,-0.024,3.446,5.596,-1.360,-4.715,-4.933,-1.011,0.012,0.987,-0.087,0.458,-0.397,1.129,66.667,643326.000,1.000
5.524,5.244,8.712,8.958,3.549,0.187,1.688,3.380,0.012,0.990,-0.089,0.519,-0.488,1.190,66.667,643327.000,1.000
9.323,9.195,12.149,11.136,7.300,3.555,7.274,6.124,0.013,0.990,-0.090,0.366,-0.519,1.160,66.667,643328.000,1.000
11.288,11.040,13.206,11.920,9.442,4.803,11.381,7.348,0.012,0.982,-0.093,0.183,-0.610,1.221,66.667,643329.000,1.000
11.308,10.731,12.147,11.513,9.854,4.093,12.863,7.057,0.012,0.980,-0.096,0.244,-0.549,1.343,66.667,643330.000,1.000
9.990,9.008,9.912,10.515,8.955,2.483,10.644,5.442,0.011,0.982,-0.096,0.519,-0.610,1.404,66.667,643331.000,1.000
8.347,7.042,7.662,9.739,7.617,1.317,5.089,3.313,0.010,0.985,-0.092,0.488,-0.641,1.343,66.667,643332.000,1.000
7.222,5.801,6.199,9.777,6.669,1.261,-1.782,1.835,0.012,0.987,-0.088,0.549,-0.854,1.373,66.667,643333.000,1.000
6.859,5.580,5.658,10.650,6.520,2.091,-7.369,1.833,0.012,0.987,-0.090,0.549,-0.824,1.465,66.667,643334.000,1.000
7.108,6.171,5.777,12.006,7.338,3.505,-9.475,3.610,0.011,0.987,-0.088,0.427,-0.977,1.465,66.667,643335.000,1.000
7.794,7.271,6.287,13.546,9.205,5.683,-6.947,7.015,0.012,0.989,-0.092,0.336,-1.007,1.495,66.667,643336.000,1.000
8.775,8.578,7.000,15.107,11.798,8.698,-0.650,11.139,0.011,0.987,-0.092,0.488,-1.007,1.465,66.667,643337.000,1.000
9.822,9.723,7.685,16.490,14.167,11.835,6.319,14.295,0.012,0.987,-0.092,0.580,-1.099,1.495,66.667,643338.000,1.000
10.623,10.352,8.079,17.395,15.206,13.980,10.501,14.942,0.013,0.985,-0.092,0.610,-1.160,1.556,66.667,643339.000,1.000
10.910,10.364,8.066,17.567,14.440,14.637,10.634,12.805,0.013,0.986,-0.092,0.580,-1.160,1.526,66.667,643340.000,1.000
10.604,10.022,7.805,16.968,12.295,14.264,8.045,9.009,0.013,0.984,-0.094,0.610,-1.251,1.343,66.667,643341.000,1.000
9.843,9.788,7.620,15.792,9.747,13.669,4.970,5.266,0.014,0.983,-0.094,0.641,-1.221,1.373,66.667,643342.000,1.000
8.876,10.039,7.773,14.326,7.708,13.249,3.010,2.847,0.014,0.984,-0.092,0.580,-1.343,1.373,66.667,643343.000,1.000
7.914,10.829,8.297,12.811,6.512,12.745,2.488,1.921,0.017,0.985,-0.091,0.671,-1.343,1.373,66.667,643344.000,1.000
7.131,11.909,9.016,11.402,5.898,11.652,2.740,1.658,0.018,0.984,-0.092,0.610,-1.312,1.434,66.667,643345.000,1.000
6.704,12.949,9.751,10.232,5.521,9.796,3.072,1.146,0.018,0.986,-0.092,0.671,-1.282,1.373,66.667,643346.000,1.000
6.761,13.730,10.499,9.475,5.431,7.586,3.568,0.298,0.016,0.986,-0.091,0.641,-1.312,1.404,66.667,643347.000,1.000
7.286,14.176,11.356,9.281,5.927,5.759,4.969,-0.180,0.013,0.986,-0.093,0.610,-1.282,1.373,66.667,643348.000,1.000
8.133,14.279,12.308,9.619,7.034,4.782,7.454,0.272,0.013,0.985,-0.088,0.702,-1.282,1.251,66.667,643349.000,1.000
9.130,14.101,13.214,10.285,8.342,4.581,9.910,1.370,0.010,0.983,-0.089,0.549,-1.312,1.129,66.667,643350.000,1.000
10.129,13.802,13.958,11.117,9.399,4.787,10.998,2.430,0.011,0.981,-0.090,0.519,-1.404,1.190,66.667,643351.000,1.000
10.960,13.545,14.472,12.084,10.077,5.056,10.529,3.281,0.012,0.981,-0.090,0.519,-1.434,1.099,66.667,643352.000,1.000
11.423,13.345,14.599,13.101,10.413,5.129,9.197,4.269,0.013,0.982,-0.094,0.580,-1.404,1.099,66.667,643353.000,1.000
11.340,12.991,14.029,13.835,10.251,4.803,7.432,5.340,0.014,0.983,-0.096,0.580,-1.465,1.038,66.667,643354.000,1.000
10.694,12.214,12.572,13.876,9.365,4.091,5.426,5.814,0.014,0.983,-0.094,0.610,-1.556,0.916,66.667,643355.000,1.000
9.826,11.030,10.528,13.173,7.922,3.354,3.716,5.250,0.016,0.980,-0.094,0.641,-1.434,1.038,66.667,643356.000,1.000
9.306,9.757,8.595,12.111,6.470,2.991,2.682,3.904,0.018,0.981,-0.094,0.671,-1.465,1.129,66.667,643357.000,1.000
9.411,8.601,7.291,11.092,5.363,2.826,1.765,2.215,0.019,0.979,-0.098,0.702,-1.495,1.190,66.667,643358.000,1.000
9.831,7.422,6.612,10.211,4.517,1.985,0.005,0.500,0.017,0.975,-0.097,0.854,-1.343,1.129,66.667,643359.000,1.000
9.892,5.981,6.153,9.277,3.721,-0.296,-2.636,-0.817,0.018,0.974,-0.097,0.885,-1.282,1.190,66.667,643360.000,1.000
8.995,4.248,5.394,8.015,2.902,-3.803,-5.075,-1.287,0.019,0.975,-0.096,0.977,-1.221,1.312,66.667,643361.000,1.000
7.060,2.506,4.059,6.343,2.118,-7.357,-6.165,-0.810,0.017,0.977,-0.093,1.221,-1.190,1.251,66.667,643362.000,1.000
4.706,1.322,2.427,4.557,1.567,-9.456,-5.324,0.391,0.018,0.979,-0.094,1.221,-1.099,1.343,66.667,643363.000,1.000
2.929,1.329,1.254,3.203,1.634,-8.887,-2.336,2.218,0.017,0.985,-0.094,1.251,-1.038,1.312,66.667,643364.000,1.000
2.370,2.760,1.178,2.617,2.591,-5.311,2.637,4.705,0.016,0.987,-0.096,1.221,-0.946,1.312,66.667,643365.000,1.000
2.809,5.053,2.094,2.524,4.055,0.203,8.483,7.304,0.016,0.989,-0.096,1.160,-1.038,1.465,66.667,643366.000,1.000
3.440,7.100,3.248,2.225,5.061,5.487,13.194,8.620,0.017,0.990,-0.095,1.038,-1.007,1.434,66.667,643367.000,1.000
3.575,8.017,3.933,1.236,4.870,8.653,15.182,7.399,0.017,0.992,-0.096,0.885,-0.977,1.495,66.667,643368.000,1.000
3.151,7.683,4.062,-0.240,3.579,9.180,14.303,3.683,0.017,0.991,-0.098,0.610,-0.977,1.526,66.667,643369.000,1.000
2.735,6.672,4.148,-1.417,1.937,7.779,11.584,-1.113,0.015,0.989,-0.098,0.580,-0.916,1.495,66.667,643370.000,1.000
3.071,5.740,4.751,-1.527,0.674,5.554,8.359,-5.087,0.015,0.991,-0.097,0.397,-0.854,1.495,66.667,643371.000,1.000
4.409,5.179,5.825,-0.489,-0.071,3.173,5.415,-6.998,0.013,0.993,-0.096,0.244,-0.916,1.465,66.667,643372.000,1.000
6.199,4.638,6.620,0.963,-0.784,0.734,2.620,-6.970,0.011,0.994,-0.094,0.153,-1.007,1.343,66.667,643373.000,1.000
7.593,3.702,6.379,1.945,-1.887,-1.524,-0.359,-6.010,0.008,0.995,-0.094,0.031,-1.099,1.160,66.667,643374.000,1.000
8.131,2.451,5.031,2.110,-3.157,-2.925,-3.108,-4.910,0.009,0.995,-0.093,-0.214,-1.221,0.946,66.667,643375.000,1.000
7.801,1.240,3.052,1.568,-4.094,-3.201,-4.860,-4.029,0.008,0.996,-0.092,-0.305,-1.160,0.854,66.667,643376.000,1.000
6.828,0.273,1.014,0.539,-4.454,-2.822,-5.290,-3.636,0.009,0.996,-0.093,-0.580,-1.434,0.793,66.667,643377.000,1.000
5.670,-0.288,-0.520,-0.602,-4.105,-1.928,-4.063,-3.619,0.009,0.996,-0.092,-0.702,-1.587,0.671,66.667,643378.000,1.000
4.910,-0.212,-1.118,-1.342,-2.914,0.059,-0.716,-3.423,0.012,0.995,-0.092,-0.916,-1.587,0.610,66.667,643379.000,1.000
4.926,0.545,-0.810,-1.408,-1.144,3.249,4.154,-2.749,0.013,0.992,-0.092,-1.038,-1.648,0.732,66.667,643380.000,1.000
5.783,1.773,-0.058,-0.908,0.530,6.577,8.620,-1.720,0.016,0.991,-0.091,-1.129,-1.740,0.732,66.667,643381.000,1.000
7.382,3.232,0.670,-0.088,1.584,8.742,10.958,-0.350,0.016,0.989,-0.093,-1.221,-1.801,0.885,66.667,643382.000,1.000
9.404,4.738,1.051,0.750,1.882,9.301,10.778,1.276,0.016,0.988,-0.092,-1.221,-1.831,0.854,66.667,643383.000,1.000
11.252,6.064,0.881,1.227,1.512,8.563,8.606,2.471,0.017,0.987,-0.094,-1.282,-1.801,1.038,66.667,643384.000,1.000
12.357,7.016,0.242,1.171,0.795,7.003,5.490,2.587,0.018,0.983,-0.094,-1.251,-1.831,1.099,66.667,643385.000,1.000
12.517,7.567,-0.412,0.812,0.302,5.172,3.065,1.980,0.019,0.982,-0.094,-1.160,-1.801,1.190,66.667,643386.000,1.000
11.934,7.844,-0.525,0.554,0.547,3.836,2.748,1.573,0.017,0.982,-0.094,-1.038,-1.831,1.282,66.667,643387.000,1.000
11.035,8.047,0.209,0.654,1.656,3.714,4.620,1.877,0.018,0.982,-0.091,-0.977,-1.831,1.373,66.667,643388.000,1.000
10.197,8.275,1.626,1.125,3.369,4.922,7.495,2.893,0.019,0.981,-0.091,-0.977,-1.801,1.373,66.667,643389.000,1.000
9.456,8.380,3.093,1.758,5.187,6.908,9.991,4.453,0.018,0.978,-0.091,-0.854,-1.801,1.465,66.667,643390.000,1.000
8.587,8.146,3.936,2.283,6.616,8.990,11.273,6.263,0.015,0.975,-0.091,-0.641,-1.709,1.404,66.667,643391.000,1.000
7.656,7.697,4.069,2.653,7.467,10.716,10.946,7.835,0.015,0.974,-0.087,-0.488,-1.801,1.343,66.667,643392.000,1.000
7.205,7.499,4.079,3.091,7.892,11.694,8.935,8.683,0.014,0.974,-0.090,-0.244,-1.831,1.404,66.667,643393.000,1.000
7.759,7.873,4.667,3.830,8.142,11.487,5.689,8.677,0.014,0.974,-0.089,-0.031,-1.862,1.251,66.667,643394.000,1.000
9.308,8.683,6.060,4.873,8.381,10.029,2.204,8.175,0.013,0.972,-0.091,0.061,-1.953,1.190,66.667,643395.000,1.000
11.225,9.478,7.847,5.900,8.651,7.980,-0.360,7.664,0.015,0.975,-0.093,0.336,-1.862,1.099,66.667,643396.000,1.000
12.560,9.796,9.273,6.390,8.927,6.418,-1.172,7.390,0.014,0.978,-0.089,0.488,-1.770,0.977,66.667,643397.000,1.000
12.505,9.369,9.688,5.921,9.128,6.065,-0.027,7.439,0.015,0.979,-0.088,0.610,-1.831,0.916,66.667,643398.000,1.000
10.864,8.179,8.880,4.464,9.136,6.725,2.509,7.925,0.017,0.979,-0.089,0.702,-1.831,0.763,66.667,643399.000,1.000
8.276,6.495,7.201,2.476,8.927,7.543,5.417,8.923,0.016,0.980,-0.090,0.793,-1.709,0.763,66.667,643400.000,1.000
5.875,4.790,5.362,0.648,8.606,7.801,7.729,10.209,0.016,0.979,-0.092,0.885,-1.556,0.702,66.667,643401.000,1.000
4.519,3.409,3.869,-0.611,8.188,7.303,8.744,11.216,0.015,0.979,-0.094,0.977,-1.587,0.641,66.667,643402.000,1.000
4.198,2.306,2.601,-1.490,7.450,6.210,8.254,11.434,0.013,0.980,-0.090,1.038,-1.617,0.549,66.667,643403.000,1.000
4.223,1.230,1.058,-2.507,6.215,4.970,6.657,10.819,0.015,0.981,-0.088,1.099,-1.617,0.397,66.667,643404.000,1.000
3.961,0.226,-0.905,-3.883,4.732,4.326,4.752,9.770,0.015,0.982,-0.091,1.221,-1.465,0.519,66.667,643405.000,1.000
3.374,-0.191,-2.712,-5.217,3.659,4.921,3.492,8.895,0.014,0.983,-0.094,1.251,-1.587,0.458,66.667,643406.000,1.000
2.966,0.572,-3.425,-5.717,3.737,6.857,3.876,8.836,0.015,0.986,-0.092,1.221,-1.495,0.458,66.667,643407.000,1.000
3.444,2.739,-2.352,-4.724,5.417,9.730,6.581,10.090,0.016,0.987,-0.093,1.190,-1.587,0.488,66.667,643408.000,1.000
5.319,5.940,0.532,-2.176,8.470,12.768,10.984,12.437,0.015,0.988,-0.094,1.129,-1.495,0.610,66.667,643409.000,1.000
8.469,9.214,4.471,1.161,11.792,14.820,14.832,14.500,0.013,0.989,-0.094,1.068,-1.556,0.732,66.667,643410.000,1.000
12.006,11.396,8.235,4.010,13.904,14.613,15.727,14.509,0.014,0.988,-0.092,1.038,-1.404,0.854,66.667,643411.000,1.000
14.730,11.769,10.772,5.378,13.909,11.570,13.077,11.782,0.012,0.990,-0.093,1.038,-1.434,0.977,66.667,643412.000,1.000
15.746,10.405,11.607,5.091,11.908,6.419,8.226,7.161,0.012,0.991,-0.094,0.946,-1.434,1.068,66.667,643413.000,1.000
14.912,8.028,10.893,3.744,8.690,0.750,2.795,2.156,0.013,0.991,-0.094,0.885,-1.404,1.160,66.667,643414.000,1.000
12.922,5.707,9.359,2.322,5.347,-3.797,-2.203,-1.839,0.011,0.992,-0.093,0.824,-1.404,1.251,66.667,643415.000,1.000
10.832,4.426,8.030,1.695,2.933,-6.024,-5.865,-3.837,0.010,0.993,-0.094,0.702,-1.343,1.221,66.667,643416.000,1.000
9.311,4.466,7.632,2.119,1.945,-5.737,-7.558,-3.700,0.010,0.994,-0.095,0.549,-1.434,1.251,66.667,643417.000,1.000
8.305,5.219,8.134,3.103,1.996,-4.134,-7.648,-2.414,0.009,0.991,-0.097,0.366,-1.495,1.312,66.667,643418.000,1.000
7.432,5.766,8.926,3.903,2.301,-2.931,-7.125,-1.344,0.009,0.989,-0.095,0.214,-1.556,1.343,66.667,643419.000,1.000
6.511,5.635,9.378,4.135,2.450,-2.708,-6.511,-1.183,0.009,0.987,-0.097,0.153,-1.678,1.343,66.667,643420.000,1.000
5.625,4.945,9.127,3.832,2.479,-2.669,-5.804,-1.960,0.011,0.983,-0.096,0.031,-1.678,1.312,66.667,643421.000,1.000
4.880,4.021,8.019,3.161,2.401,-2.046,-5.220,-3.576,0.014,0.981,-0.094,0.092,-1.587,1.282,66.667,643422.000,1.000
4.316,3.192,6.170,2.369,2.125,-0.911,-4.944,-5.610,0.017,0.981,-0.098,0.153,-1.648,1.343,66.667,643423.000,1.000
3.874,2.755,3.980,1.789,1.736,0.365,-4.445,-7.013,0.017,0.984,-0.099,0.214,-1.617,1.434,66.667,643424.000,1.000
3.184,2.665,1.749,1.498,1.312,1.419,-3.077,-6.820,0.015,0.988,-0.096,0.275,-1.526,1.404,66.667,643425.000,1.000
1.646,2.346,-0.597,1.117,0.608,1.766,-1.106,-5.118,0.016,0.985,-0.094,0.244,-1.404,1.373,66.667,643426.000,1.000
-0.881,1.252,-3.108,0.282,-0.560,1.253,0.653,-2.864,0.020,0.986,-0.094,0.214,-1.343,1.373,66.667,643427.000,1.000
-3.657,-0.493,-5.383,-0.881,-1.906,0.296,1.649,-0.973,0.022,0.983,-0.097,0.183,-1.129,1.404,66.667,643428.000,1.000
-5.647,-2.250,-6.865,-1.993,-3.023,-0.837,1.482,0.060,0.021,0.983,-0.096,0.244,-1.007,1.556,66.667,643429.000,1.000
-6.399,-3.416,-7.366,-2.891,-3.776,-2.178,-0.001,0.033,0.020,0.982,-0.095,0.244,-0.824,1.556,66.667,643430.000,1.000
-6.256,-3.701,-7.092,-3.650,-4.137,-3.299,-2.127,-0.963,0.017,0.981,-0.096,0.336,-0.763,1.556,66.667,643431.000,1.000
-5.896,-3.189,-6.322,-4.304,-3.961,-3.440,-3.839,-2.445,0.014,0.983,-0.095,0.427,-0.641,1.404,66.667,643432.000,1.000
-5.855,-2.342,-5.237,-4.700,-3.106,-2.556,-4.663,-3.688,0.010,0.984,-0.093,0.397,-0.610,1.251,66.667,643433.000,1.000
-6.252,-1.721,-3.905,-4.546,-1.572,-1.437,-4.582,-3.975,0.007,0.983,-0.092,0.275,-0.580,1.099,66.667,643434.000,1.000
-6.768,-1.573,-2.319,-3.640,0.454,-0.895,-3.517,-2.970,0.007,0.980,-0.094,0.244,-0.641,0.824,66.667,643435.000,1.000
-6.977,-1.834,-0.605,-2.185,2.443,-1.381,-1.896,-1.196,0.012,0.978,-0.094,0.366,-0.763,0.732,66.667,643436.000,1.000
-6.756,-2.417,0.843,-0.835,3.598,-3.033,-1.013,0.151,0.011,0.978,-0.094,0.366,-0.763,0.702,66.667,643437.000,1.000
-6.296,-3.208,1.647,-0.257,3.480,-5.417,-1.643,0.286,0.013,0.979,-0.095,0.549,-0.793,0.549,66.667,643438.000,1.000
-5.859,-3.913,1.831,-0.614,2.544,-7.396,-2.741,-0.458,0.011,0.980,-0.094,0.610,-0.763,0.397,66.667,643439.000,1.000
-5.639,-4.157,1.799,-1.520,1.830,-7.714,-2.203,-1.008,0.011,0.981,-0.096,0.732,-0.793,0.397,66.667,643440.000,1.000
-5.694,-3.739,1.982,-2.424,2.076,-5.895,0.943,-0.537,0.012,0.980,-0.093,0.824,-0.702,0.519,66.667,643441.000,1.000
-5.885,-2.775,2.580,-2.993,3.168,-2.709,5.096,0.768,0.013,0.982,-0.090,0.732,-0.732,0.610,66.667,643442.000,1.000
-6.030,-1.646,3.491,-3.272,4.340,0.241,7.293,1.911,0.014,0.983,-0.091,0.763,-0.732,0.671,66.667,643443.000,1.000
-6.089,-0.799,4.404,-3.548,4.845,1.541,5.893,2.055,0.010,0.982,-0.093,0.824,-0.854,0.702,66.667,643444.000,1.000
-6.054,-0.416,5.069,-3.984,4.489,0.810,1.829,1.327,0.010,0.982,-0.095,0.824,-0.793,0.793,66.667,643445.000,1.000
-5.725,-0.208,5.559,-4.325,3.760,-1.165,-2.352,0.833,0.012,0.982,-0.097,0.885,-0.885,0.824,66.667,643446.000,1.000
-4.739,0.449,6.213,-4.013,3.562,-2.802,-4.209,1.861,0.012,0.985,-0.095,0.885,-0.885,0.916,66.667,643447.000,1.000
-2.944,1.970,7.218,-2.727,4.509,-2.529,-2.770,4.622,0.010,0.986,-0.095,0.885,-0.946,1.038,66.667,643448.000,1.000
-0.774,3.918,8.178,-0.935,6.169,-0.043,0.690,7.588,0.011,0.987,-0.096,0.824,-0.946,1.129,66.667,643449.000,1.000
0.893,5.099,8.258,0.234,7.191,3.122,3.400,8.511,0.012,0.986,-0.097,0.671,-0.946,1.312,66.667,643450.000,1.000
1.458,4.644,7.025,-0.095,6.526,4.848,3.436,6.417,0.010,0.986,-0.094,0.702,-0.946,1.343,66.667,643451.000,1.000
1.189,2.908,5.082,-1.730,4.487,4.336,1.407,2.510,0.010,0.987,-0.094,0.671,-1.068,1.434,66.667,643452.000,1.000
0.904,1.134,3.617,-3.606,2.394,2.524,-0.278,-0.890,0.009,0.988,-0.094,0.671,-1.160,1.526,66.667,643453.000,1.000
1.248,0.417,3.447,-4.678,1.457,1.025,0.366,-2.132,0.010,0.989,-0.098,0.641,-1.099,1.587,66.667,643454.000,1.000
2.281,1.050,4.548,-4.594,2.014,0.911,3.384,-1.181,0.011,0.987,-0.095,0.671,-1.099,1.678,66.667,643455.000,1.000
3.492,2.455,6.124,-3.786,3.389,1.993,6.960,0.655,0.011,0.988,-0.094,0.610,-1.160,1.617,66.667,643456.000,1.000
4.121,3.556,7.063,-3.074,4.410,3.105,8.769,1.815,0.012,0.988,-0.097,0.610,-1.160,1.495,66.667,643457.000,1.000
3.669,3.480,6.639,-3.047,4.277,3.287,7.676,1.627,0.012,0.986,-0.099,0.488,-1.190,1.465,66.667,643458.000,1.000
2.207,2.054,4.938,-3.736,3.005,2.557,4.366,0.564,0.013,0.987,-0.099,0.458,-1.282,1.434,66.667,643459.000,1.000
0.183,-0.354,2.550,-4.848,1.090,1.462,0.537,-0.500,0.013,0.989,-0.099,0.427,-1.312,1.343,66.667,643460.000,1.000
-1.989,-3.251,-0.012,-6.194,-1.034,0.264,-2.484,-1.179,0.016,0.988,-0.098,0.397,-1.282,1.343,66.667,643461.000,1.000
-4.025,-6.103,-2.475,-7.709,-3.145,-1.232,-4.630,-1.790,0.017,0.985,-0.098,0.336,-1.190,1.404,66.667,643462.000,1.000
-5.792,-8.409,-4.756,-9.305,-5.193,-3.349,-6.825,-2.927,0.017,0.983,-0.098,0.336,-1.129,1.221,66.667,643463.000,1.000
-7.448,-9.944,-6.927,-10.874,-7.163,-5.947,-9.623,-4.733,0.015,0.984,-0.098,0.336,-1.190,1.282,66.667,643464.000,1.000
-9.250,-10.766,-8.990,-12.205,-8.771,-8.081,-11.989,-6.364,0.014,0.984,-0.096,0.336,-1.160,1.282,66.667,643465.000,1.000
-11.133,-11.076,-10.715,-13.019,-9.594,-8.812,-12.192,-6.691,0.014,0.984,-0.098,0.336,-1.068,1.099,66.667,643466.000,1.000
-12.675,-11.213,-11.837,-13.293,-9.660,-8.331,-10.119,-5.727,0.016,0.984,-0.097,0.366,-1.038,1.099,66.667,643467.000,1.000
-13.439,-11.441,-12.242,-13.332,-9.480,-7.624,-7.541,-4.670,0.014,0.981,-0.096,0.427,-0.977,0.854,66.667,643468.000,1.000
-13.207,-11.695,-11.943,-13.430,-9.459,-7.338,-6.269,-4.601,0.014,0.979,-0.098,0.549,-1.007,0.854,66.667,643469.000,1.000
-12.068,-11.757,-11.131,-13.646,-9.659,-7.546,-7.121,-5.820,0.013,0.979,-0.097,0.580,-0.977,0.732,66.667,643470.000,1.000
-10.484,-11.652,-10.249,-13.836,-10.024,-8.143,-9.861,-8.004,0.014,0.981,-0.095,0.671,-0.885,0.732,66.667,643471.000,1.000
-9.245,-11.692,-9.824,-13.746,-10.425,-8.925,-13.039,-10.255,0.014,0.981,-0.096,0.763,-0.885,0.671,66.667,643472.000,1.000
-9.139,-12.172,-10.170,-13.197,-10.636,-9.615,-14.586,-11.420,0.013,0.983,-0.097,0.854,-0.854,0.610,66.667,643473.000,1.000
-10.427,-13.122,-11.223,-12.238,-10.473,-10.126,-13.544,-10.920,0.010,0.982,-0.095,0.732,-1.068,0.519,66.667,643474.000,1.000
-12.670,-14.326,-12.643,-11.135,-9.981,-10.637,-10.875,-9.183,0.012,0.980,-0.094,0.732,-1.068,0.580,66.667,643475.000,1.000
-15.105,-15.470,-14.051,-10.271,-9.418,-11.254,-8.212,-7.209,0.012,0.979,-0.098,0.671,-0.885,0.488,66.667,643476.000,1.000
-17.134,-16.260,-15.188,-9.955,-8.970,-11.744,-6.155,-5.754,0.011,0.979,-0.097,0.763,-0.916,0.244,66.667,643477.000,1.000
-18.500,-16.485,-15.887,-10.205,-8.545,-11.687,-4.075,-4.907,0.011,0.983,-0.096,0.916,-0.977,0.336,66.667,643478.000,1.000
-19.042,-15.977,-15.932,-10.656,-7.852,-10.816,-1.391,-4.340,0.012,0.984,-0.095,0.916,-1.129,0.458,66.667,643479.000,1.000
-18.511,-14.571,-15.037,-10.707,-6.620,-9.139,1.560,-3.697,0.011,0.984,-0.094,0.885,-1.068,0.549,66.667,643480.000,1.000
-16.850,-12.353,-13.212,-9.916,-4.856,-6.922,4.101,-2.685,0.010,0.986,-0.094,0.702,-1.129,0.610,66.667,643481.000,1.000
-14.440,-9.827,-10.982,-8.285,-2.889,-4.546,6.131,-1.007,0.008,0.985,-0.093,0.671,-1.221,0.549,66.667,643482.000,1.000
-11.927,-7.702,-9.094,-6.239,-1.240,-2.477,7.924,1.330,0.007,0.985,-0.094,0.671,-1.343,0.671,66.667,643483.000,1.000
-10.044,-6.646,-8.184,-4.508,-0.569,-1.364,8.939,3.408,0.008,0.983,-0.098,0.549,-1.343,0.610,66.667,643484.000,1.000
-9.364,-6.965,-8.531,-3.798,-1.351,-1.633,7.881,3.759,0.008,0.984,-0.099,0.610,-1.465,0.641,66.667,643485.000,1.000
-9.827,-8.221,-9.754,-4.198,-3.286,-2.844,4.442,1.886,0.008,0.985,-0.096,0.641,-1.465,0.671,66.667,643486.000,1.000
-10.566,-9.342,-10.809,-4.949,-5.231,-3.822,0.094,-0.982,0.008,0.986,-0.094,0.610,-1.526,0.732,66.667,643487.000,1.000
-10.424,-9.271,-10.533,-4.954,-5.918,-3.497,-3.010,-2.883,0.007,0.987,-0.095,0.519,-1.617,0.824,66.667,643488.000,1.000
-8.752,-7.638,-8.368,-3.573,-4.749,-1.724,-3.489,-2.635,0.007,0.988,-0.094,0.458,-1.709,0.763,66.667,643489.000,1.000
-5.840,-4.984,-4.765,-1.071,-2.132,0.456,-1.485,-0.598,0.007,0.987,-0.093,0.458,-1.831,0.977,66.667,643490.000,1.000
-2.616,-2.360,-0.863,1.655,0.795,1.476,1.359,1.653,0.008,0.985,-0.094,0.366,-1.862,0.946,66.667,643491.000,1.000
0.053,-0.589,2.309,3.774,2.926,0.461,2.870,2.531,0.006,0.986,-0.092,0.397,-1.984,1.129,66.667,643492.000,1.000
1.691,0.059,4.238,4.855,3.694,-2.230,1.827,1.502,0.008,0.986,-0.094,0.366,-1.953,1.221,66.667,643493.000,1.000
2.135,-0.308,4.813,4.809,3.051,-5.565,-1.364,-0.870,0.008,0.988,-0.095,0.183,-2.045,1.282,66.667,643494.000,1.000
1.550,-1.254,4.305,3.952,1.492,-8.329,-4.918,-3.265,0.007,0.984,-0.096,0.153,-2.075,1.373,66.667,643495.000,1.000
0.552,-1.908,3.472,3.061,0.146,-9.134,-6.303,-4.022,0.009,0.984,-0.096,0.153,-2.075,1.251,66.667,643496.000,1.000
-0.163,-1.464,3.073,2.810,0.051,-7.093,-3.994,-2.417,0.010,0.982,-0.097,0.244,-1.984,1.434,66.667,643497.000,1.000
-0.538,-0.057,3.077,2.974,1.028,-2.955,0.854,0.206,0.012,0.981,-0.096,0.153,-2.014,1.434,66.667,643498.000,1.000
-1.012,1.404,2.877,2.771,1.955,1.384,5.474,1.650,0.012,0.981,-0.097,0.214,-2.045,1.556,66.667,643499.000,1.000
-1.551,2.375,2.350,2.024,2.177,4.563,7.945,1.053,0.014,0.982,-0.097,0.214,-1.923,1.617,66.667,643500.000,1.000
-1.554,2.958,1.947,1.283,1.815,6.120,7.676,-0.955,0.015,0.982,-0.098,0.427,-1.801,1.740,66.667,643501.000,1.000
-0.746,3.238,1.838,0.942,1.089,5.941,4.819,-3.397,0.013,0.981,-0.097,0.397,-1.678,1.801,66.667,643502.000,1.000
0.516,3.183,1.803,0.995,0.216,4.524,0.569,-5.296,0.016,0.983,-0.098,0.366,-1.709,1.862,66.667,643503.000,1.000
1.942,3.141,1.896,1.507,-0.264,3.133,-3.110,-5.709,0.014,0.983,-0.095,0.397,-1.587,1.831,66.667,643504.000,1.000
3.604,3.655,2.442,2.535,0.093,2.723,-5.022,-4.447,0.017,0.981,-0.097,0.458,-1.526,1.862,66.667,643505.000,1.000
5.367,4.674,3.358,3.615,0.946,3.008,-5.491,-2.469,0.017,0.981,-0.097,0.488,-1.434,1.801,66.667,643506.000,1.000
6.768,5.615,4.154,4.065,1.535,3.095,-5.245,-0.898,0.015,0.980,-0.097,0.519,-1.404,1.770,66.667,643507.000,1.000
7.591,6.135,4.541,3.790,1.537,2.650,-4.251,0.078,0.018,0.981,-0.094,0.671,-1.373,1.770,66.667,643508.000,1.000
8.020,6.347,4.652,3.405,1.247,2.141,-2.133,0.998,0.018,0.982,-0.095,0.702,-1.129,1.801,66.667,643509.000,1.000
8.183,6.511,4.789,3.602,1.243,2.414,1.049,2.329,0.017,0.981,-0.095,0.641,-1.068,1.801,66.667,643510.000,1.000
7.806,6.721,5.037,4.487,1.900,4.075,4.718,3.964,0.017,0.982,-0.097,0.702,-1.068,1.831,66.667,643511.000,1.000
6.642,6.966,5.306,5.624,3.226,7.144,8.147,5.397,0.017,0.983,-0.097,0.732,-0.946,1.770,66.667,643512.000,1.000
5.146,7.470,5.756,6.640,5.067,11.096,10.947,6.348,0.016,0.984,-0.094,0.824,-0.824,1.923,66.667,643513.000,1.000
4.084,8.380,6.547,7.310,6.903,14.687,12.771,6.733,0.015,0.986,-0.092,0.885,-0.641,1.892,66.667,643514.000,1.000
3.704,9.259,7.328,7.336,7.759,16.312,13.072,6.407,0.016,0.985,-0.093,0.977,-0.488,1.831,66.667,643515.000,1.000
3.982,9.639,7.742,6.784,7.153,15.524,12.148,5.699,0.016,0.988,-0.092,1.038,-0.458,1.740,66.667,643516.000,1.000
5.011,9.550,7.890,6.246,5.607,13.355,11.312,5.427,0.017,0.989,-0.090,1.099,-0.427,1.678,66.667,643517.000,1.000
6.305,8.794,7.577,5.891,3.532,10.523,10.940,5.627,0.017,0.988,-0.092,1.007,-0.305,1.831,66.667,643518.000,1.000
6.480,6.531,5.862,4.958,0.568,6.665,9.751,5.205,0.016,0.987,-0.094,1.099,-0.183,1.984,66.667,643519.000,1.000
4.455,2.387,2.098,2.685,-3.443,1.828,6.791,3.282,0.012,0.987,-0.090,1.099,-0.214,2.075,66.667,643520.000,1.000
0.470,-2.713,-3.162,-0.810,-7.733,-2.652,2.649,0.025,0.011,0.984,-0.090,1.099,-0.183,1.892,66.667,643521.000,1.000
-4.240,-7.174,-8.505,-4.659,-11.059,-5.172,-1.404,-3.662,0.018,0.985,-0.094,1.068,-0.305,1.923,66.667,643522.000,1.000
-8.162,-9.601,-12.320,-7.644,-12.226,-4.831,-3.881,-6.409,0.024,0.991,-0.098,1.251,-0.214,1.923,66.667,643523.000,1.000
-9.788,-9.099,-13.156,-8.449,-10.303,-1.517,-3.278,-6.791,0.025,0.996,-0.094,1.434,-0.061,2.106,66.667,643524.000,1.000
-8.165,-5.617,-10.419,-6.330,-5.258,3.836,0.611,-4.302,0.021,0.998,-0.089,1.251,0.183,2.319,66.667,643525.000,1.000
-3.833,-0.379,-5.158,-1.954,1.469,9.294,6.054,0.153,0.015,0.998,-0.086,1.038,0.214,2.380,66.667,643526.000,1.000
1.028,4.462,0.159,2.686,7.485,13.050,10.717,4.784,0.011,0.995,-0.085,0.671,0.305,2.289,66.667,643527.000,1.000
3.829,6.958,2.980,5.386,10.678,14.356,13.103,7.667,0.011,0.988,-0.090,0.549,0.336,2.075,66.667,643528.000,1.000
3.384,6.614,2.285,5.208,10.506,13.716,13.237,7.794,0.015,0.981,-0.095,0.427,0.366,2.014,66.667,643529.000,1.000
0.629,4.711,-0.771,3.163,8.452,12.669,12.702,6.116,0.018,0.978,-0.097,0.549,0.397,1.831,66.667,643530.000,1.000
-2.579,2.998,-4.059,1.143,6.630,12.602,12.966,4.719,0.021,0.979,-0.101,0.824,0.458,2.014,66.667,643531.000,1.000
-5.006,2.154,-6.256,0.263,5.930,13.437,13.631,4.849,0.023,0.982,-0.099,1.068,0.427,2.106,66.667,643532.000,1.000
-6.306,1.816,-7.240,0.457,5.878,13.980,13.462,6.379,0.025,0.985,-0.095,1.068,0.488,2.106,66.667,643533.000,1.000
-6.468,1.577,-7.312,1.177,5.762,13.478,12.265,8.595,0.024,0.985,-0.091,1.221,0.641,2.258,66.667,643534.000,1.000
-5.539,1.483,-6.627,2.012,5.309,12.368,10.632,10.594,0.021,0.986,-0.092,1.190,0.793,2.319,66.667,643535.000,1.000
-3.831,1.641,-5.331,2.714,4.470,11.334,8.578,11.294,0.018,0.982,-0.094,1.129,0.824,2.411,66.667,643536.000,1.000
-2.169,1.645,-3.887,2.967,3.086,10.085,5.532,10.485,0.016,0.981,-0.094,1.190,0.946,2.289,66.667,643537.000,1.000
-1.629,0.688,-3.011,2.420,1.007,7.589,1.511,10.375,0.012,0.982,-0.095,1.251,0.854,2.228,66.667,643538.000,1.000
-2.791,-1.635,-3.205,0.984,-1.551,3.535,-2.541,14.411,0.010,0.979,-0.094,1.312,0.763,2.319,66.667,643539.000,1.000
-5.200,-4.733,-4.293,-0.929,-3.886,-1.011,-5.453,23.571,0.009,0.976,-0.096,1.312,0.519,2.228,66.667,643540.000,1.000
-7.341,-7.042,-5.152,-2.317,-4.854,-4.292,-6.048,35.113,0.008,0.972,-0.096,1.465,0.366,2.106,66.667,643541.000,1.000
-7.155,-6.498,-3.929,-1.773,-3.048,-4.462,-3.032,45.117,0.007,0.972,-0.097,1.526,0.244,1.953,66.667,643542.000,1.000
-3.395,-1.855,0.663,1.533,2.127,-0.415,3.538,50.565,0.010,0.971,-0.099,1.862,0.275,1.648,66.667,643543.000,1.000
2.904,5.659,7.693,6.665,9.022,6.426,10.415,49.536,0.011,0.968,-0.101,1.984,0.122,1.434,66.667,643544.000,1.000
8.714,12.521,14.103,11.158,14.199,12.026,12.917,41.899,0.017,0.969,-0.103,2.197,0.153,1.221,66.667,643545.000,1.000
11.249,15.428,16.924,12.842,14.945,12.842,9.154,30.244,0.020,0.973,-0.103,2.441,0.061,0.977,66.667,643546.000,1.000
9.914,13.487,15.316,11.337,11.161,8.611,1.421,18.665,0.020,0.975,-0.104,2.686,0.122,1.038,66.667,643547.000,1.000
6.102,8.078,10.553,7.807,4.876,1.720,-6.250,10.054,0.020,0.975,-0.100,2.777,0.214,1.129,66.667,643548.000,1.000
1.754,1.399,4.680,3.773,-1.454,-5.132,-10.907,4.902,0.018,0.975,-0.100,2.686,0.153,1.160,66.667,643549.000,1.000
-1.556,-4.476,-0.460,0.433,-6.026,-10.011,-11.541,2.408,0.016,0.974,-0.102,2.625,0.122,1.312,66.667,643550.000,1.000
-2.747,-7.876,-3.500,-1.308,-7.874,-11.611,-8.597,1.961,0.015,0.976,-0.100,2.655,0.153,1.190,66.667,643551.000,1.000
-1.293,-7.893,-3.766,-0.879,-6.891,-9.544,-3.427,3.262,0.015,0.980,-0.101,2.716,0.031,1.099,66.667,643552.000,1.000
2.435,-4.902,-1.667,1.487,-4.023,-5.047,2.120,5.445,0.015,0.982,-0.101,2.747,0.031,1.099,66.667,643553.000,1.000
6.842,-0.758,1.182,4.422,-1.218,-0.813,5.921,6.711,0.013,0.983,-0.102,2.716,0.061,1.129,66.667,643554.000,1.000
9.526,1.823,2.521,5.880,-0.729,0.296,5.877,5.199,0.014,0.985,-0.106,2.472,-0.092,1.221,66.667,643555.000,1.000
8.615,0.704,0.697,4.378,-3.838,-3.221,0.984,0.396,0.013,0.985,-0.105,2.441,-0.153,1.251,66.667,643556.000,1.000
4.146,-4.178,-4.068,0.228,-9.688,-10.348,-7.154,-6.178,0.010,0.985,-0.107,2.411,-0.183,1.373,66.667,643557.000,1.000
-1.665,-10.485,-9.530,-4.404,-15.434,-17.580,-14.483,-11.871,0.011,0.986,-0.106,2.289,-0.214,1.404,66.667,643558.000,1.000
-5.788,-15.069,-12.932,-7.059,-18.263,-21.326,-17.652,-15.008,0.012,0.986,-0.105,2.258,-0.275,1.373,66.667,643559.000,1.000
-6.434,-16.227,-12.997,-6.817,-17.511,-20.894,-16.770,-15.912,0.015,0.985,-0.108,2.289,-0.549,1.434,66.667,643560.000,1.000
-3.847,-14.276,-10.329,-4.496,-14.532,-18.282,-14.226,-15.685,0.012,0.987,-0.105,2.228,-0.671,1.526,66.667,643561.000,1.000
0.435,-10.503,-6.371,-1.521,-11.065,-15.518,-12.144,-15.112,0.009,0.990,-0.105,2.075,-0.702,1.587,66.667,643562.000,1.000
4.476,-6.378,-2.613,0.860,-8.370,-13.404,-11.701,-14.992,0.008,0.989,-0.103,1.984,-0.854,1.617,66.667,643563.000,1.000
6.741,-3.179,-0.181,1.944,-6.978,-11.883,-12.935,-15.947,0.006,0.989,-0.101,1.801,-0.977,1.648,66.667,643564.000,1.000
6.998,-1.337,0.762,1.949,-6.441,-10.410,-14.334,-17.448,0.006,0.989,-0.104,1.526,-1.190,1.556,66.667,643565.000,1.000
6.235,-0.468,0.916,1.688,-5.927,-8.707,-14.224,-18.371,0.007,0.991,-0.105,1.434,-1.495,1.465,66.667,643566.000,1.000
5.565,-0.108,0.983,1.732,-5.186,-7.364,-12.742,-18.450,0.008,0.994,-0.105,1.312,-1.678,1.373,66.667,643567.000,1.000
5.699,0.317,1.440,2.313,-4.227,-6.700,-10.909,-18.030,0.011,0.993,-0.099,1.160,-1.801,1.343,66.667,643568.000,1.000
7.047,1.692,2.669,3.637,-2.689,-5.676,-8.582,-16.986,0.012,0.994,-0.101,1.068,-2.045,1.404,66.667,643569.000,1.000
9.340,4.300,4.436,5.501,-0.458,-3.112,-4.793,-15.010,0.014,0.991,-0.098,0.977,-2.106,1.373,66.667,643570.000,1.000
11.462,7.143,5.620,7.009,1.615,0.604,0.533,-12.514,0.015,0.990,-0.097,0.763,-2.075,1.404,66.667,643571.000,1.000
12.498,8.951,5.260,7.372,2.468,3.920,5.988,-10.442,0.016,0.990,-0.098,0.549,-2.106,1.404,66.667,643572.000,1.000
12.684,9.538,3.689,6.834,2.046,5.832,9.643,-9.218,0.017,0.990,-0.098,0.336,-2.197,1.373,66.667,643573.000,1.000
12.688,9.520,2.005,6.203,1.148,6.441,10.346,-8.518,0.016,0.986,-0.100,0.244,-2.228,1.465,66.667,643574.000,1.000
12.458,9.219,0.765,5.728,0.329,6.266,8.316,-8.025,0.019,0.986,-0.101,0.092,-2.228,1.373,66.667,643575.000,1.000
11.549,8.628,-0.116,5.055,-0.388,5.770,4.764,-7.856,0.019,0.985,-0.105,0.122,-2.228,1.373,66.667,643576.000,1.000
9.977,7.797,-0.820,3.841,-1.171,5.141,1.005,-8.391,0.021,0.988,-0.102,0.214,-2.106,1.343,66.667,643577.000,1.000
8.182,6.782,-1.513,1.973,-2.188,4.240,-2.025,-9.970,0.020,0.987,-0.100,0.031,-2.136,1.282,66.667,643578.000,1.000
6.742,5.789,-2.144,-0.230,-3.271,3.107,-3.653,-12.379,0.019,0.985,-0.097,-0.092,-2.045,1.099,66.667,643579.000,1.000
6.312,5.487,-2.065,-1.737,-3.519,2.510,-2.981,-14.272,0.019,0.982,-0.096,-0.366,-2.014,1.038,66.667,643580.000,1.000
7.291,6.667,-0.385,-1.240,-1.753,3.643,0.980,-13.600,0.020,0.981,-0.099,-0.580,-1.953,1.099,66.667,643581.000,1.000
9.159,9.186,2.813,1.557,2.000,6.686,7.352,-9.737,0.020,0.980,-0.099,-0.519,-1.801,1.099,66.667,643582.000,1.000
10.455,11.565,5.968,5.283,5.771,9.932,12.395,-5.051,0.020,0.979,-0.102,-0.549,-1.770,1.007,66.667,643583.000,1.000
9.955,12.213,7.351,8.073,7.209,11.172,12.412,-3.078,0.022,0.978,-0.101,-0.427,-1.801,1.038,66.667,643584.000,1.000
7.640,10.770,6.533,9.063,5.599,9.675,7.082,-5.343,0.022,0.978,-0.101,-0.336,-1.740,1.099,66.667,643585.000,1.000
4.273,8.085,4.324,8.559,2.094,6.618,-0.615,-10.471,0.022,0.978,-0.104,-0.275,-1.526,0.946,66.667,643586.000,1.000
0.726,5.601,2.071,7.485,-1.200,4.247,-6.418,-15.379,0.022,0.979,-0.103,-0.275,-1.404,0.977,66.667,643587.000,1.000
-2.067,4.773,1.133,6.971,-2.327,4.545,-6.891,-17.016,0.022,0.980,-0.103,-0.244,-1.434,1.007,66.667,643588.000,1.000
-3.172,6.364,2.345,7.841,-0.456,8.032,-1.385,-14.078,0.021,0.983,-0.100,-0.275,-1.373,1.038,66.667,643589.000,1.000
-2.351,9.727,5.361,9.904,3.508,13.213,7.099,-8.049,0.020,0.983,-0.098,-0.366,-1.190,0.977,66.667,643590.000,1.000
-0.882,12.530,8.276,11.567,6.993,16.730,13.146,-2.715,0.020,0.984,-0.101,-0.458,-1.129,0.946,66.667,643591.000,1.000
-0.788,12.203,8.794,10.921,7.429,15.485,12.601,-1.541,0.019,0.984,-0.104,-0.671,-0.946,0.946,66.667,643592.000,1.000
-2.547,8.708,6.673,7.871,4.844,9.971,6.527,-4.500,0.018,0.984,-0.100,-0.641,-0.885,0.977,66.667,643593.000,1.000
-4.432,4.929,4.197,4.509,2.064,4.266,0.586,-8.036,0.021,0.982,-0.104,-0.702,-0.946,0.916,66.667,643594.000,1.000
-4.700,3.664,3.665,2.910,1.731,1.995,-0.379,-8.679,0.019,0.981,-0.101,-0.671,-0.824,0.977,66.667,643595.000,1.000
-3.437,5.147,5.235,3.278,3.836,3.223,3.311,-6.161,0.019,0.981,-0.101,-0.671,-0.702,1.007,66.667,643596.000,1.000
-1.672,7.878,7.700,4.667,6.562,5.517,7.404,-2.608,0.020,0.982,-0.103,-0.793,-0.580,0.977,66.667,643597.000,1.000
0.175,10.678,10.278,6.568,8.570,6.844,8.498,0.371,0.020,0.986,-0.103,-0.671,-0.610,1.160,66.667,643598.000,1.000
1.889,12.766,12.571,8.689,9.314,6.360,6.085,2.279,0.021,0.989,-0.103,-0.824,-0.488,1.312,66.667,643599.000,1.000
2.725,13.214,13.947,10.236,8.352,3.905,1.172,2.509,0.018,0.992,-0.100,-0.916,-0.397,1.434,66.667,643600.000,1.000
2.621,12.188,14.592,10.950,6.259,0.772,-3.949,1.039,0.018,0.993,-0.100,-1.007,-0.458,1.373,66.667,643601.000,1.000
3.026,11.504,15.962,11.832,5.027,-0.543,-6.002,-0.617,0.017,0.992,-0.098,-1.129,-0.336,1.434,66.667,643602.000,1.000
5.123,12.299,18.731,13.527,5.706,0.702,-3.948,-1.335,0.017,0.991,-0.100,-1.190,-0.366,1.465,66.667,643603.000,1.000
8.564,13.721,21.771,15.442,7.337,2.760,-0.195,-1.665,0.017,0.991,-0.102,-1.251,-0.366,1.465,66.667,643604.000,1.000
12.598,14.846,24.021,17.188,9.120,4.547,3.108,-1.974,0.017,0.992,-0.102,-1.282,-0.366,1.526,66.667,643605.000,1.000
16.244,15.291,25.011,18.663,10.905,6.365,5.796,-2.029,0.016,0.996,-0.101,-1.221,-0.458,1.465,66.667,643606.000,1.000
17.116,13.537,23.313,18.412,11.161,7.046,7.053,-2.880,0.018,0.996,-0.098,-1.282,-0.488,1.587,66.667,643607.000,1.000
12.891,7.819,17.414,14.548,7.679,4.041,5.020,-6.119,0.017,0.989,-0.098,-1.495,-0.580,1.617,66.667,643608.000,1.000
4.650,-0.679,8.660,7.723,0.896,-2.825,-0.244,-11.057,0.015,0.984,-0.098,-1.556,-0.580,1.526,66.667,643609.000,1.000
-2.986,-7.622,1.285,1.397,-5.534,-9.944,-5.774,-14.641,0.016,0.980,-0.102,-1.587,-0.641,1.556,66.667,643610.000,1.000
-5.799,-9.203,-1.180,-1.270,-7.946,-12.902,-8.087,-14.301,0.017,0.978,-0.103,-1.434,-0.610,1.556,66.667,643611.000,1.000
-3.501,-5.483,1.032,-0.207,-5.823,-10.228,-6.022,-10.239,0.017,0.976,-0.103,-1.190,-0.549,1.434,66.667,643612.000,1.000
0.477,-0.166,4.326,1.738,-1.971,-4.445,-1.464,-5.175,0.021,0.980,-0.105,-1.038,-0.580,1.526,66.667,643613.000,1.000
2.025,2.436,4.659,1.278,-0.060,0.142,2.526,-2.131,0.022,0.982,-0.105,-0.702,-0.488,1.526,66.667,643614.000,1.000
-0.699,0.424,0.305,-2.867,-1.935,0.757,3.951,-2.419,0.021,0.983,-0.104,-0.671,-0.610,1.526,66.667,643615.000,1.000
-6.397,-4.962,-7.392,-9.398,-6.867,-2.563,2.102,-5.560,0.021,0.981,-0.099,-0.580,-0.610,1.648,66.667,643616.000,1.000
-11.955,-10.847,-15.293,-15.674,-12.649,-8.026,-2.944,-10.225,0.020,0.981,-0.100,-0.519,-0.458,1.678,66.667,643617.000,1.000
-14.650,-14.650,-20.436,-19.397,-17.006,-13.290,-9.902,-14.732,0.020,0.981,-0.098,-0.397,-0.336,1.709,66.667,643618.000,1.000
-13.720,-15.233,-21.496,-19.725,-18.609,-16.281,-16.446,-17.597,0.018,0.980,-0.099,-0.244,-0.427,1.678,66.667,643619.000,1.000
-10.718,-13.407,-19.460,-17.671,-17.817,-16.382,-20.718,-18.515,0.015,0.979,-0.098,0.000,-0.366,1.678,66.667,643620.000,1.000
-8.503,-11.516,-17.022,-15.491,-16.513,-15.013,-22.464,-18.556,0.013,0.978,-0.098,0.153,-0.336,1.556,66.667,643621.000,1.000
-8.990,-11.484,-16.428,-14.889,-16.433,-14.144,-22.561,-18.910,0.011,0.981,-0.098,0.305,-0.366,1.312,66.667,643622.000,1.000
-11.867,-13.248,-17.891,-15.837,-17.710,-14.313,-21.829,-19.722,0.009,0.984,-0.098,0.488,-0.519,1.251,66.667,643623.000,1.000
-15.751,-15.648,-20.399,-17.373,-19.456,-14.822,-20.735,-20.385,0.011,0.984,-0.098,0.549,-0.671,1.190,66.667,643624.000,1.000
-19.532,-17.975,-23.048,-18.802,-21.050,-15.359,-19.790,-20.319,0.009,0.982,-0.098,0.580,-0.824,0.946,66.667,643625.000,1.000
-22.167,-19.890,-25.001,-19.603,-22.111,-16.199,-19.107,-19.092,0.012,0.984,-0.097,0.610,-0.824,0.854,66.667,643626.000,1.000
-22.464,-20.731,-25.196,-19.075,-21.864,-16.980,-17.602,-16.374,0.013,0.983,-0.099,0.641,-0.885,0.854,66.667,643627.000,1.000
-20.322,-20.261,-23.398,-17.165,-19.916,-17.099,-14.271,-12.653,0.015,0.982,-0.099,0.793,-1.038,0.793,66.667,643628.000,1.000
-17.609,-19.741,-21.183,-15.330,-17.520,-17.395,-10.593,-9.818,0.015,0.981,-0.100,0.793,-1.099,0.977,66.667,643629.000,1.000
-16.549,-20.711,-20.550,-15.359,-16.643,-19.455,-9.716,-9.945,0.014,0.981,-0.102,0.793,-1.190,1.068,66.667,643630.000,1.000
-17.266,-22.754,-21.554,-17.247,-17.642,-23.019,-12.853,-13.192,0.014,0.981,-0.097,0.946,-1.099,0.977,66.667,643631.000,1.000
-17.791,-23.678,-22.248,-19.118,-18.834,-25.569,-17.917,-17.466,0.012,0.984,-0.097,0.946,-1.038,0.977,66.667,643632.000,1.000
-16.533,-22.026,-21.007,-19.357,-18.489,-24.806,-21.712,-20.281,0.013,0.986,-0.097,0.854,-1.099,1.007,66.667,643633.000,1.000
-13.978,-18.629,-18.196,-18.151,-16.584,-20.998,-22.524,-20.586,0.011,0.988,-0.096,0.824,-1.190,1.099,66.667,643634.000,1.000
-11.721,-15.498,-15.399,-16.811,-14.440,-16.639,-20.755,-18.840,0.013,0.990,-0.095,0.732,-1.251,1.282,66.667,643635.000,1.000
-10.463,-13.697,-13.542,-16.135,-13.058,-13.935,-17.707,-15.909,0.015,0.992,-0.096,0.610,-1.190,1.282,66.667,643636.000,1.000
-9.363,-12.575,-12.088,-15.665,-12.144,-12.829,-14.142,-12.234,0.015,0.991,-0.094,0.488,-1.282,1.312,66.667,643637.000,1.000
-7.082,-10.796,-9.868,-14.338,-10.744,-11.541,-10.141,-8.061,0.016,0.990,-0.096,0.214,-1.282,1.465,66.667,643638.000,1.000
-3.237,-7.933,-6.515,-11.746,-8.686,-8.938,-6.356,-4.378,0.015,0.989,-0.097,0.122,-1.312,1.526,66.667,643639.000,1.000
1.104,-5.038,-3.083,-8.781,-7.153,-6.020,-4.635,-3.093,0.015,0.989,-0.097,0.000,-1.251,1.617,66.667,643640.000,1.000
4.235,-3.663,-1.240,-6.935,-7.693,-4.957,-6.681,-5.594,0.015,0.991,-0.098,-0.092,-1.221,1.678,66.667,643641.000,1.000
4.971,-4.657,-1.984,-7.104,-10.855,-7.179,-12.418,-11.302,0.016,0.990,-0.098,-0.305,-1.190,1.831,66.667,643642.000,1.000
3.089,-7.904,-5.158,-9.162,-15.872,-12.439,-19.886,-18.038,0.016,0.990,-0.099,-0.366,-1.190,1.892,66.667,643643.000,1.000
-0.658,-12.386,-9.559,-12.168,-20.939,-18.729,-25.916,-23.177,0.015,0.991,-0.100,-0.549,-1.221,1.801,66.667,643644.000,1.000
-4.527,-16.079,-13.047,-14.466,-23.433,-22.534,-26.580,-24.015,0.014,0.991,-0.102,-0.763,-1.312,1.831,66.667,643645.000,1.000
-6.584,-16.848,-13.480,-14.404,-21.188,-20.745,-19.388,-18.749,0.016,0.991,-0.100,-0.854,-1.312,1.862,66.667,643646.000,1.000
-6.299,-14.499,-10.567,-11.951,-14.781,-13.897,-6.880,-8.877,0.016,0.992,-0.095,-1.160,-1.282,1.862,66.667,643647.000,1.000
-4.907,-11.186,-6.275,-8.996,-7.688,-6.446,4.154,0.662,0.018,0.992,-0.092,-1.251,-1.312,1.862,66.667,643648.000,1.000
-3.766,-9.121,-2.834,-7.384,-3.348,-2.700,8.120,5.149,0.017,0.990,-0.091,-1.465,-1.282,1.923,66.667,643649.000,1.000
-3.032,-8.607,-0.952,-7.305,-2.666,-3.274,4.129,3.288,0.017,0.989,-0.093,-1.587,-1.282,1.892,66.667,643650.000,1.000
-2.241,-8.663,-0.211,-7.885,-4.384,-5.985,-4.863,-2.901,0.016,0.986,-0.093,-1.709,-1.312,1.862,66.667,643651.000,1.000
-1.408,-8.657,-0.278,-8.488,-6.781,-8.950,-14.664,-9.937,0.017,0.983,-0.095,-1.770,-1.373,1.831,66.667,643652.000,1.000
-0.844,-8.510,-0.950,-8.839,-8.448,-11.349,-21.769,-14.598,0.018,0.982,-0.097,-1.831,-1.343,1.740,66.667,643653.000,1.000
-0.321,-7.880,-1.514,-8.486,-8.187,-12.077,-24.062,-15.047,0.018,0.979,-0.097,-1.678,-1.251,1.709,66.667,643654.000,1.000
0.705,-6.309,-1.124,-7.101,-5.512,-10.070,-21.306,-11.439,0.018,0.979,-0.098,-1.587,-1.221,1.740,66.667,643655.000,1.000
2.147,-4.103,0.162,-5.208,-1.418,-6.106,-15.554,-5.796,0.018,0.978,-0.094,-1.404,-1.312,1.709,66.667,643656.000,1.000
3.233,-2.190,1.425,-3.823,2.314,-2.396,-9.804,-0.604,0.019,0.977,-0.095,-1.251,-1.160,1.648,66.667,643657.000,1.000
3.348,-1.106,1.914,-3.436,4.703,-0.239,-5.453,3.051,0.017,0.979,-0.094,-1.068,-1.099,1.648,66.667,643658.000,1.000
2.461,-0.751,1.475,-3.811,5.881,0.582,-1.954,5.746,0.018,0.979,-0.093,-1.007,-1.068,1.495,66.667,643659.000,1.000
0.824,-1.014,0.115,-4.672,6.069,0.542,1.171,8.085,0.018,0.980,-0.095,-0.885,-1.038,1.434,66.667,643660.000,1.000
-1.263,-1.980,-2.177,-6.033,5.118,-0.076,3.256,9.525,0.016,0.980,-0.093,-0.641,-1.007,1.373,66.667,643661.000,1.000
-3.290,-3.455,-5.023,-7.733,3.172,-0.564,3.507,9.219,0.013,0.982,-0.093,-0.641,-1.038,1.312,66.667,643662.000,1.000
-4.540,-4.745,-7.528,-9.113,1.125,0.095,2.069,7.442,0.013,0.979,-0.094,-0.519,-1.099,1.373,66.667,643663.000,1.000
-4.545,-5.230,-8.889,-9.441,0.022,2.118,-0.219,5.529,0.012,0.978,-0.093,-0.366,-1.160,1.251,66.667,643664.000,1.000
-3.562,-5.030,-9.073,-8.568,0.149,4.431,-2.480,4.670,0.015,0.979,-0.092,-0.153,-1.312,1.129,66.667,643665.000,1.000
-2.503,-4.881,-8.769,-7.064,0.914,5.677,-3.803,5.227,0.013,0.980,-0.095,0.000,-1.404,1.007,66.667,643666.000,1.000
-2.231,-5.322,-8.665,-5.673,1.589,5.527,-3.253,6.945,0.010,0.980,-0.094,0.031,-1.343,0.916,66.667,643667.000,1.000
-3.000,-6.285,-8.949,-4.799,1.810,4.544,-0.763,9.140,0.012,0.980,-0.094,0.153,-1.465,0.916,66.667,643668.000,1.000
-4.495,-7.409,-9.454,-4.446,1.482,3.093,2.266,10.843,0.012,0.979,-0.099,0.153,-1.526,0.793,66.667,643669.000,1.000
-6.100,-8.356,-9.872,-4.297,0.779,1.254,4.240,11.477,0.012,0.974,-0.098,0.397,-1.556,0.702,66.667,643670.000,1.000
-7.209,-8.880,-9.887,-3.870,0.246,-0.399,5.215,11.482,0.015,0.966,-0.097,0.610,-1.617,0.610,66.667,643671.000,1.000
-7.470,-8.825,-9.294,-2.824,0.533,-0.837,6.808,12.025,0.017,0.961,-0.097,0.977,-1.648,0.702,66.667,643672.000,1.000
-6.880,-8.245,-8.169,-1.298,1.736,0.277,9.928,13.750,0.017,0.963,-0.098,1.587,-1.526,0.793,66.667,643673.000,1.000
-5.737,-7.534,-6.959,0.021,3.043,1.829,12.909,15.730,0.016,0.971,-0.099,1.984,-1.587,0.946,66.667,643674.000,1.000
-4.392,-7.133,-6.135,0.405,3.439,2.203,12.926,16.237,0.014,0.983,-0.094,2.319,-1.648,0.854,66.667,643675.000,1.000
-2.943,-6.960,-5.633,-0.194,2.785,0.918,9.197,14.624,0.012,0.992,-0.091,2.258,-1.770,0.946,66.667,643676.000,1.000
-1.181,-6.392,-4.813,-1.028,2.003,-0.929,3.951,11.988,0.011,1.000,-0.090,2.045,-1.862,0.946,66.667,643677.000,1.000
1.067,-4.931,-3.097,-1.170,2.218,-1.755,0.529,10.169,0.010,1.001,-0.090,1.678,-1.984,0.885,66.667,643678.000,1.000
3.508,-2.818,-0.612,-0.237,3.843,-0.837,0.963,10.336,0.010,0.998,-0.096,1.282,-2.075,0.977,66.667,643679.000,1.000
5.373,-0.926,1.791,1.423,6.340,1.224,4.834,12.255,0.009,0.993,-0.097,0.977,-2.106,0.885,66.667,643680.000,1.000
5.845,-0.199,3.064,3.040,8.607,3.032,9.679,14.513,0.010,0.990,-0.097,0.793,-2.228,0.885,66.667,643681.000,1.000
4.686,-0.974,2.755,4.021,9.776,3.572,12.777,15.595,0.011,0.990,-0.098,0.671,-2.319,0.793,66.667,643682.000,1.000
2.651,-2.509,1.563,4.452,9.906,3.152,13.280,15.133,0.012,0.990,-0.098,0.488,-2.350,0.671,66.667,643683.000,1.000
1.190,-3.279,1.001,5.004,9.864,3.034,12.494,14.177,0.015,0.987,-0.096,0.366,-2.380,0.580,66.667,643684.000,1.000
1.413,-2.134,2.222,6.211,10.422,4.189,12.076,14.190,0.020,0.983,-0.096,0.244,-2.380,0.641,66.667,643685.000,1.000
3.128,0.583,4.940,7.772,11.377,6.333,12.229,15.542,0.023,0.981,-0.097,0.092,-2.258,0.641,66.667,643686.000,1.000
5.027,3.195,7.554,8.652,11.640,8.037,11.679,17.015,0.026,0.982,-0.101,0.092,-2.014,0.641,66.667,643687.000,1.000
5.861,4.122,8.485,8.040,10.333,7.982,9.376,17.040,0.027,0.983,-0.101,0.153,-1.801,0.763,66.667,643688.000,1.000
5.262,3.027,7.297,6.079,7.629,6.051,5.820,15.221,0.026,0.984,-0.102,0.122,-1.556,0.946,66.667,643689.000,1.000
3.577,0.668,4.645,3.644,4.515,3.192,2.663,12.409,0.024,0.986,-0.100,0.092,-1.282,0.946,66.667,643690.000,1.000
1.424,-1.758,1.669,1.750,2.165,0.734,1.559,9.967,0.024,0.986,-0.098,0.031,-1.129,1.038,66.667,643691.000,1.000
-0.466,-3.091,-0.464,1.178,1.495,-0.112,3.144,9.116,0.024,0.986,-0.100,0.000,-0.977,1.099,66.667,643692.000,1.000
-1.480,-2.699,-1.035,2.092,2.629,1.184,6.379,10.134,0.021,0.986,-0.099,-0.122,-0.763,1.129,66.667,643693.000,1.000
-1.429,-0.856,-0.107,3.880,4.717,3.994,9.043,11.969,0.021,0.985,-0.099,-0.275,-0.641,1.160,66.667,643694.000,1.000
-0.588,1.575,1.716,5.569,6.627,7.022,9.525,13.189,0.018,0.983,-0.100,-0.275,-0.519,1.190,66.667,643695.000,1.000
0.482,3.795,3.765,6.422,7.748,9.333,8.060,13.223,0.017,0.980,-0.101,-0.336,-0.366,1.129,66.667,643696.000,1.000
1.294,5.435,5.578,6.285,8.134,10.669,6.030,12.516,0.016,0.981,-0.100,-0.336,-0.397,1.068,66.667,643697.000,1.000
1.743,6.525,6.953,5.605,8.255,11.084,4.750,11.933,0.016,0.981,-0.099,-0.275,-0.427,1.007,66.667,643698.000,1.000
2.016,7.226,7.869,5.039,8.657,10.803,4.998,12.159,0.017,0.981,-0.098,-0.244,-0.336,1.007,66.667,643699.000,1.000
2.345,7.727,8.509,5.004,9.740,10.417,7.031,13.390,0.019,0.982,-0.098,-0.275,-0.275,0.977,66.667,643700.000,1.000
3.000,8.339,9.331,5.650,11.637,10.689,10.540,15.327,0.015,0.982,-0.097,-0.305,-0.153,1.007,66.667,643701.000,1.000
4.204,9.316,10.760,6.938,14.023,11.677,14.333,17.245,0.017,0.982,-0.097,-0.305,-0.153,1.099,66.667,643702.000,1.000
5.827,10.550,12.754,8.595,16.147,12.561,16.746,18.338,0.017,0.982,-0.097,-0.122,-0.244,1.129,66.667,643703.000,1.000
7.415,11.736,14.886,10.301,17.426,12.712,16.992,18.442,0.018,0.982,-0.097,-0.092,-0.092,1.099,66.667,643704.000,1.000
8.596,12.760,16.790,11.958,17.908,12.383,15.654,18.200,0.018,0.983,-0.099,-0.122,-0.122,1.099,66.667,643705.000,1.000
9.285,13.744,18.274,13.554,18.008,12.322,13.840,18.181,0.019,0.983,-0.100,-0.122,-0.031,1.129,66.667,643706.000,1.000
9.678,14.884,19.287,14.921,18.138,13.363,12.589,18.291,0.020,0.984,-0.099,-0.031,0.031,1.221,66.667,643707.000,1.000
10.204,16.400,20.032,15.894,18.619,16.080,12.795,18.280,0.019,0.983,-0.098,0.000,0.153,1.343,66.667,643708.000,1.000
11.179,18.228,20.766,16.461,19.478,19.865,14.638,18.171,0.017,0.982,-0.101,0.000,0.061,1.221,66.667,643709.000,1.000
12.282,19.531,21.233,16.543,20.081,22.448,17.054,17.843,0.016,0.983,-0.097,0.031,0.122,1.343,66.667,643710.000,1.000
12.560,18.920,20.598,15.857,19.286,21.114,18.007,16.686,0.015,0.983,-0.098,0.061,0.214,1.282,66.667,643711.000,1.000
11.132,15.522,18.167,14.204,16.280,14.710,15.569,14.031,0.016,0.982,-0.098,0.183,0.275,1.251,66.667,643712.000,1.000
7.951,9.911,14.139,11.831,11.428,4.804,9.558,9.927,0.017,0.979,-0.100,0.244,0.244,1.312,66.667,643713.000,1.000
4.040,4.031,9.691,9.487,6.316,-4.795,2.124,5.424,0.017,0.979,-0.102,0.427,0.183,1.526,66.667,643714.000,1.000
0.933,0.029,6.323,8.030,2.822,-10.138,-3.705,2.020,0.016,0.978,-0.102,0.427,0.214,1.495,66.667,643715.000,1.000
-0.279,-1.082,4.954,7.842,1.884,-9.559,-6.024,0.728,0.017,0.979,-0.104,0.641,0.122,1.495,66.667,643716.000,1.000
0.501,0.137,5.453,8.578,2.964,-4.621,-5.096,1.393,0.018,0.980,-0.103,0.702,0.153,1.434,66.667,643717.000,1.000
2.476,2.132,6.798,9.370,4.469,1.076,-2.984,2.744,0.018,0.981,-0.101,0.824,0.183,1.526,66.667,643718.000,1.000
4.517,3.395,7.734,9.361,4.871,4.418,-1.748,3.336,0.018,0.984,-0.102,0.885,0.183,1.587,66.667,643719.000,1.000
5.883,3.376,7.596,8.315,3.810,4.754,-1.535,2.730,0.018,0.983,-0.103,0.824,0.122,1.617,66.667,643720.000,1.000
6.534,2.628,6.594,6.769,2.172,3.679,-0.792,1.720,0.017,0.983,-0.102,0.793,0.061,1.617,66.667,643721.000,1.000
6.764,2.104,5.339,5.460,1.106,3.174,1.617,1.393,0.019,0.982,-0.103,0.793,0.000,1.587,66.667,643722.000,1.000
6.633,2.343,4.199,4.624,1.093,4.163,5.265,2.212,0.018,0.980,-0.104,0.793,0.031,1.556,66.667,643723.000,1.000
5.851,3.220,3.158,3.959,1.864,6.377,8.883,3.966,0.018,0.984,-0.104,0.763,0.031,1.556,66.667,643724.000,1.000
4.190,4.281,2.144,3.123,2.856,8.872,11.218,6.020,0.019,0.984,-0.107,0.885,0.031,1.587,66.667,643725.000,1.000
1.843,5.193,1.246,2.105,3.566,10.690,11.357,7.447,0.017,0.985,-0.103,0.916,-0.031,1.495,66.667,643726.000,1.000
-0.599,5.935,0.635,1.207,3.806,11.539,9.277,7.480,0.018,0.986,-0.100,0.885,-0.061,1.526,66.667,643727.000,1.000
-2.462,6.714,0.426,0.783,3.790,11.935,6.249,6.034,0.018,0.986,-0.101,0.824,-0.183,1.648,66.667,643728.000,1.000
-3.308,7.696,0.606,0.973,3.851,12.474,3.860,3.552,0.020,0.985,-0.101,0.793,-0.183,1.617,66.667,643729.000,1.000
-3.051,8.818,1.068,1.629,4.132,13.160,2.741,0.611,0.019,0.982,-0.098,0.702,-0.214,1.617,66.667,643730.000,1.000
-1.902,9.902,1.729,2.544,4.749,13.744,3.010,-1.791,0.018,0.979,-0.100,0.610,-0.092,1.678,66.667,643731.000,1.000
-0.291,10.869,2.611,3.650,6.043,14.355,5.212,-2.129,0.020,0.977,-0.103,0.671,-0.061,1.648,66.667,643732.000,1.000
1.164,11.662,3.644,4.863,8.160,15.293,9.484,0.399,0.018,0.976,-0.103,0.610,-0.092,1.678,66.667,643733.000,1.000
1.868,12.042,4.518,5.894,10.534,16.492,14.239,4.656,0.018,0.977,-0.107,0.610,-0.153,1.648,66.667,643734.000,1.000
1.634,11.738,4.931,6.441,12.201,17.532,16.869,8.331,0.018,0.979,-0.105,0.671,-0.153,1.434,66.667,643735.000,1.000
0.697,10.687,4.773,6.375,12.398,17.741,15.567,9.659,0.019,0.979,-0.106,0.732,-0.244,1.526,66.667,643736.000,1.000
-0.633,9.030,4.072,5.737,10.911,16.361,10.359,8.313,0.019,0.983,-0.106,0.702,-0.214,1.465,66.667,643737.000,1.000
-2.119,7.122,3.004,4.780,8.263,13.262,3.228,5.406,0.018,0.986,-0.106,0.610,-0.275,1.495,66.667,643738.000,1.000
-3.529,5.480,1.902,3.916,5.529,9.399,-2.639,2.831,0.020,0.987,-0.103,0.488,-0.305,1.373,66.667,643739.000,1.000
-4.617,4.551,1.111,3.445,3.783,6.239,-4.419,2.237,0.019,0.988,-0.101,0.427,-0.305,1.404,66.667,643740.000,1.000
-5.168,4.482,0.820,3.352,3.499,4.704,-1.503,4.014,0.020,0.987,-0.104,0.397,-0.427,1.587,66.667,643741.000,1.000
-5.035,5.065,0.989,3.394,4.319,4.596,3.771,6.971,0.019,0.986,-0.103,0.336,-0.336,1.526,66.667,643742.000,1.000
-4.140,5.973,1.475,3.428,5.514,5.134,8.056,9.384,0.018,0.986,-0.103,0.305,-0.397,1.556,66.667,643743.000,1.000
-2.506,7.053,2.222,3.641,6.713,5.836,9.719,10.476,0.017,0.988,-0.102,0.214,-0.488,1.495,66.667,643744.000,1.000
-0.190,8.467,3.358,4.407,8.088,6.816,9.429,10.727,0.014,0.988,-0.100,0.031,-0.519,1.404,66.667,643745.000,1.000
2.752,10.503,5.101,5.931,9.911,8.371,8.895,11.018,0.013,0.990,-0.100,-0.122,-0.641,1.282,66.667,643746.000,1.000
6.065,13.018,7.393,7.891,11.936,10.317,9.312,11.644,0.013,0.990,-0.099,-0.153,-0.763,1.129,66.667,643747.000,1.000
9.177,15.201,9.685,9.460,13.265,11.750,10.555,12.093,0.014,0.991,-0.097,-0.336,-0.916,1.099,66.667,643748.000,1.000
11.531,16.123,11.254,9.922,13.000,11.639,11.619,11.709,0.015,0.992,-0.096,-0.427,-1.099,1.007,66.667,643749.000,1.000
12.948,15.519,11.734,9.256,11.059,9.784,11.681,10.310,0.016,0.991,-0.095,-0.641,-1.282,0.977,66.667,643750.000,1.000
13.545,13.931,11.276,8.068,8.319,7.167,10.694,8.264,0.018,0.993,-0.099,-0.763,-1.282,0.946,66.667,643751.000,1.000
13.522,12.242,10.368,7.136,6.063,5.184,9.295,6.368,0.018,0.991,-0.101,-0.946,-1.465,0.946,66.667,643752.000,1.000
13.089,11.139,9.542,6.961,5.194,4.531,8.290,5.382,0.017,0.988,-0.102,-1.038,-1.373,0.916,66.667,643753.000,1.000
12.515,10.880,9.135,7.541,5.778,4.909,8.018,5.315,0.020,0.985,-0.102,-1.068,-1.434,0.732,66.667,643754.000,1.000
12.207,11.390,9.251,8.532,7.246,5.696,8.235,5.487,0.019,0.986,-0.098,-1.160,-1.495,0.793,66.667,643755.000,1.000
12.704,12.513,9.917,9.622,8.962,6.771,8.674,5.352,0.018,0.982,-0.095,-1.190,-1.465,0.854,66.667,643756.000,1.000
14.566,14.229,11.248,10.787,10.681,8.721,9.617,5.016,0.017,0.983,-0.096,-1.282,-1.556,1.007,66.667,643757.000,1.000
18.034,16.626,13.380,12.208,12.509,12.074,11.606,5.014,0.019,0.983,-0.097,-1.221,-1.617,0.977,66.667,643758.000,1.000
22.560,19.443,16.058,13.884,14.325,16.086,14.302,5.677,0.019,0.982,-0.095,-1.251,-1.648,0.824,66.667,643759.000,1.000
26.718,21.669,18.312,15.303,15.332,18.452,16.113,6.643,0.018,0.981,-0.095,-1.007,-1.678,0.824,66.667,643760.000,1.000
28.837,21.896,18.822,15.626,14.426,16.637,15.239,6.906,0.019,0.982,-0.094,-0.977,-1.617,0.885,66.667,643761.000,1.000
27.939,19.302,16.813,14.264,11.116,9.834,10.830,5.403,0.019,0.981,-0.092,-0.946,-1.587,1.007,66.667,643762.000,1.000
24.222,14.327,12.588,11.267,6.047,-0.221,3.491,1.824,0.019,0.980,-0.093,-0.854,-1.556,0.885,66.667,643763.000,1.000
18.932,8.508,7.341,7.321,0.793,-10.049,-4.753,-2.861,0.018,0.980,-0.094,-0.824,-1.617,0.854,66.667,643764.000,1.000
13.862,3.831,2.639,3.586,-2.767,-15.955,-11.025,-6.562,0.018,0.981,-0.094,-0.671,-1.648,0.946,66.667,643765.000,1.000
10.462,1.715,-0.320,1.162,-3.404,-15.802,-12.820,-7.239,0.019,0.982,-0.095,-0.610,-1.617,0.885,66.667,643766.000,1.000
8.993,2.025,-1.504,0.268,-1.464,-10.355,-9.573,-4.434,0.017,0.981,-0.096,-0.519,-1.556,0.946,66.667,643767.000,1.000
8.635,3.201,-1.960,0.077,1.288,-2.802,-3.140,0.342,0.015,0.981,-0.096,-0.397,-1.617,0.977,66.667,643768.000,1.000
8.401,3.486,-2.784,-0.480,2.915,3.264,3.186,4.635,0.018,0.981,-0.093,-0.427,-1.617,1.038,66.667,643769.000,1.000
7.808,1.988,-4.277,-1.896,2.413,5.502,6.279,6.434,0.019,0.982,-0.091,-0.458,-1.617,0.977,66.667,643770.000,1.000
6.879,-1.120,-5.992,-3.889,0.015,3.367,4.817,5.128,0.018,0.981,-0.093,-0.305,-1.587,0.824,66.667,643771.000,1.000
5.900,-4.927,-7.234,-5.617,-3.105,-1.959,0.008,1.714,0.018,0.979,-0.093,-0.214,-1.526,0.793,66.667,643772.000,1.000
5.200,-8.232,-7.425,-6.090,-5.462,-8.045,-5.305,-1.924,0.019,0.977,-0.096,-0.061,-1.648,0.732,66.667,643773.000,1.000
4.951,-10.039,-6.308,-4.721,-6.041,-12.349,-8.508,-4.233,0.019,0.978,-0.096,0.031,-1.648,0.793,66.667,643774.000,1.000
5.033,-10.011,-4.117,-1.783,-4.825,-13.580,-8.624,-4.832,0.018,0.978,-0.095,0.275,-1.648,0.885,66.667,643775.000,1.000
5.087,-8.540,-1.547,1.620,-2.658,-12.120,-6.391,-4.409,0.021,0.978,-0.097,0.336,-1.587,0.763,66.667,643776.000,1.000
4.845,-6.304,0.671,4.257,-0.528,-9.225,-3.332,-3.990,0.019,0.979,-0.095,0.305,-1.617,0.732,66.667,643777.000,1.000
4.340,-3.841,2.186,5.479,0.939,-6.208,-0.905,-4.353,0.018,0.978,-0.094,0.580,-1.526,0.702,66.667,643778.000,1.000
3.731,-1.517,2.998,5.343,1.471,-4.177,-0.026,-5.724,0.020,0.979,-0.094,0.580,-1.404,0.824,66.667,643779.000,1.000
3.135,0.446,3.310,4.383,1.169,-3.630,-0.516,-7.494,0.019,0.976,-0.097,0.641,-1.465,0.793,66.667,643780.000,1.000
2.689,2.017,3.442,3.318,0.507,-4.065,-1.377,-8.543,0.019,0.979,-0.097,0.793,-1.434,0.854,66.667,643781.000,1.000
2.598,3.231,3.646,2.679,-0.050,-4.522,-2.135,-8.250,0.020,0.980,-0.096,0.977,-1.373,0.854,66.667,643782.000,1.000
3.045,4.017,3.942,2.578,-0.382,-4.537,-3.203,-6.937,0.019,0.981,-0.098,0.946,-1.251,0.885,66.667,643783.000,1.000
4.134,4.198,4.184,2.829,-0.636,-4.424,-4.885,-5.328,0.019,0.983,-0.099,1.068,-1.343,0.885,66.667,643784.000,1.000
5.946,3.693,4.315,3.251,-0.960,-4.816,-6.863,-3.920,0.019,0.983,-0.094,1.160,-1.251,0.946,66.667,643785.000,1.000
8.511,2.725,4.512,3.863,-1.303,-6.025,-8.517,-2.731,0.018,0.985,-0.096,1.129,-1.251,0.977,66.667,643786.000,1.000
11.645,1.757,5.055,4.826,-1.371,-7.744,-9.240,-1.361,0.017,0.984,-0.096,1.099,-1.282,0.946,66.667,643787.000,1.000
14.732,1.115,5.935,6.137,-0.951,-9.283,-8.672,0.436,0.017,0.985,-0.099,1.160,-1.312,1.068,66.667,643788.000,1.000
16.777,0.713,6.624,7.364,-0.276,-10.038,-7.038,2.199,0.017,0.986,-0.097,1.160,-1.129,1.038,66.667,643789.000,1.000
16.902,0.308,6.464,7.882,0.232,-9.591,-4.949,3.223,0.016,0.987,-0.096,1.129,-1.129,1.038,66.667,643790.000,1.000
14.940,-0.038,5.263,7.398,0.470,-7.610,-2.692,3.342,0.012,0.987,-0.096,1.038,-1.129,1.038,66.667,643791.000,1.000
11.456,-0.060,3.327,6.052,0.561,-4.251,-0.184,2.765,0.014,0.989,-0.096,1.007,-1.221,1.099,66.667,643792.000,1.000
7.324,0.275,1.093,4.106,0.396,-0.582,2.307,1.563,0.015,0.986,-0.094,0.854,-1.282,0.977,66.667,643793.000,1.000
3.406,0.806,-0.974,1.854,-0.228,2.071,3.947,-0.184,0.016,0.983,-0.097,0.793,-1.312,1.007,66.667,643794.000,1.000
0.459,1.555,-2.328,-0.259,-1.090,3.221,4.201,-1.969,0.018,0.981,-0.096,0.732,-1.343,1.099,66.667,643795.000,1.000
-1.131,2.669,-2.605,-1.714,-1.597,3.350,3.604,-2.941,0.020,0.984,-0.097,0.854,-1.190,1.160,66.667,643796.000,1.000
-1.652,4.036,-1.967,-2.197,-1.319,3.228,3.494,-2.426,0.021,0.985,-0.097,0.885,-1.160,1.190,66.667,643797.000,1.000
-1.972,5.188,-1.050,-1.814,-0.357,3.295,4.857,-0.481,0.020,0.986,-0.100,0.885,-1.007,1.251,66.667,643798.000,1.000
-3.003,5.533,-0.569,-1.081,0.671,3.400,7.031,1.819,0.020,0.987,-0.100,0.946,-0.977,1.251,66.667,643799.000,1.000
-5.143,4.666,-0.887,-0.647,0.998,2.936,7.843,2.795,0.021,0.990,-0.098,0.854,-0.916,1.312,66.667,643800.000,1.000
-8.114,2.539,-1.885,-0.945,0.205,1.222,5.487,1.170,0.021,0.988,-0.099,0.763,-0.854,1.434,66.667,643801.000,1.000
-11.191,-0.493,-3.122,-2.013,-1.521,-1.927,0.049,-3.034,0.024,0.985,-0.097,0.763,-0.824,1.495,66.667,643802.000,1.000
-13.631,-3.718,-4.083,-3.537,-3.536,-5.701,-6.496,-8.333,0.025,0.985,-0.097,0.854,-0.732,1.526,66.667,643803.000,1.000
-15.178,-6.445,-4.564,-5.171,-5.295,-8.764,-11.680,-12.797,0.023,0.985,-0.094,0.854,-0.549,1.617,66.667,643804.000,1.000
-16.381,-8.559,-5.012,-6.933,-6.985,-10.623,-14.488,-15.618,0.020,0.985,-0.097,0.916,-0.458,1.678,66.667,643805.000,1.000
-18.256,-10.487,-6.247,-9.104,-9.364,-12.076,-15.755,-17.324,0.017,0.983,-0.097,0.793,-0.336,1.587,66.667,643806.000,1.000
-21.459,-12.596,-8.677,-11.719,-12.791,-14.037,-16.588,-18.489,0.012,0.981,-0.100,0.793,-0.275,1.404,66.667,643807.000,1.000
-25.861,-14.869,-11.981,-14.438,-16.722,-16.491,-17.202,-19.062,0.013,0.981,-0.100,0.854,-0.336,1.251,66.667,643808.000,1.000
-30.807,-17.117,-15.510,-16.910,-20.196,-18.873,-17.450,-18.921,0.012,0.979,-0.101,0.854,-0.519,1.190,66.667,643809.000,1.000
-35.452,-19.114,-18.637,-18.985,-22.471,-20.739,-17.479,-18.315,0.012,0.979,-0.100,0.793,-0.549,1.160,66.667,643810.000,1.000
-38.856,-20.436,-20.725,-20.527,-23.155,-21.640,-17.578,-17.771,0.013,0.980,-0.102,0.916,-0.549,1.007,66.667,643811.000,1.000
-40.200,-20.493,-21.172,-21.247,-22.123,-21.031,-17.832,-17.733,0.015,0.980,-0.100,0.946,-0.671,0.885,66.667,643812.000,1.000
-39.173,-18.900,-19.698,-20.805,-19.473,-18.639,-17.788,-17.982,0.015,0.981,-0.099,1.038,-0.702,0.793,66.667,643813.000,1.000
-36.237,-15.825,-16.649,-19.073,-15.580,-14.664,-16.435,-17.537,0.018,0.981,-0.098,1.129,-0.732,0.763,66.667,643814.000,1.000
-32.629,-12.158,-13.172,-16.499,-11.373,-9.824,-13.141,-15.698,0.017,0.983,-0.097,1.129,-0.732,0.610,66.667,643815.000,1.000
-29.983,-9.289,-10.916,-14.188,-8.375,-5.415,-8.719,-13.053,0.016,0.985,-0.096,1.282,-0.793,0.427,66.667,643816.000,1.000
-29.448,-8.258,-11.030,-13.217,-7.822,-2.719,-4.876,-10.857,0.015,0.985,-0.101,1.160,-0.732,0.488,66.667,643817.000,1.000
-30.928,-8.901,-13.213,-13.727,-9.555,-1.940,-2.384,-9.599,0.017,0.984,-0.097,1.160,-0.793,0.580,66.667,643818.000,1.000
-33.293,-10.028,-15.942,-14.917,-12.173,-2.113,-0.533,-8.925,0.017,0.984,-0.098,1.160,-0.824,0.671,66.667,643819.000,1.000
-35.390,-10.515,-17.740,-15.968,-14.395,-2.320,1.354,-8.727,0.016,0.985,-0.097,1.160,-0.854,0.641,66.667,643820.000,1.000
-36.737,-10.068,-18.142,-16.701,-15.949,-2.516,2.604,-9.473,0.016,0.985,-0.100,1.160,-0.885,0.702,66.667,643821.000,1.000
-37.362,-9.048,-17.543,-17.321,-17.182,-3.051,1.736,-11.399,0.015,0.985,-0.103,1.038,-0.885,0.885,66.667,643822.000,1.000
-37.393,-7.948,-16.533,-17.899,-18.252,-4.007,-1.961,-13.893,0.013,0.988,-0.102,1.038,-1.007,0.885,66.667,643823.000,1.000
-36.981,-7.090,-15.500,-18.229,-18.804,-5.115,-7.393,-15.749,0.014,0.988,-0.101,1.038,-0.977,1.007,66.667,643824.000,1.000
-36.345,-6.459,-14.526,-17.963,-18.075,-5.730,-12.003,-15.841,0.014,0.987,-0.101,0.854,-1.068,1.068,66.667,643825.000,1.000
-35.726,-5.802,-13.483,-16.895,-15.419,-5.047,-13.335,-13.778,0.014,0.987,-0.101,0.885,-1.038,1.068,66.667,643826.000,1.000
-35.279,-5.049,-12.285,-15.210,-10.965,-2.866,-10.679,-10.197,0.011,0.985,-0.099,0.854,-1.221,1.251,66.667,643827.000,1.000
-34.953,-4.519,-11.006,-13.375,-5.714,-0.005,-5.427,-6.399,0.011,0.985,-0.100,0.732,-1.312,1.251,66.667,643828.000,1.000
-34.488,-4.637,-9.795,-11.801,-0.901,2.418,0.088,-3.557,0.013,0.985,-0.098,0.732,-1.282,1.282,66.667,643829.000,1.000
-33.582,-5.547,-8.814,-10.670,2.674,3.943,4.113,-2.132,0.013,0.984,-0.099,0.702,-1.434,1.190,66.667,643830.000,1.000
-32.112,-7.013,-8.235,-10.064,4.775,4.740,6.127,-1.861,0.015,0.985,-0.099,0.732,-1.434,1.282,66.667,643831.000,1.000
-30.243,-8.564,-8.186,-10.074,5.535,5.062,6.520,-2.204,0.016,0.984,-0.100,0.610,-1.526,1.373,66.667,643832.000,1.000
-28.388,-9.704,-8.678,-10.784,5.225,4.951,5.857,-2.871,0.018,0.983,-0.098,0.702,-1.526,1.282,66.667,643833.000,1.000
-27.080,-10.208,-9.647,-12.250,4.074,4.216,4.219,-4.026,0.016,0.983,-0.101,0.641,-1.526,1.373,66.667,643834.000,1.000
-26.647,-10.157,-10.899,-14.316,2.371,2.814,1.572,-5.773,0.018,0.981,-0.103,0.763,-1.648,1.343,66.667,643835.000,1.000
-26.870,-9.594,-11.981,-16.357,0.739,1.366,-1.225,-7.453,0.018,0.982,-0.104,0.763,-1.526,1.221,66.667,643836.000,1.000
-27.037,-8.369,-12.353,-17.446,0.005,0.975,-2.472,-7.764,0.018,0.983,-0.102,0.793,-1.526,1.251,66.667,643837.000,1.000
-26.467,-6.361,-11.794,-16.943,0.688,2.564,-0.779,-5.652,0.020,0.983,-0.101,0.916,-1.556,1.343,66.667,643838.000,1.000
-25.032,-3.787,-10.543,-14.971,2.594,6.325,3.844,-1.132,0.020,0.981,-0.102,0.946,-1.526,1.282,66.667,643839.000,1.000
-23.278,-1.350,-9.169,-12.408,4.783,11.353,9.782,4.491,0.020,0.983,-0.102,0.946,-1.404,1.343,66.667,643840.000,1.000
-22.134,-0.073,-8.418,-10.430,5.966,15.678,14.726,9.202,0.020,0.983,-0.102,0.946,-1.465,1.343,66.667,643841.000,1.000
-22.324,-0.713,-8.948,-9.865,5.221,17.265,16.947,11.312,0.021,0.983,-0.103,0.946,-1.404,1.190,66.667,643842.000,1.000
-23.764,-3.111,-10.860,-10.746,2.545,15.424,15.869,10.343,0.019,0.983,-0.103,0.916,-1.373,1.099,66.667,643843.000,1.000
-25.449,-6.241,-13.505,-12.389,-1.232,11.173,11.875,7.154,0.019,0.983,-0.102,0.946,-1.312,1.099,66.667,643844.000,1.000
-26.077,-8.913,-15.855,-13.950,-5.039,6.352,6.028,3.287,0.018,0.983,-0.102,0.916,-1.343,1.068,66.667,643845.000,1.000
-24.911,-10.441,-17.152,-14.958,-8.166,2.483,-0.315,0.017,0.018,0.983,-0.102,0.946,-1.282,1.038,66.667,643846.000,1.000
-22.205,-10.921,-17.309,-15.489,-10.590,-0.029,-6.291,-2.305,0.019,0.984,-0.105,0.885,-1.221,1.038,66.667,643847.000,1.000
-18.839,-10.991,-16.779,-15.903,-12.732,-1.888,-11.654,-4.162,0.019,0.985,-0.106,0.763,-1.251,0.946,66.667,643848.000,1.000
-15.548,-11.123,-15.981,-16.278,-14.707,-3.859,-15.845,-5.989,0.017,0.984,-0.104,0.793,-1.343,0.885,66.667,643849.000,1.000
-12.540,-11.167,-14.940,-16.197,-15.901,-5.683,-17.466,-7.367,0.017,0.984,-0.105,0.702,-1.312,0.854,66.667,643850.000,1.000
-9.805,-10.696,-13.558,-15.197,-15.514,-6.200,-15.307,-7.411,0.017,0.987,-0.102,0.549,-1.343,0.824,66.667,643851.000,1.000
-7.512,-9.659,-12.012,-13.359,-13.492,-4.793,-9.969,-5.914,0.018,0.986,-0.100,0.580,-1.343,0.824,66.667,643852.000,1.000
-6.061,-8.615,-10.825,-11.430,-10.871,-2.605,-4.029,-3.876,0.017,0.986,-0.102,0.458,-1.373,0.763,66.667,643853.000,1.000
-5.715,-8.259,-10.433,-10.275,-9.024,-1.755,-0.251,-2.733,0.016,0.984,-0.102,0.336,-1.282,0.763,66.667,643854.000,1.000
-6.083,-8.696,-10.594,-10.092,-8.565,-3.381,0.137,-3.196,0.015,0.983,-0.104,0.275,-1.282,0.702,66.667,643855.000,1.000
-6.182,-9.413,-10.483,-10.329,-9.125,-6.923,-2.539,-4.970,0.016,0.982,-0.103,0.153,-1.251,0.671,66.667,643856.000,1.000
-5.111,-9.823,-9.374,-10.264,-9.869,-10.814,-6.931,-7.167,0.015,0.984,-0.103,0.122,-1.404,0.671,66.667,643857.000,1.000
-2.491,-9.512,-7.022,-9.353,-9.839,-13.110,-10.754,-8.578,0.015,0.983,-0.105,0.061,-1.312,0.793,66.667,643858.000,1.000
1.501,-8.284,-3.668,-7.295,-8.300,-12.305,-11.580,-8.084,0.012,0.979,-0.107,-0.061,-1.404,0.763,66.667,643859.000,1.000
6.181,-6.379,-0.001,-4.212,-5.353,-8.658,-8.553,-5.475,0.011,0.978,-0.108,0.031,-1.434,0.732,66.667,643860.000,1.000
10.538,-4.517,3.031,-0.805,-2.117,-4.497,-3.186,-1.815,0.012,0.977,-0.107,0.275,-1.434,0.763,66.667,643861.000,1.000
13.573,-3.553,4.620,1.864,-0.102,-2.656,1.566,1.137,0.013,0.981,-0.101,0.397,-1.495,0.793,66.667,643862.000,1.000
14.669,-4.021,4.451,2.923,-0.290,-4.621,2.995,1.947,0.015,0.987,-0.098,0.397,-1.465,0.732,66.667,643863.000,1.000
13.911,-5.876,2.832,2.239,-2.590,-9.878,0.096,0.357,0.013,0.993,-0.099,0.153,-1.495,0.671,66.667,643864.000,1.000
12.048,-8.655,0.419,0.420,-6.031,-16.456,-5.911,-2.656,0.016,0.993,-0.099,-0.031,-1.495,0.763,66.667,643865.000,1.000
10.015,-11.779,-2.232,-1.777,-9.511,-22.051,-12.447,-5.790,0.015,0.990,-0.101,-0.336,-1.495,0.763,66.667,643866.000,1.000
8.514,-14.559,-4.735,-3.837,-12.288,-24.938,-17.111,-8.299,0.016,0.982,-0.100,-0.519,-1.556,0.946,66.667,643867.000,1.000
7.854,-16.225,-6.725,-5.453,-14.036,-24.549,-18.714,-9.963,0.015,0.979,-0.103,-0.458,-1.434,1.007,66.667,643868.000,1.000
7.907,-16.354,-7.973,-6.462,-14.858,-21.858,-17.645,-10.810,0.014,0.978,-0.106,-0.397,-1.495,0.946,66.667,643869.000,1.000
8.339,-15.076,-8.427,-6.801,-15.094,-18.765,-15.382,-11.057,0.015,0.979,-0.105,-0.183,-1.434,1.129,66.667,643870.000,1.000
9.065,-12.736,-7.965,-6.294,-14.781,-16.440,-13.109,-10.882,0.017,0.983,-0.101,-0.061,-1.404,1.099,66.667,643871.000,1.000
10.275,-9.745,-6.419,-4.671,-13.578,-14.601,-10.814,-10.137,0.015,0.985,-0.100,-0.031,-1.526,1.129,66.667,643872.000,1.000
11.947,-6.839,-4.069,-2.035,-11.542,-12.718,-8.062,-8.691,0.016,0.987,-0.099,-0.183,-1.495,1.160,66.667,643873.000,1.000
13.601,-4.994,-1.844,0.838,-9.652,-11.336,-5.513,-7.086,0.015,0.984,-0.098,-0.244,-1.434,1.129,66.667,643874.000,1.000
14.700,-4.746,-0.715,2.942,-9.085,-11.618,-4.891,-6.370,0.016,0.984,-0.099,-0.305,-1.373,1.251,66.667,643875.000,1.000
15.138,-5.682,-0.934,3.813,-10.044,-13.809,-7.149,-7.020,0.017,0.981,-0.101,-0.275,-1.282,1.312,66.667,643876.000,1.000
15.281,-6.715,-1.901,3.794,-11.564,-16.750,-11.330,-8.442,0.016,0.980,-0.104,-0.153,-1.343,1.373,66.667,643877.000,1.000
15.643,-6.801,-2.670,3.605,-12.366,-18.741,-15.501,-9.748,0.018,0.980,-0.102,-0.092,-1.282,1.373,66.667,643878.000,1.000
16.579,-5.489,-2.522,3.807,-11.712,-18.533,-18.153,-10.477,0.018,0.981,-0.101,0.061,-1.312,1.465,66.667,643879.000,1.000
18.168,-2.989,-1.234,4.614,-9.617,-15.837,-18.419,-10.349,0.019,0.982,-0.101,0.122,-1.282,1.373,66.667,643880.000,1.000
20.234,0.063,0.967,5.976,-6.658,-11.473,-15.900,-9.047,0.019,0.983,-0.099,0.122,-1.068,1.373,66.667,643881.000,1.000
22.425,2.866,3.603,7.699,-3.654,-6.990,-11.194,-6.672,0.019,0.981,-0.101,0.122,-0.946,1.495,66.667,643882.000,1.000
24.334,4.715,6.158,9.499,-1.294,-3.664,-5.982,-3.987,0.018,0.981,-0.100,0.153,-0.946,1.556,66.667,643883.000,1.000
25.770,5.399,8.358,11.175,0.264,-1.557,-1.657,-1.821,0.017,0.982,-0.099,0.214,-0.977,1.648,66.667,643884.000,1.000
27.056,5.478,10.383,12.809,1.466,0.279,1.631,-0.396,0.019,0.983,-0.101,0.244,-0.916,1.526,66.667,643885.000,1.000
28.757,5.810,12.570,14.554,2.724,2.345,3.912,0.468,0.020,0.983,-0.104,0.305,-0.763,1.495,66.667,643886.000,1.000
30.975,6.721,14.828,16.168,3.807,3.763,4.429,0.718,0.019,0.984,-0.103,0.275,-0.702,1.556,66.667,643887.000,1.000
33.077,7.793,16.542,17.018,4.074,3.202,2.628,0.048,0.018,0.984,-0.104,0.244,-0.793,1.617,66.667,643888.000,1.000
34.120,8.325,16.986,16.554,3.126,0.321,-0.764,-1.577,0.020,0.980,-0.102,0.244,-0.671,1.587,66.667,643889.000,1.000
33.382,7.796,15.718,14.638,1.052,-4.032,-4.275,-3.733,0.019,0.981,-0.100,0.305,-0.519,1.648,66.667,643890.000,1.000
30.701,6.103,12.852,11.587,-1.687,-8.472,-6.755,-5.833,0.018,0.981,-0.101,0.427,-0.458,1.678,66.667,643891.000,1.000
26.826,3.856,9.390,8.300,-4.195,-11.464,-7.548,-7.237,0.017,0.981,-0.101,0.458,-0.366,1.709,66.667,643892.000,1.000
23.374,2.401,7.063,6.151,-5.284,-11.665,-6.456,-7.217,0.016,0.982,-0.102,0.488,-0.336,1.617,66.667,643893.000,1.000
21.800,2.888,7.168,6.146,-4.287,-8.721,-4.041,-5.403,0.017,0.983,-0.100,0.427,-0.305,1.587,66.667,643894.000,1.000
22.277,5.227,9.501,8.122,-1.658,-3.680,-1.434,-2.290,0.016,0.983,-0.102,0.488,-0.305,1.465,66.667,643895.000,1.000
23.744,8.198,12.626,10.926,1.393,1.748,0.399,0.961,0.013,0.983,-0.102,0.549,-0.336,1.404,66.667,643896.000,1.000
24.833,10.332,14.906,13.178,3.669,6.195,1.232,3.235,0.012,0.985,-0.101,0.580,-0.458,1.495,66.667,643897.000,1.000
24.665,10.606,15.268,13.861,4.405,8.804,1.594,3.888,0.010,0.986,-0.101,0.580,-0.580,1.556,66.667,643898.000,1.000
23.187,8.815,13.569,12.665,3.361,8.876,1.927,2.688,0.011,0.985,-0.103,0.549,-0.671,1.556,66.667,643899.000,1.000
21.044,5.699,10.633,10.131,0.940,6.133,1.855,-0.068,0.012,0.983,-0.101,0.549,-0.793,1.556,66.667,643900.000,1.000
19.139,2.644,7.797,7.383,-1.839,1.499,0.699,-3.290,0.014,0.982,-0.101,0.519,-0.732,1.740,66.667,643901.000,1.000
18.262,1.073,6.248,5.550,-3.684,-2.838,-1.456,-5.416,0.015,0.979,-0.102,0.732,-0.854,1.831,66.667,643902.000,1.000
18.861,1.819,6.538,5.238,-3.625,-4.575,-3.415,-5.373,0.016,0.978,-0.104,0.793,-0.793,1.831,66.667,643903.000,1.000
20.805,4.656,8.370,6.306,-1.508,-2.657,-3.557,-3.233,0.013,0.977,-0.103,0.977,-0.854,1.953,66.667,643904.000,1.000
23.392,8.379,10.803,8.102,1.965,2.264,-1.045,0.046,0.012,0.978,-0.101,1.099,-0.854,1.984,66.667,643905.000,1.000
25.796,11.551,12.891,9.962,5.678,8.404,3.401,3.305,0.012,0.979,-0.103,1.190,-0.885,2.014,66.667,643906.000,1.000
27.553,13.340,14.252,11.560,8.689,13.825,7.940,5.785,0.014,0.980,-0.100,1.129,-1.007,2.258,66.667,643907.000,1.000
28.516,13.634,14.929,12.775,10.429,16.952,10.734,7.310,0.016,0.978,-0.097,1.129,-1.160,2.472,66.667,643908.000,1.000
28.439,12.594,14.831,13.330,10.500,16.780,10.685,7.956,0.018,0.974,-0.100,1.282,-1.251,2.747,66.667,643909.000,1.000
27.095,10.563,13.763,12.896,8.825,13.504,8.029,7.866,0.020,0.974,-0.102,1.343,-1.160,2.991,66.667,643910.000,1.000
24.767,8.246,11.886,11.542,5.981,8.692,4.411,7.344,0.022,0.974,-0.105,1.495,-1.068,3.326,66.667,643911.000,1.000
22.346,6.506,9.862,9.895,3.031,4.305,1.783,6.796,0.022,0.974,-0.108,1.648,-1.068,3.387,66.667,643912.000,1.000
20.830,5.936,8.506,8.841,1.083,1.844,1.445,6.689,0.021,0.980,-0.108,1.770,-1.068,3.479,66.667,643913.000,1.000
20.629,6.554,8.264,8.951,0.834,2.090,3.596,7.380,0.019,0.984,-0.104,1.862,-1.099,3.540,66.667,643914.000,1.000
21.363,7.845,8.945,10.092,2.161,4.678,6.828,8.675,0.021,0.989,-0.106,1.831,-1.129,3.479,66.667,643915.000,1.000
22.322,9.183,9.972,11.582,4.211,8.105,8.746,9.740,0.023,0.990,-0.106,1.709,-1.068,3.540,66.667,643916.000,1.000
23.053,10.290,10.892,12.755,6.138,10.908,7.981,9.790,0.024,0.991,-0.106,1.648,-1.007,3.418,66.667,643917.000,1.000
23.484,11.307,11.622,13.384,7.768,12.798,5.508,8.899,0.023,0.989,-0.107,1.465,-0.977,3.296,66.667,643918.000,1.000
23.694,12.501,12.359,13.677,9.550,14.385,3.773,8.039,0.022,0.989,-0.111,1.404,-0.885,3.235,66.667,643919.000,1.000
23.733,13.887,13.321,13.988,11.901,16.052,4.509,8.225,0.019,0.988,-0.111,1.373,-0.977,3.052,66.667,643920.000,1.000
23.531,15.114,14.507,14.498,14.623,17.401,7.382,9.589,0.018,0.990,-0.111,1.312,-0.916,2.716,66.667,643921.000,1.000
22.963,15.766,15.665,15.124,17.009,17.762,10.627,11.325,0.017,0.992,-0.109,1.251,-0.977,2.319,66.667,643922.000,1.000
22.037,15.772,16.549,15.679,18.468,17.014,12.714,12.477,0.016,0.994,-0.108,1.129,-1.007,2.075,66.667,643923.000,1.000
21.062,15.542,17.235,16.106,19.025,15.944,13.437,12.671,0.016,0.993,-0.105,0.946,-1.068,1.862,66.667,643924.000,1.000
20.442,15.637,18.051,16.500,19.216,15.652,13.650,12.229,0.017,0.991,-0.103,0.824,-1.099,1.526,66.667,643925.000,1.000
20.147,16.142,19.076,16.885,19.450,16.357,14.192,11.806,0.015,0.990,-0.104,0.580,-1.190,1.343,66.667,643926.000,1.000
19.690,16.624,19.966,17.138,19.692,17.195,15.304,12.007,0.018,0.991,-0.105,0.488,-1.221,1.068,66.667,643927.000,1.000
18.674,16.671,20.322,17.159,19.689,17.189,16.761,13.014,0.019,0.988,-0.103,0.427,-1.312,0.885,66.667,643928.000,1.000
17.137,16.186,19.966,16.909,19.159,15.905,17.918,14.306,0.021,0.988,-0.102,0.305,-1.434,0.885,66.667,643929.000,1.000
15.528,15.394,19.073,16.431,17.996,13.624,18.072,15.002,0.022,0.985,-0.103,0.305,-1.495,0.732,66.667,643930.000,1.000
14.430,14.701,18.099,15.917,16.509,11.287,17.409,14.678,0.021,0.986,-0.103,0.305,-1.526,0.854,66.667,643931.000,1.000
14.060,14.216,17.302,15.482,15.178,9.733,16.918,13.623,0.021,0.987,-0.101,0.214,-1.434,0.885,66.667,643932.000,1.000
14.000,13.488,16.347,14.850,13.988,8.761,16.667,12.068,0.021,0.983,-0.102,0.092,-1.465,0.885,66.667,643933.000,1.000
13.667,12.074,14.753,13.621,12.485,7.470,15.190,9.802,0.022,0.981,-0.097,-0.061,-1.404,1.038,66.667,643934.000,1.000
13.049,10.367,12.773,11.982,10.728,5.720,11.588,7.071,0.023,0.981,-0.099,-0.061,-1.373,1.160,66.667,643935.000,1.000
12.566,9.291,11.245,10.650,9.445,4.442,7.037,4.977,0.023,0.981,-0.100,-0.031,-1.404,1.221,66.667,643936.000,1.000
12.292,9.181,10.584,10.063,9.073,4.303,3.454,4.488,0.023,0.980,-0.103,-0.153,-1.343,1.465,66.667,643937.000,1.000
11.807,9.540,10.437,10.069,9.371,5.099,2.038,5.806,0.021,0.979,-0.105,-0.183,-1.373,1.648,66.667,643938.000,1.000
10.682,9.660,10.181,10.253,9.905,6.372,3.112,8.460,0.022,0.979,-0.102,-0.092,-1.312,1.587,66.667,643939.000,1.000
8.795,9.085,9.344,10.170,10.305,7.783,6.112,11.354,0.020,0.978,-0.103,-0.092,-1.282,1.709,66.667,643940.000,1.000
6.460,7.909,7.896,9.611,10.464,9.192,10.111,13.420,0.021,0.978,-0.099,0.000,-1.373,1.862,66.667,643941.000,1.000
4.332,6.838,6.376,8.848,10.714,10.668,14.357,14.505,0.020,0.979,-0.103,-0.122,-1.190,1.862,66.667,643942.000,1.000
2.865,6.489,5.395,8.292,11.260,11.863,17.489,14.916,0.021,0.976,-0.100,-0.031,-1.282,1.678,66.667,643943.000,1.000
1.939,6.694,5.075,7.990,11.696,11.776,17.545,14.592,0.021,0.977,-0.100,0.031,-1.282,1.740,66.667,643944.000,1.000
1.165,6.826,5.229,7.756,11.609,9.917,14.191,13.481,0.020,0.975,-0.100,0.031,-1.282,1.709,66.667,643945.000,1.000
0.408,6.643,5.787,7.549,11.275,7.246,9.865,12.156,0.018,0.978,-0.102,0.031,-1.251,1.648,66.667,643946.000,1.000
0.040,6.593,6.864,7.562,11.403,5.440,7.732,11.479,0.019,0.979,-0.099,0.031,-1.251,1.465,66.667,643947.000,1.000
0.758,7.432,8.588,8.055,12.432,5.542,8.956,11.881,0.019,0.981,-0.099,0.031,-1.282,1.343,66.667,643948.000,1.000
3.035,9.566,10.900,9.156,14.151,7.453,12.013,12.980,0.019,0.981,-0.100,-0.122,-1.465,1.343,66.667,643949.000,1.000
6.613,12.624,13.409,10.666,15.831,10.237,14.283,13.765,0.017,0.981,-0.101,0.000,-1.434,1.099,66.667,643950.000,1.000
10.513,15.574,15.417,12.025,16.659,12.672,14.163,13.303,0.018,0.980,-0.100,-0.031,-1.526,0.916,66.667,643951.000,1.000
13.560,17.331,16.283,12.589,16.244,13.915,11.841,11.426,0.019,0.977,-0.101,0.000,-1.587,0.793,66.667,643952.000,1.000
15.000,17.419,15.842,12.005,14.856,13.960,8.658,8.795,0.021,0.979,-0.102,0.092,-1.526,0.580,66.667,643953.000,1.000
14.884,16.278,14.556,10.512,13.306,13.502,6.379,6.615,0.019,0.981,-0.102,0.244,-1.465,0.427,66.667,643954.000,1.000
13.967,14.959,13.271,8.922,12.565,13.437,6.686,6.133,0.018,0.983,-0.102,0.214,-1.465,0.397,66.667,643955.000,1.000
12.888,14.150,12.447,7.983,12.922,14.122,9.825,7.556,0.016,0.986,-0.103,0.183,-1.678,0.275,66.667,643956.000,1.000
11.504,13.482,11.673,7.691,13.495,14.822,13.494,9.454,0.016,0.985,-0.103,0.244,-1.648,0.214,66.667,643957.000,1.000
9.426,12.146,10.319,7.592,13.118,14.373,14.702,10.117,0.016,0.987,-0.104,0.122,-1.678,0.214,66.667,643958.000,1.000
6.845,9.962,8.400,7.477,11.625,12.557,12.911,9.276,0.014,0.989,-0.103,0.092,-1.709,0.275,66.667,643959.000,1.000
4.569,7.592,6.541,7.456,9.885,10.374,10.218,7.890,0.015,0.988,-0.103,0.092,-1.678,0.305,66.667,643960.000,1.000
3.562,6.011,5.476,7.731,8.893,9.034,8.777,6.885,0.017,0.989,-0.105,0.092,-1.740,0.397,66.667,643961.000,1.000
4.419,5.842,5.650,8.434,9.058,8.939,8.965,6.524,0.017,0.992,-0.106,0.122,-1.892,0.397,66.667,643962.000,1.000
6.857,6.962,6.931,9.482,10.067,9.577,9.771,6.486,0.014,0.994,-0.105,0.000,-1.862,0.549,66.667,643963.000,1.000
9.688,8.543,8.592,10.515,11.214,10.013,10.029,6.266,0.015,0.992,-0.104,-0.153,-1.923,0.519,66.667,643964.000,1.000
11.422,9.454,9.626,10.991,11.743,9.238,8.924,5.453,0.015,0.992,-0.104,-0.244,-2.045,0.580,66.667,643965.000,1.000
11.042,8.851,9.245,10.401,11.119,6.583,5.979,3.760,0.015,0.990,-0.101,-0.214,-2.106,0.641,66.667,643966.000,1.000
8.541,6.767,7.421,8.641,9.485,2.477,1.557,1.261,0.012,0.991,-0.102,-0.305,-2.106,0.854,66.667,643967.000,1.000
4.881,4.128,4.950,6.239,7.812,-1.457,-2.561,-1.204,0.011,0.988,-0.101,-0.427,-2.228,0.824,66.667,643968.000,1.000
1.365,2.012,2.829,4.073,7.241,-3.567,-3.928,-2.248,0.011,0.987,-0.103,-0.458,-2.380,0.854,66.667,643969.000,1.000
-1.079,0.912,1.569,2.810,8.132,-3.450,-1.462,-0.951,0.010,0.984,-0.104,-0.519,-2.472,0.946,66.667,643970.000,1.000
-2.274,0.537,0.977,2.477,9.675,-2.135,3.153,2.124,0.015,0.981,-0.104,-0.610,-2.533,1.160,66.667,643971.000,1.000
-2.737,0.116,0.404,2.450,10.406,-1.225,6.519,5.100,0.019,0.979,-0.105,-0.610,-2.594,1.099,66.667,643972.000,1.000
-3.364,-1.070,-0.835,1.834,9.221,-1.768,6.405,6.160,0.021,0.978,-0.108,-0.397,-2.625,1.312,66.667,643973.000,1.000
-4.987,-3.257,-3.125,-0.020,6.005,-3.700,3.208,4.678,0.022,0.980,-0.107,-0.122,-2.472,1.221,66.667,643974.000,1.000
-7.892,-6.088,-6.342,-3.154,1.518,-6.125,-1.220,1.246,0.024,0.980,-0.109,-0.092,-2.441,1.343,66.667,643975.000,1.000
-11.603,-8.824,-9.813,-6.914,-3.065,-7.996,-5.168,-2.806,0.024,0.979,-0.107,0.000,-2.289,1.434,66.667,643976.000,1.000
-15.094,-10.615,-12.496,-10.126,-6.483,-8.510,-7.451,-5.870,0.026,0.979,-0.107,0.122,-2.228,1.556,66.667,643977.000,1.000
-17.325,-10.759,-13.428,-11.582,-7.798,-7.210,-7.333,-6.690,0.027,0.979,-0.108,0.244,-2.075,1.587,66.667,643978.000,1.000
-17.806,-9.025,-12.279,-10.715,-6.869,-4.199,-4.763,-4.921,0.029,0.978,-0.107,0.366,-1.953,1.678,66.667,643979.000,1.000
-16.847,-5.870,-9.617,-7.989,-4.475,-0.320,-0.525,-1.189,0.028,0.976,-0.107,0.519,-1.831,1.709,66.667,643980.000,1.000
-15.385,-2.386,-6.748,-4.792,-2.040,2.996,3.772,2.971,0.024,0.977,-0.105,0.610,-1.587,1.709,66.667,643981.000,1.000
-14.379,0.213,-5.006,-2.681,-0.936,4.403,6.045,5.575,0.022,0.978,-0.104,0.610,-1.373,1.526,66.667,643982.000,1.000
-14.179,1.351,-4.848,-2.340,-1.583,3.581,5.028,5.478,0.020,0.978,-0.105,0.580,-1.312,1.343,66.667,643983.000,1.000
-14.576,1.241,-5.765,-3.346,-3.276,1.409,1.338,3.179,0.019,0.979,-0.106,0.610,-1.190,1.099,66.667,643984.000,1.000
-15.351,0.403,-7.032,-4.907,-4.916,-0.789,-2.993,0.216,0.020,0.980,-0.106,0.732,-1.312,0.854,66.667,643985.000,1.000
-16.457,-0.671,-8.224,-6.467,-5.678,-1.928,-5.751,-1.830,0.022,0.981,-0.107,0.702,-1.312,0.702,66.667,643986.000,1.000
-17.646,-1.445,-8.984,-7.579,-5.045,-1.268,-5.462,-1.819,0.022,0.982,-0.108,0.671,-1.190,0.702,66.667,643987.000,1.000
-18.397,-1.506,-8.934,-7.831,-2.939,1.363,-2.085,0.529,0.023,0.984,-0.105,0.671,-1.099,0.580,66.667,643988.000,1.000
-18.569,-1.258,-8.305,-7.383,-0.306,4.851,2.439,4.017,0.023,0.986,-0.104,0.610,-0.977,0.488,66.667,643989.000,1.000
-18.706,-2.037,-8.212,-7.160,1.001,6.882,5.022,6.380,0.024,0.985,-0.105,0.549,-0.824,0.488,66.667,643990.000,1.000
-19.475,-5.073,-9.798,-8.108,-0.413,5.662,3.887,5.996,0.025,0.985,-0.105,0.427,-0.610,0.397,66.667,643991.000,1.000
-21.070,-10.426,-13.280,-10.450,-4.409,1.536,0.060,2.929,0.023,0.985,-0.107,0.244,-0.427,0.397,66.667,643992.000,1.000
-23.179,-17.054,-17.953,-13.758,-9.737,-3.629,-4.018,-1.757,0.025,0.983,-0.106,0.214,-0.336,0.427,66.667,643993.000,1.000
-25.316,-23.701,-22.848,-17.429,-15.168,-8.641,-7.052,-7.063,0.025,0.984,-0.106,0.183,-0.183,0.519,66.667,643994.000,1.000
-27.019,-29.457,-27.095,-20.770,-19.943,-13.835,-9.565,-12.222,0.025,0.983,-0.106,0.183,0.061,0.610,66.667,643995.000,1.000
-27.877,-33.664,-29.923,-22.907,-23.539,-19.862,-12.631,-16.475,0.024,0.983,-0.106,0.336,0.092,0.610,66.667,643996.000,1.000
-27.724,-35.949,-30.868,-23.163,-25.587,-26.566,-16.793,-19.243,0.022,0.982,-0.106,0.244,0.092,0.763,66.667,643997.000,1.000
-26.800,-36.342,-30.003,-21.516,-25.929,-32.842,-21.583,-20.239,0.021,0.984,-0.105,0.183,0.153,0.824,66.667,643998.000,1.000
-25.403,-34.960,-27.664,-18.461,-24.471,-36.890,-25.392,-19.308,0.018,0.983,-0.102,0.244,0.214,0.977,66.667,643999.000,1.000
-23.608,-31.851,-24.217,-14.645,-21.306,-37.065,-26.498,-16.599,0.018,0.984,-0.103,0.183,0.183,1.129,66.667,644000.000,1.000
-21.674,-27.559,-20.392,-10.933,-17.240,-33.226,-24.733,-13.056,0.017,0.985,-0.103,0.153,0.214,1.068,66.667,644001.000,1.000
-20.352,-23.411,-17.440,-8.392,-13.679,-26.987,-21.484,-10.155,0.016,0.985,-0.105,0.214,0.092,1.038,66.667,644002.000,1.000
-20.218,-20.553,-16.300,-7.633,-11.539,-20.380,-17.972,-8.694,0.015,0.985,-0.105,0.153,0.061,1.038,66.667,644003.000,1.000
-20.829,-18.878,-16.653,-8.241,-10.547,-14.656,-14.555,-8.240,0.015,0.984,-0.104,-0.031,0.031,0.977,66.667,644004.000,1.000
-21.057,-17.373,-17.206,-9.174,-9.817,-10.375,-11.627,-7.932,0.016,0.982,-0.102,0.031,-0.061,1.007,66.667,644005.000,1.000
-20.297,-15.413,-16.947,-9.735,-8.892,-7.911,-9.943,-7.492,0.015,0.983,-0.104,0.031,-0.122,1.007,66.667,644006.000,1.000
-18.992,-13.302,-15.892,-10.037,-8.025,-7.372,-9.826,-7.347,0.015,0.982,-0.104,0.000,-0.183,0.977,66.667,644007.000,1.000
-18.080,-11.723,-14.752,-10.652,-7.710,-8.256,-10.935,-8.087,0.015,0.983,-0.102,-0.061,-0.244,1.007,66.667,644008.000,1.000
-18.266,-11.144,-14.277,-12.018,-8.174,-9.511,-12.903,-9.945,0.015,0.983,-0.104,-0.031,-0.336,0.854,66.667,644009.000,1.000
-19.639,-11.571,-14.744,-14.036,-9.092,-9.918,-15.236,-12.314,0.016,0.983,-0.103,0.000,-0.488,0.916,66.667,644010.000,1.000
-21.549,-12.479,-15.722,-15.994,-9.614,-8.613,-16.655,-13.693,0.016,0.982,-0.103,0.061,-0.458,0.916,66.667,644011.000,1.000
-22.905,-13.098,-16.281,-16.957,-8.866,-5.652,-15.665,-12.676,0.017,0.981,-0.104,0.061,-0.641,0.885,66.667,644012.000,1.000
-22.925,-12.972,-15.684,-16.437,-6.654,-2.015,-11.979,-9.258,0.018,0.980,-0.102,0.153,-0.641,0.854,66.667,644013.000,1.000
-21.720,-12.216,-13.934,-14.773,-3.672,1.178,-7.077,-5.050,0.017,0.980,-0.105,0.092,-0.702,0.763,66.667,644014.000,1.000
-20.051,-11.207,-11.582,-12.727,-0.940,3.378,-3.287,-2.083,0.018,0.981,-0.106,0.183,-0.824,0.763,66.667,644015.000,1.000
-18.624,-10.209,-9.169,-10.792,0.904,4.396,-2.129,-1.294,0.016,0.981,-0.107,0.122,-0.946,0.854,66.667,644016.000,1.000
-17.807,-9.426,-7.127,-9.082,1.648,3.887,-3.423,-2.106,0.016,0.981,-0.108,0.214,-1.007,0.671,66.667,644017.000,1.000
-17.828,-9.215,-6.012,-7.749,1.159,1.449,-5.874,-3.321,0.017,0.981,-0.103,0.305,-1.007,0.641,66.667,644018.000,1.000
-18.819,-9.854,-6.323,-7.079,-0.532,-2.672,-8.062,-4.104,0.017,0.981,-0.103,0.366,-1.007,0.549,66.667,644019.000,1.000
-20.507,-10.949,-7.895,-7.081,-2.701,-6.865,-8.549,-3.988,0.017,0.983,-0.102,0.275,-0.977,0.610,66.667,644020.000,1.000
-22.342,-11.604,-9.934,-7.468,-4.163,-8.742,-6.005,-2.643,0.016,0.986,-0.104,0.275,-1.160,0.580,66.667,644021.000,1.000
-24.121,-11.503,-11.924,-8.244,-4.560,-7.411,-0.762,-0.384,0.015,0.984,-0.104,0.183,-1.221,0.549,66.667,644022.000,1.000
-25.956,-11.225,-13.933,-9.737,-4.833,-4.655,4.460,1.711,0.017,0.981,-0.104,0.153,-1.312,0.397,66.667,644023.000,1.000
-27.651,-11.299,-15.954,-11.871,-6.012,-2.965,6.793,2.846,0.017,0.979,-0.104,0.122,-1.312,0.366,66.667,644024.000,1.000
-28.726,-11.685,-17.658,-14.088,-8.232,-3.208,5.403,2.968,0.016,0.980,-0.102,0.122,-1.343,0.366,66.667,644025.000,1.000
-28.934,-12.094,-18.869,-16.012,-11.032,-4.588,0.985,2.055,0.015,0.980,-0.104,0.122,-1.251,0.244,66.667,644026.000,1.000
-28.227,-12.117,-19.604,-17.558,-13.685,-5.669,-5.159,0.060,0.016,0.981,-0.103,0.061,-1.190,0.336,66.667,644027.000,1.000
-26.626,-11.297,-19.783,-18.601,-15.262,-5.127,-11.042,-2.459,0.018,0.983,-0.102,0.061,-1.160,0.275,66.667,644028.000,1.000
-24.526,-9.672,-19.386,-19.046,-15.160,-2.461,-14.578,-4.640,0.018,0.983,-0.104,-0.061,-1.343,0.366,66.667,644029.000,1.000
-22.519,-7.789,-18.504,-18.932,-13.480,1.810,-14.747,-6.024,0.019,0.982,-0.107,-0.122,-1.312,0.366,66.667,644030.000,1.000
-20.584,-5.891,-16.933,-18.145,-10.620,6.731,-11.762,-6.464,0.018,0.979,-0.105,-0.061,-1.282,0.397,66.667,644031.000,1.000
-17.987,-3.653,-14.214,-16.434,-7.008,11.224,-6.699,-5.943,0.019,0.981,-0.106,-0.183,-1.099,0.366,66.667,644032.000,1.000
-14.246,-1.001,-10.389,-13.965,-3.542,13.785,-1.538,-5.015,0.018,0.981,-0.106,-0.122,-1.160,0.397,66.667,644033.000,1.000
-9.816,1.257,-6.400,-11.585,-1.770,12.566,1.018,-5.056,0.018,0.982,-0.106,-0.153,-1.251,0.519,66.667,644034.000,1.000
-5.703,2.002,-3.432,-10.207,-2.897,6.583,-1.014,-7.333,0.017,0.984,-0.105,-0.183,-1.160,0.458,66.667,644035.000,1.000
-2.640,0.928,-1.923,-9.976,-6.488,-2.827,-6.881,-11.574,0.016,0.984,-0.101,-0.183,-1.221,0.610,66.667,644036.000,1.000
-0.673,-1.056,-1.286,-10.134,-10.443,-12.117,-13.044,-15.892,0.016,0.982,-0.103,-0.275,-1.129,0.610,66.667,644037.000,1.000
0.602,-2.597,-0.559,-9.802,-12.559,-17.736,-16.039,-18.510,0.017,0.981,-0.102,-0.153,-1.099,0.641,66.667,644038.000,1.000
1.558,-2.941,0.752,-8.778,-12.105,-18.470,-15.248,-19.223,0.014,0.979,-0.103,-0.244,-1.099,0.763,66.667,644039.000,1.000
2.486,-2.114,2.595,-7.411,-9.775,-15.501,-12.415,-18.795,0.016,0.979,-0.103,-0.183,-1.129,0.610,66.667,644040.000,1.000
3.668,-0.484,4.762,-5.965,-6.649,-10.916,-9.394,-17.653,0.015,0.978,-0.105,-0.183,-1.160,0.702,66.667,644041.000,1.000
5.115,1.314,6.888,-4.486,-3.719,-6.909,-7.357,-15.876,0.015,0.980,-0.106,-0.061,-1.068,0.702,66.667,644042.000,1.000
6.452,2.356,8.304,-3.076,-1.911,-5.396,-7.013,-13.834,0.016,0.983,-0.103,-0.061,-1.038,0.610,66.667,644043.000,1.000
7.206,1.819,8.278,-2.029,-1.852,-7.107,-8.335,-12.154,0.015,0.983,-0.104,-0.092,-1.068,0.671,66.667,644044.000,1.000
7.097,-0.451,6.511,-1.687,-3.501,-11.110,-10.428,-11.240,0.016,0.985,-0.102,-0.061,-1.099,0.671,66.667,644045.000,1.000
6.149,-3.708,3.429,-2.182,-6.113,-15.412,-12.242,-11.056,0.018,0.985,-0.104,-0.153,-1.160,0.885,66.667,644046.000,1.000
4.718,-6.575,0.045,-3.261,-8.550,-17.838,-13.183,-11.149,0.016,0.982,-0.100,-0.275,-1.129,0.916,66.667,644047.000,1.000
3.229,-7.787,-2.593,-4.424,-9.781,-16.756,-12.875,-10.834,0.016,0.983,-0.102,-0.275,-1.068,0.671,66.667,644048.000,1.000
1.749,-7.046,-4.048,-5.309,-9.440,-11.885,-10.911,-9.637,0.017,0.982,-0.100,-0.305,-1.007,0.549,66.667,644049.000,1.000
-0.002,-5.217,-4.669,-5.929,-8.018,-4.719,-7.177,-7.635,0.018,0.981,-0.099,-0.275,-0.977,0.641,66.667,644050.000,1.000
-2.184,-3.637,-5.199,-6.586,-6.567,2.067,-2.498,-5.422,0.017,0.982,-0.099,-0.244,-0.977,0.702,66.667,644051.000,1.000
-4.518,-3.210,-6.181,-7.570,-6.118,6.049,1.194,-3.823,0.017,0.985,-0.098,-0.214,-1.007,0.793,66.667,644052.000,1.000
-6.302,-3.856,-7.503,-8.789,-6.978,6.461,2.045,-3.323,0.017,0.984,-0.102,-0.275,-0.854,0.793,66.667,644053.000,1.000
-6.620,-4.484,-8.326,-9.613,-8.348,4.560,-0.108,-3.557,0.019,0.985,-0.103,-0.275,-0.824,0.793,66.667,644054.000,1.000
-4.929,-3.820,-7.754,-9.334,-8.932,2.421,-3.680,-3.707,0.019,0.985,-0.102,-0.336,-0.732,0.854,66.667,644055.000,1.000
-1.976,-1.865,-5.970,-8.014,-8.274,1.099,-6.874,-3.546,0.018,0.984,-0.096,-0.275,-0.732,0.824,66.667,644056.000,1.000
0.208,-0.236,-4.475,-6.602,-7.206,0.203,-8.648,-3.525,0.019,0.985,-0.098,-0.183,-0.671,0.946,66.667,644057.000,1.000
-0.110,-0.561,-4.712,-5.933,-6.724,-0.772,-8.319,-3.677,0.021,0.987,-0.099,-0.275,-0.610,1.007,66.667,644058.000,1.000
-2.839,-2.834,-6.635,-5.879,-6.860,-1.409,-5.397,-3.202,0.021,0.986,-0.100,-0.427,-0.397,1.129,66.667,644059.000,1.000
-6.309,-5.607,-8.872,-5.668,-6.847,-0.873,-0.297,-1.431,0.021,0.985,-0.103,-0.366,-0.275,1.190,66.667,644060.000,1.000
-8.733,-7.417,-10.037,-4.843,-6.107,0.972,5.299,1.118,0.021,0.985,-0.102,-0.366,-0.214,1.190,66.667,644061.000,1.000
-9.270,-7.757,-9.647,-3.697,-4.793,3.240,9.227,2.898,0.021,0.982,-0.102,-0.366,-0.122,1.282,66.667,644062.000,1.000
-8.009,-6.889,-7.945,-2.752,-3.342,4.847,10.345,2.720,0.020,0.980,-0.103,-0.305,0.031,1.312,66.667,644063.000,1.000
-5.645,-5.338,-5.480,-2.217,-1.956,5.404,9.133,0.814,0.019,0.981,-0.103,-0.305,0.000,1.312,66.667,644064.000,1.000
-3.367,-3.816,-3.099,-2.132,-0.825,5.026,6.803,-1.681,0.019,0.979,-0.103,-0.183,0.061,1.495,66.667,644065.000,1.000
-2.424,-3.085,-1.779,-2.584,-0.340,3.812,4.449,-3.744,0.019,0.980,-0.100,-0.153,0.061,1.404,66.667,644066.000,1.000
-3.276,-3.363,-1.942,-3.463,-0.569,2.200,3.102,-4.686,0.021,0.982,-0.101,0.000,0.153,1.373,66.667,644067.000,1.000
-5.296,-3.973,-3.089,-4.278,-0.803,1.514,3.747,-4.007,0.021,0.982,-0.102,0.061,0.244,1.373,66.667,644068.000,1.000
-7.317,-3.843,-4.242,-4.438,-0.100,3.051,6.503,-1.712,0.020,0.984,-0.100,0.092,0.305,1.312,66.667,644069.000,1.000
-8.295,-2.288,-4.551,-3.616,1.790,6.441,9.903,1.396,0.018,0.983,-0.097,0.153,0.427,1.343,66.667,644070.000,1.000
-7.560,0.788,-3.473,-1.812,4.288,9.787,11.783,4.174,0.015,0.984,-0.095,0.214,0.549,1.251,66.667,644071.000,1.000
-5.022,5.041,-0.842,0.652,6.554,11.559,11.075,5.853,0.014,0.983,-0.101,0.244,0.641,1.129,66.667,644072.000,1.000
-1.442,9.641,2.841,3.059,7.847,11.514,8.299,6.154,0.013,0.981,-0.104,0.305,0.519,1.068,66.667,644073.000,1.000
1.895,13.406,6.453,4.517,7.608,9.973,4.371,4.963,0.012,0.978,-0.103,0.488,0.366,0.916,66.667,644074.000,1.000
4.083,15.482,8.948,4.548,5.768,7.380,-0.196,2.426,0.014,0.978,-0.104,0.702,0.214,0.946,66.667,644075.000,1.000
5.090,15.901,10.019,3.500,3.047,4.660,-4.654,-0.636,0.015,0.979,-0.104,0.824,0.183,0.824,66.667,644076.000,1.000
5.578,15.465,10.143,2.366,0.676,3.073,-7.623,-2.950,0.018,0.977,-0.102,1.038,0.214,0.671,66.667,644077.000,1.000
6.338,15.025,10.027,2.070,-0.405,3.211,-8.055,-3.610,0.017,0.977,-0.105,1.099,0.214,0.580,66.667,644078.000,1.000
7.643,14.688,9.872,2.717,-0.246,4.312,-6.235,-2.712,0.019,0.978,-0.105,1.282,0.092,0.671,66.667,644079.000,1.000
9.095,13.822,9.237,3.566,0.215,4.894,-3.545,-1.268,0.020,0.979,-0.104,1.373,0.153,0.702,66.667,644080.000,1.000
10.138,11.924,7.725,3.767,-0.009,4.035,-1.352,-0.460,0.021,0.983,-0.107,1.343,0.244,0.702,66.667,644081.000,1.000
10.696,9.368,5.731,3.192,-1.120,1.951,-0.160,-0.669,0.019,0.982,-0.105,1.373,0.305,0.793,66.667,644082.000,1.000
11.261,7.254,4.377,2.560,-2.436,-0.394,0.440,-1.239,0.019,0.983,-0.106,1.434,0.397,0.885,66.667,644083.000,1.000
12.291,6.527,4.585,2.727,-3.055,-1.905,1.272,-1.243,0.015,0.983,-0.105,1.434,0.397,0.946,66.667,644084.000,1.000
13.669,7.265,6.316,3.941,-2.561,-1.770,2.990,-0.333,0.015,0.981,-0.108,1.251,0.397,0.977,66.667,644085.000,1.000
14.635,8.514,8.545,5.633,-1.385,-0.188,5.329,0.901,0.015,0.983,-0.108,1.343,0.305,1.068,66.667,644086.000,1.000
14.152,8.708,9.818,6.725,-0.634,1.209,6.896,1.244,0.015,0.985,-0.108,1.221,0.214,1.129,66.667,644087.000,1.000
11.659,6.799,9.204,6.391,-1.107,0.628,6.763,0.101,0.015,0.987,-0.107,1.099,0.153,1.221,66.667,644088.000,1.000
7.575,3.133,6.867,4.667,-2.519,-2.167,5.875,-1.680,0.015,0.988,-0.105,1.007,0.031,1.373,66.667,644089.000,1.000
3.017,-0.851,3.759,2.281,-3.933,-5.754,5.576,-2.772,0.014,0.990,-0.105,0.854,0.031,1.312,66.667,644090.000,1.000
-0.652,-3.434,1.107,0.232,-4.453,-8.128,5.697,-2.645,0.013,0.990,-0.104,0.793,-0.153,1.465,66.667,644091.000,1.000
-2.157,-3.250,0.077,-0.514,-3.357,-7.674,5.477,-1.368,0.012,0.987,-0.109,0.732,-0.244,1.373,66.667,644092.000,1.000
-0.879,0.010,1.252,0.521,-0.347,-3.972,5.187,0.973,0.010,0.984,-0.109,0.580,-0.397,1.526,66.667,644093.000,1.000
2.715,5.226,4.213,2.983,3.942,1.662,5.520,4.012,0.010,0.983,-0.108,0.519,-0.549,1.465,66.667,644094.000,1.000
7.439,10.568,7.910,6.005,8.227,6.911,6.584,7.031,0.010,0.983,-0.107,0.427,-0.671,1.434,66.667,644095.000,1.000
12.069,14.678,11.378,8.778,11.504,10.255,8.252,9.574,0.009,0.986,-0.108,0.427,-0.763,1.404,66.667,644096.000,1.000
15.492,16.881,13.806,10.600,13.263,11.554,10.082,11.373,0.010,0.988,-0.106,0.366,-0.854,1.312,66.667,644097.000,1.000
16.668,16.744,14.363,10.720,13.055,10.902,10.669,11.763,0.010,0.989,-0.105,0.214,-1.038,1.221,66.667,644098.000,1.000
15.191,14.339,12.749,8.913,10.900,8.323,8.794,10.302,0.012,0.990,-0.107,0.122,-1.160,1.129,66.667,644099.000,1.000
11.867,10.791,9.851,6.161,8.003,4.807,5.406,7.844,0.014,0.990,-0.106,-0.061,-1.404,1.190,66.667,644100.000,1.000
8.259,7.770,7.211,4.142,6.124,2.198,3.117,5.986,0.016,0.990,-0.107,-0.153,-1.312,1.038,66.667,644101.000,1.000
5.743,6.480,5.942,3.973,6.224,1.812,3.683,5.647,0.019,0.990,-0.106,-0.244,-1.495,0.885,66.667,644102.000,1.000
5.003,7.203,6.263,5.560,7.980,3.665,6.699,6.580,0.018,0.989,-0.104,-0.397,-1.495,0.793,66.667,644103.000,1.000
5.924,9.371,7.685,7.919,10.274,6.803,10.532,7.975,0.019,0.990,-0.104,-0.549,-1.526,0.793,66.667,644104.000,1.000
7.793,11.956,9.448,9.982,12.004,10.031,14.004,9.337,0.019,0.989,-0.106,-0.702,-1.495,0.824,66.667,644105.000,1.000
9.643,13.933,10.806,11.055,12.520,12.308,16.762,10.511,0.021,0.988,-0.101,-0.763,-1.526,0.977,66.667,644106.000,1.000
10.455,14.402,11.021,10.761,11.450,12.675,18.286,10.976,0.021,0.986,-0.102,-0.916,-1.434,1.007,66.667,644107.000,1.000
9.547,12.944,9.689,9.140,8.869,10.836,18.030,10.068,0.020,0.983,-0.101,-0.946,-1.343,1.099,66.667,644108.000,1.000
7.361,10.328,7.441,6.994,5.897,8.159,16.683,8.072,0.021,0.981,-0.102,-0.916,-1.312,1.038,66.667,644109.000,1.000
5.520,8.325,5.851,5.569,4.317,6.896,15.690,6.245,0.021,0.982,-0.100,-0.854,-1.312,0.916,66.667,644110.000,1.000
5.647,8.404,6.298,5.776,5.270,8.027,15.672,5.886,0.021,0.980,-0.101,-0.854,-1.221,1.038,66.667,644111.000,1.000
8.102,10.694,8.978,7.722,8.548,10.530,16.248,7.589,0.020,0.979,-0.101,-0.671,-1.282,0.977,66.667,644112.000,1.000
11.505,13.828,12.627,10.453,12.622,12.267,16.429,10.517,0.017,0.977,-0.103,-0.641,-1.221,1.007,66.667,644113.000,1.000
13.537,15.714,15.157,12.297,15.221,11.205,14.755,12.474,0.017,0.975,-0.100,-0.610,-1.190,0.946,66.667,644114.000,1.000
12.720,15.061,15.169,12.161,14.776,6.910,10.589,11.797,0.016,0.972,-0.102,-0.549,-1.282,0.946,66.667,644115.000,1.000
9.625,12.469,13.087,10.512,11.722,1.444,5.661,9.078,0.014,0.970,-0.103,-0.427,-1.343,0.977,66.667,644116.000,1.000
6.483,9.992,10.856,9.022,8.216,-1.824,3.081,6.471,0.012,0.967,-0.101,-0.244,-1.373,0.793,66.667,644117.000,1.000
5.472,9.321,10.325,9.207,6.234,-1.050,4.247,5.412,0.014,0.967,-0.102,0.031,-1.434,0.580,66.667,644118.000,1.000
6.945,10.194,11.585,11.126,5.859,2.429,7.362,5.293,0.019,0.969,-0.102,0.244,-1.373,0.519,66.667,644119.000,1.000
9.333,10.876,13.072,13.425,5.715,5.568,9.491,4.597,0.023,0.974,-0.103,0.519,-1.343,0.488,66.667,644120.000,1.000
10.742,10.061,13.221,14.549,4.796,6.430,9.452,2.917,0.024,0.980,-0.100,0.641,-1.221,0.397,66.667,644121.000,1.000
10.526,7.926,11.742,13.872,3.323,5.239,8.110,1.295,0.023,0.983,-0.099,0.671,-0.977,0.549,66.667,644122.000,1.000
9.553,5.684,9.565,11.986,2.142,3.346,6.682,0.903,0.019,0.985,-0.098,0.519,-1.038,0.732,66.667,644123.000,1.000
9.178,4.442,7.905,10.030,1.794,1.713,5.589,1.907,0.016,0.985,-0.100,0.519,-0.977,0.671,66.667,644124.000,1.000
9.886,4.253,7.240,8.598,2.044,0.235,4.575,3.435,0.014,0.983,-0.102,0.336,-0.977,0.763,66.667,644125.000,1.000
10.940,4.178,7.101,7.431,2.134,-1.644,3.495,4.368,0.012,0.981,-0.105,0.275,-0.916,0.641,66.667,644126.000,1.000
11.356,3.354,6.813,6.192,1.613,-3.787,2.828,4.321,0.013,0.982,-0.107,0.244,-0.916,0.549,66.667,644127.000,1.000
10.847,1.889,6.225,5.077,0.837,-5.108,3.423,3.984,0.017,0.982,-0.105,0.397,-1.007,0.580,66.667,644128.000,1.000
9.796,0.684,5.699,4.600,0.691,-4.409,5.877,4.572,0.018,0.984,-0.104,0.336,-1.007,0.732,66.667,644129.000,1.000
8.591,0.422,5.516,5.009,1.743,-1.486,9.902,6.750,0.020,0.986,-0.105,0.122,-0.977,0.732,66.667,644130.000,1.000
7.110,0.703,5.327,5.947,3.542,2.480,14.217,9.880,0.019,0.988,-0.102,0.092,-0.916,0.824,66.667,644131.000,1.000
5.050,0.548,4.537,6.787,5.035,5.915,17.270,12.490,0.019,0.990,-0.101,-0.092,-0.885,0.854,66.667,644132.000,1.000
2.546,-0.446,3.085,7.137,5.515,7.979,17.914,13.331,0.016,0.991,-0.101,-0.092,-0.793,0.977,66.667,644133.000,1.000
0.003,-2.009,1.389,6.813,4.861,8.333,15.797,12.035,0.015,0.990,-0.101,-0.244,-0.854,1.007,66.667,644134.000,1.000
-2.144,-3.473,0.092,5.932,3.657,7.050,12.521,9.722,0.014,0.991,-0.104,-0.427,-0.885,1.160,66.667,644135.000,1.000
-3.224,-3.699,0.147,5.263,3.313,5.328,11.574,8.752,0.013,0.990,-0.102,-0.610,-0.824,1.251,66.667,644136.000,1.000
-2.621,-1.794,2.223,5.709,4.899,4.774,14.583,10.545,0.015,0.990,-0.103,-0.732,-0.732,1.251,66.667,644137.000,1.000
-0.453,1.813,5.816,7.263,7.737,5.541,18.539,13.927,0.014,0.990,-0.101,-0.885,-0.854,1.312,66.667,644138.000,1.000
2.391,5.505,9.428,8.858,9.841,6.124,18.610,16.213,0.015,0.987,-0.101,-0.977,-0.885,1.343,66.667,644139.000,1.000
4.795,7.608,11.592,9.308,9.567,4.907,12.507,15.270,0.014,0.986,-0.102,-1.007,-0.885,1.343,66.667,644140.000,1.000
5.924,7.298,11.599,8.202,6.635,1.457,1.749,10.737,0.013,0.984,-0.103,-1.099,-0.885,1.312,66.667,644141.000,1.000
5.436,4.783,9.569,5.806,2.044,-3.309,-9.581,4.215,0.013,0.981,-0.102,-1.099,-0.977,1.404,66.667,644142.000,1.000
3.542,1.073,6.293,2.659,-2.524,-7.578,-16.947,-1.609,0.014,0.979,-0.101,-1.038,-1.007,1.343,66.667,644143.000,1.000
1.065,-2.331,3.049,-0.376,-5.379,-9.364,-17.637,-4.527,0.017,0.978,-0.105,-0.916,-1.038,1.343,66.667,644144.000,1.000
-0.775,-3.980,1.133,-2.273,-5.517,-7.434,-12.090,-3.883,0.020,0.980,-0.105,-0.702,-0.946,1.343,66.667,644145.000,1.000
-1.050,-3.236,1.161,-2.482,-3.072,-2.045,-3.252,-0.527,0.020,0.982,-0.105,-0.610,-0.824,1.312,66.667,644146.000,1.000
0.268,-0.685,2.718,-1.286,0.775,4.832,5.293,3.937,0.020,0.982,-0.103,-0.488,-0.854,1.343,66.667,644147.000,1.000
2.365,2.213,4.680,0.485,4.423,10.171,11.003,8.018,0.017,0.982,-0.104,-0.427,-0.763,1.434,66.667,644148.000,1.000
4.291,4.128,6.041,2.083,6.773,11.745,13.209,10.973,0.021,0.979,-0.105,-0.397,-0.732,1.465,66.667,644149.000,1.000
5.647,4.633,6.548,3.177,7.686,9.574,12.540,12.631,0.025,0.977,-0.105,-0.275,-0.549,1.648,66.667,644150.000,1.000
6.412,3.896,6.397,3.542,7.389,5.113,9.433,12.491,0.024,0.976,-0.105,-0.061,-0.519,1.770,66.667,644151.000,1.000
6.427,2.127,5.687,2.955,5.990,-0.167,4.158,9.844,0.021,0.978,-0.107,0.092,-0.488,1.740,66.667,644152.000,1.000
5.710,-0.099,4.706,1.857,4.119,-4.587,-1.404,5.384,0.019,0.979,-0.102,0.305,-0.336,1.678,66.667,644153.000,1.000
4.969,-1.630,4.276,1.484,3.153,-6.113,-4.014,1.546,0.016,0.983,-0.101,0.366,-0.244,1.648,66.667,644154.000,1.000
5.153,-1.612,5.114,2.737,3.983,-3.961,-2.363,0.384,0.014,0.984,-0.102,0.488,-0.336,1.465,66.667,644155.000,1.000
6.609,-0.275,7.094,5.325,6.039,0.203,1.321,1.804,0.013,0.983,-0.102,0.397,-0.305,1.404,66.667,644156.000,1.000
8.847,1.321,9.324,8.135,7.865,3.393,3.692,4.209,0.015,0.983,-0.100,0.427,-0.427,1.129,66.667,644157.000,1.000
10.913,2.019,10.716,10.052,8.242,3.455,3.253,6.110,0.014,0.979,-0.102,0.458,-0.458,1.129,66.667,644158.000,1.000
12.159,1.393,10.781,10.668,6.986,0.517,0.833,6.924,0.012,0.977,-0.100,0.488,-0.488,0.977,66.667,644159.000,1.000
12.801,0.142,10.041,10.490,5.048,-3.185,-1.735,6.901,0.014,0.975,-0.101,0.549,-0.458,0.977,66.667,644160.000,1.000
13.450,-0.640,9.349,10.268,3.590,-5.247,-3.140,6.568,0.015,0.976,-0.105,0.702,-0.519,0.885,66.667,644161.000,1.000
14.340,-0.377,9.069,10.301,3.079,-4.792,-3.239,6.314,0.017,0.978,-0.107,0.732,-0.488,0.885,66.667,644162.000,1.000
15.320,1.010,9.145,10.583,3.461,-2.162,-2.373,6.499,0.015,0.978,-0.107,0.885,-0.549,0.732,66.667,644163.000,1.000
16.163,3.350,9.381,11.125,4.579,1.975,-0.655,7.432,0.016,0.980,-0.102,1.007,-0.549,0.732,66.667,644164.000,1.000
16.495,5.957,9.309,11.718,5.971,6.523,1.466,8.810,0.015,0.982,-0.102,1.038,-0.549,0.793,66.667,644165.000,1.000
15.565,7.389,8.023,11.564,6.597,9.640,2.727,9.463,0.017,0.983,-0.103,1.007,-0.519,0.824,66.667,644166.000,1.000
12.676,6.224,4.722,9.713,5.468,9.728,1.899,8.115,0.016,0.984,-0.102,0.885,-0.549,0.854,66.667,644167.000,1.000
8.218,2.554,-0.252,6.158,2.760,7.025,-1.079,4.526,0.016,0.985,-0.102,0.916,-0.671,1.007,66.667,644168.000,1.000
3.641,-1.854,-5.383,2.019,-0.212,3.339,-5.117,-0.229,0.015,0.985,-0.103,0.916,-0.519,1.007,66.667,644169.000,1.000
0.131,-5.137,-9.241,-1.456,-2.188,0.223,-8.824,-4.453,0.013,0.980,-0.103,0.793,-0.610,1.190,66.667,644170.000,1.000
-2.040,-6.469,-11.267,-3.480,-2.620,-1.611,-10.877,-6.546,0.011,0.979,-0.105,0.854,-0.610,1.160,66.667,644171.000,1.000
-2.851,-5.760,-11.353,-3.482,-1.307,-1.549,-10.050,-5.385,0.010,0.983,-0.106,0.916,-0.671,1.251,66.667,644172.000,1.000
-2.360,-3.449,-9.718,-1.300,1.618,0.709,-5.971,-0.941,0.011,0.984,-0.104,0.885,-0.763,1.160,66.667,644173.000,1.000
-1.672,-1.104,-7.637,1.962,4.923,3.965,-0.150,5.063,0.012,0.985,-0.103,0.916,-0.763,1.190,66.667,644174.000,1.000
-2.774,-1.000,-7.172,4.175,6.478,5.738,4.483,9.836,0.015,0.984,-0.101,0.732,-0.824,1.068,66.667,644175.000,1.000
-6.498,-4.059,-9.282,3.917,4.981,4.189,5.494,11.409,0.015,0.985,-0.103,0.763,-0.763,1.099,66.667,644176.000,1.000
-11.314,-8.727,-12.686,1.638,1.147,-0.448,2.356,9.601,0.015,0.986,-0.104,0.854,-0.702,1.312,66.667,644177.000,1.000
-14.670,-12.346,-15.040,-1.057,-3.047,-6.196,-3.593,5.388,0.017,0.988,-0.102,0.793,-0.702,1.373,66.667,644178.000,1.000
-15.168,-13.402,-14.992,-2.884,-6.053,-10.886,-10.238,-0.003,0.017,0.988,-0.105,0.580,-0.793,1.556,66.667,644179.000,1.000
-13.342,-12.351,-12.950,-3.573,-7.601,-13.558,-15.874,-5.430,0.016,0.986,-0.104,0.549,-0.702,1.617,66.667,644180.000,1.000
-10.910,-10.842,-10.407,-3.674,-8.373,-14.648,-19.697,-9.978,0.017,0.985,-0.105,0.519,-0.702,1.709,66.667,644181.000,1.000
-9.593,-10.478,-8.906,-4.058,-9.229,-15.098,-21.709,-13.139,0.018,0.983,-0.104,0.366,-0.763,1.678,66.667,644182.000,1.000
-9.891,-11.623,-8.965,-5.115,-10.300,-15.129,-22.040,-14.584,0.017,0.983,-0.104,0.458,-0.732,1.801,66.667,644183.000,1.000
-10.732,-13.111,-9.755,-6.338,-10.771,-14.122,-20.581,-14.071,0.018,0.983,-0.103,0.549,-0.671,1.831,66.667,644184.000,1.000
-10.826,-13.626,-10.231,-7.121,-9.970,-11.875,-17.712,-11.988,0.017,0.984,-0.104,0.519,-0.732,1.770,66.667,644185.000,1.000
-10.090,-13.034,-10.309,-7.601,-8.288,-9.175,-14.592,-9.462,0.017,0.982,-0.103,0.549,-0.732,1.648,66.667,644186.000,1.000
-9.567,-12.230,-10.723,-8.429,-6.822,-7.143,-12.214,-7.618,0.017,0.981,-0.104,0.671,-0.671,1.465,66.667,644187.000,1.000
-10.000,-11.817,-11.767,-9.713,-6.081,-6.185,-10.283,-6.509,0.017,0.983,-0.105,0.610,-0.702,1.312,66.667,644188.000,1.000
-10.389,-10.865,-12.142,-10.158,-4.999,-5.141,-7.244,-4.715,0.020,0.983,-0.105,0.610,-0.763,1.251,66.667,644189.000,1.000
-8.772,-7.790,-9.987,-8.118,-2.045,-2.173,-2.179,-0.910,0.020,0.982,-0.107,0.763,-0.732,1.251,66.667,644190.000,1.000
-4.886,-2.812,-5.439,-3.869,2.423,2.842,3.510,4.065,0.021,0.981,-0.104,0.763,-0.763,1.129,66.667,644191.000,1.000
-0.966,1.604,-1.030,0.109,5.993,7.626,6.885,7.591,0.021,0.980,-0.104,0.702,-0.702,1.190,66.667,644192.000,1.000
0.392,2.993,0.664,1.350,6.471,9.417,5.704,7.656,0.020,0.981,-0.104,0.763,-0.549,1.038,66.667,644193.000,1.000
-1.618,0.916,-0.978,-0.641,3.701,7.166,0.120,4.452,0.022,0.983,-0.103,0.732,-0.458,0.885,66.667,644194.000,1.000
-5.674,-2.915,-4.548,-4.279,-0.433,2.294,-7.067,0.120,0.021,0.985,-0.105,0.732,-0.397,0.824,66.667,644195.000,1.000
-9.267,-5.819,-7.630,-7.034,-3.269,-2.192,-11.977,-2.710,0.019,0.982,-0.105,0.702,-0.336,0.885,66.667,644196.000,1.000
-10.237,-5.860,-8.271,-6.986,-3.055,-3.676,-12.208,-2.562,0.019,0.983,-0.104,0.610,-0.366,0.671,66.667,644197.000,1.000
-8.424,-3.331,-6.447,-4.202,-0.288,-1.805,-8.430,-0.047,0.018,0.984,-0.105,0.702,-0.336,0.641,66.667,644198.000,1.000
-5.844,-0.551,-4.096,-0.753,2.610,1.325,-3.724,2.593,0.017,0.985,-0.103,0.641,-0.366,0.671,66.667,644199.000,1.000
-4.479,0.573,-2.952,1.307,3.635,3.244,-0.969,3.497,0.017,0.983,-0.102,0.641,-0.397,0.519,66.667,644200.000,1.000
-4.144,0.549,-2.623,1.907,3.155,3.462,-0.431,2.919,0.017,0.986,-0.104,0.610,-0.397,0.488,66.667,644201.000,1.000
-3.134,1.329,-1.395,2.443,3.032,3.495,-0.129,2.424,0.015,0.988,-0.107,0.519,-0.366,0.458,66.667,644202.000,1.000
-0.477,3.899,1.571,3.755,4.218,4.806,1.439,2.711,0.016,0.988,-0.104,0.305,-0.458,0.519,66.667,644203.000,1.000
3.080,7.390,5.384,5.213,5.809,7.177,3.569,2.967,0.014,0.990,-0.102,0.275,-0.580,0.610,66.667,644204.000,1.000
5.936,10.109,8.334,5.589,6.218,9.190,4.642,2.098,0.013,0.991,-0.101,0.061,-0.549,0.549,66.667,644205.000,1.000
6.716,10.717,9.009,4.094,4.497,9.499,3.800,-0.328,0.012,0.991,-0.101,-0.061,-0.763,0.519,66.667,644206.000,1.000
4.985,8.889,7.058,0.832,0.788,7.380,0.781,-4.035,0.011,0.988,-0.102,-0.305,-0.854,0.488,66.667,644207.000,1.000
2.008,5.964,3.927,-2.824,-3.347,3.363,-3.938,-7.753,0.012,0.988,-0.102,-0.519,-0.793,0.549,66.667,644208.000,1.000
0.350,4.462,2.308,-4.751,-5.459,-0.534,-8.601,-9.608,0.010,0.988,-0.105,-0.610,-1.007,0.610,66.667,644209.000,1.000
2.002,6.180,4.140,-3.614,-3.926,-2.090,-11.201,-8.661,0.010,0.988,-0.105,-0.732,-0.977,0.580,66.667,644210.000,1.000
7.031,10.986,9.301,0.282,1.046,-0.400,-10.754,-5.479,0.012,0.989,-0.102,-0.824,-1.129,0.641,66.667,644211.000,1.000
13.429,16.905,15.673,5.137,7.600,3.571,-7.661,-1.457,0.011,0.990,-0.101,-0.946,-1.190,0.763,66.667,644212.000,1.000
17.918,20.980,20.078,8.329,12.941,7.496,-3.596,1.775,0.012,0.991,-0.100,-1.190,-1.312,0.885,66.667,644213.000,1.000
18.057,21.022,20.212,7.912,14.786,9.036,-0.736,2.914,0.012,0.991,-0.100,-1.312,-1.434,0.916,66.667,644214.000,1.000
14.407,17.372,16.510,4.282,13.007,7.383,-0.309,1.791,0.011,0.990,-0.102,-1.465,-1.465,0.824,66.667,644215.000,1.000
10.336,12.838,12.007,0.199,9.887,3.970,-1.537,-0.253,0.013,0.988,-0.102,-1.587,-1.617,0.916,66.667,644216.000,1.000
9.400,10.643,10.056,-1.169,8.469,1.671,-2.173,-1.169,0.016,0.984,-0.102,-1.770,-1.526,0.946,66.667,644217.000,1.000
12.675,12.087,11.907,1.482,10.356,2.785,-0.315,0.304,0.016,0.984,-0.101,-1.770,-1.587,0.946,66.667,644218.000,1.000
17.955,15.567,15.831,6.700,14.515,7.032,3.737,3.583,0.016,0.985,-0.102,-1.831,-1.617,0.977,66.667,644219.000,1.000
21.290,17.690,18.367,11.290,17.908,11.269,7.175,6.504,0.015,0.986,-0.102,-1.892,-1.648,1.007,66.667,644220.000,1.000
19.871,15.885,16.898,12.544,17.733,11.844,6.869,6.977,0.017,0.985,-0.101,-1.953,-1.740,1.038,66.667,644221.000,1.000
13.991,10.377,11.514,9.982,13.507,7.617,2.293,4.657,0.019,0.986,-0.103,-2.106,-1.617,1.038,66.667,644222.000,1.000
6.485,3.735,4.562,5.222,7.131,0.630,-3.737,1.042,0.021,0.989,-0.106,-2.106,-1.404,1.129,66.667,644223.000,1.000
0.320,-1.324,-1.400,0.420,1.188,-5.697,-7.068,-1.892,0.021,0.988,-0.103,-2.167,-1.434,1.099,66.667,644224.000,1.000
-3.318,-3.709,-5.201,-3.125,-2.793,-8.829,-5.533,-3.092,0.021,0.984,-0.103,-2.167,-1.312,1.190,66.667,644225.000,1.000
-5.183,-4.283,-7.340,-5.432,-5.101,-8.635,-1.123,-3.125,0.023,0.980,-0.100,-2.106,-1.221,1.099,66.667,644226.000,1.000
-6.862,-4.994,-9.267,-7.494,-7.360,-7.336,1.390,-3.920,0.023,0.976,-0.102,-2.136,-1.038,1.190,66.667,644227.000,1.000
-9.481,-7.456,-12.269,-10.427,-11.175,-7.686,-1.653,-7.428,0.022,0.974,-0.102,-2.136,-0.916,1.282,66.667,644228.000,1.000
-13.153,-12.033,-16.723,-14.690,-17.013,-11.027,-10.272,-14.156,0.022,0.974,-0.103,-1.953,-0.671,1.190,66.667,644229.000,1.000
