EEG 1,EEG 2,EEG 3,EEG 4,EEG 5,EEG 6,EEG 7,EEG 8,Accelerometer X,Accelerometer Y,Accelerometer Z,Gyroscope X,Gyroscope Y,Gyroscope Z,Battery Level,Counter,Validation Indicator
3112.368,2717.676,664.428,-6800.264,5035.140,5287.856,5300.201,5213.555,-0.053,0.980,0.002,0.000,0.000,0.000,80.000,1.000,1.000
19376.311,17479.301,-138.273,-50167.657,34827.140,36427.117,36427.126,35224.247,-0.059,0.989,-0.010,0.000,0.000,0.000,80.000,2.000,1.000
57016.777,53989.989,-3226.165,-168524.529,116183.831,121466.571,121434.253,114134.116,-0.060,0.993,-0.010,0.000,0.000,0.000,80.000,3.000,1.000
108914.547,110028.651,-7919.465,-359647.719,253162.321,264654.238,264576.055,238745.250,-0.060,0.993,-0.013,0.000,0.000,0.000,80.000,4.000,1.000
160656.196,176001.305,-6521.283,-545038.543,415819.413,434696.253,434578.151,370232.475,-0.060,0.994,-0.012,0.000,0.000,0.000,80.000,5.000,1.000
208189.040,248287.772,13768.921,-605603.282,559869.881,585294.836,585154.785,461519.418,-0.063,0.997,-0.015,-3.113,4.181,-4.852,80.000,6.000,1.000
259904.631,328683.380,61669.856,-467693.822,650037.849,679560.970,679412.444,489639.869,-0.062,0.997,-0.013,-2.075,1.465,-1.312,80.000,7.000,1.000
326431.467,414912.462,135622.515,-158648.890,673733.760,704327.085,704174.420,469782.287,-0.061,0.996,-0.015,-1.038,0.061,0.336,80.000,8.000,1.000
410278.619,497853.947,224989.825,211922.981,645427.787,674726.605,674572.716,442892.529,-0.062,0.997,-0.012,-0.763,-0.458,1.007,80.000,9.000,1.000
501251.427,565823.063,314660.582,515532.135,597898.876,625036.626,624887.897,446559.139,-0.061,0.996,-0.014,-0.702,-0.610,1.221,80.000,10.000,1.000
579631.057,608722.562,391282.744,671635.379,561980.402,586908.758,586589.788,491392.158,-0.062,0.994,-0.018,-0.610,-0.671,1.282,80.000,11.000,1.000
625282.549,620693.221,449379.952,684723.133,548326.650,568920.241,567558.050,555198.019,-0.059,0.996,-0.014,-0.549,-0.702,1.282,80.000,12.000,1.000
627363.490,601887.347,491674.986,626372.410,544619.685,554339.360,550237.764,596564.652,-0.062,0.995,-0.015,-0.549,-0.732,1.251,80.000,13.000,1.000
588415.727,557652.375,523087.469,575439.832,529064.963,519534.750,511155.600,582593.809,-0.062,0.997,-0.017,-0.488,-0.793,1.099,80.000,14.000,1.000
520566.076,495190.124,545513.863,565644.664,487802.363,454891.410,442094.117,511272.445,-0.057,0.999,-0.016,-0.610,-0.854,1.129,80.000,15.000,1.000
437149.506,420079.661,557860.893,581335.678,421236.043,368677.138,353036.140,407757.285,-0.059,0.996,-0.014,-0.610,-0.793,1.099,80.000,16.000,1.000
347227.515,336119.121,559493.811,594657.502,338134.961,276167.310,260340.222,301024.838,-0.057,0.996,-0.014,-0.702,-0.824,1.129,80.000,17.000,1.000
258075.573,249680.304,553075.287,598202.595,249636.434,190523.376,177141.618,207830.984,-0.056,0.995,-0.017,-0.671,-0.732,1.160,80.000,18.000,1.000
180249.645,172745.073,543907.694,601603.274,168912.853,121874.475,112428.034,135388.168,-0.059,0.991,-0.016,-0.610,-0.732,1.068,80.000,19.000,1.000
125377.805,117908.103,536475.882,608373.352,109636.105,77482.201,71802.162,88907.265,-0.058,0.987,-0.017,-0.519,-0.702,1.068,80.000,20.000,1.000
97346.997,89018.615,531900.353,608685.681,78798.687,58065.606,54773.806,69969.637,-0.058,0.989,-0.017,-0.397,-0.641,1.068,80.000,21.000,1.000
88289.631,78475.340,528735.724,595187.184,71087.118,55465.363,53029.645,70556.285,-0.056,0.994,-0.016,-0.214,-0.549,1.007,80.000,22.000,1.000
85467.252,74713.924,525607.720,576174.909,73020.071,57432.582,54983.988,75504.690,-0.057,0.999,-0.018,-0.092,-0.671,1.007,80.000,23.000,1.000
81332.105,71133.176,522504.608,566716.210,73467.375,55951.957,53356.303,73634.116,-0.057,1.001,-0.015,-0.183,-0.580,0.916,80.000,24.000,1.000
75882.678,67236.882,519829.779,570297.101,69645.051,50542.834,47973.328,64913.647,-0.059,1.001,-0.015,-0.305,-0.519,0.977,80.000,25.000,1.000
71001.277,63472.167,517188.826,575746.107,63950.569,44222.630,41819.771,55838.911,-0.058,0.999,-0.015,-0.336,-0.488,1.099,80.000,26.000,1.000
65697.637,58107.217,513714.706,572314.977,57818.245,38273.154,36138.820,49927.202,-0.058,0.997,-0.018,-0.366,-0.641,0.977,80.000,27.000,1.000
57810.924,49625.744,509286.261,562163.589,50331.996,31763.052,30053.882,44903.810,-0.060,0.996,-0.017,-0.366,-0.610,0.946,80.000,28.000,1.000
48097.515,39806.795,504805.153,555141.960,41369.947,24535.395,23387.694,37974.811,-0.063,0.997,-0.016,-0.336,-0.641,0.824,80.000,29.000,1.000
40103.977,32320.632,501138.676,555030.808,33275.794,18373.785,17734.635,30450.074,-0.063,0.998,-0.018,-0.244,-0.702,0.732,80.000,30.000,1.000
35949.953,28558.651,498158.530,555807.931,28376.297,14766.348,14390.447,25659.601,-0.063,1.002,-0.016,-0.305,-0.763,0.732,80.000,31.000,1.000
33887.168,26295.448,495062.510,551021.203,26066.965,12818.857,12478.033,24050.745,-0.064,1.001,-0.013,-0.397,-0.763,0.641,80.000,32.000,1.000
30730.611,22726.050,491422.162,542263.875,23592.569,10329.080,9995.051,22540.322,-0.067,1.002,-0.012,-0.488,-0.824,0.397,80.000,33.000,1.000
25657.124,17670.613,487584.010,536079.817,19336.399,6408.690,6203.754,18567.110,-0.068,1.003,-0.011,-0.671,-0.854,0.336,80.000,34.000,1.000
20553.652,13052.411,484065.609,535005.916,14272.614,2150.836,2153.861,13042.772,-0.067,1.001,-0.011,-0.824,-0.946,0.275,80.000,35.000,1.000
17090.466,9979.049,480876.126,534988.718,10136.469,-1159.613,-1006.130,8628.092,-0.067,1.000,-0.011,-0.885,-1.190,0.183,80.000,36.000,1.000
14708.028,7499.225,477604.662,531394.294,7176.389,-3606.571,-3402.123,6241.161,-0.069,1.000,-0.009,-1.038,-1.343,-0.031,80.000,37.000,1.000
11802.192,4251.141,474013.184,524706.299,4295.427,-6115.703,-5874.187,4398.453,-0.069,1.000,-0.008,-1.007,-1.404,-0.031,80.000,38.000,1.000
7977.044,333.261,470305.555,518976.543,817.463,-9026.495,-8682.315,1582.310,-0.068,0.998,-0.009,-1.160,-1.556,0.031,80.000,39.000,1.000
4326.834,-3048.741,466808.106,516303.001,-2737.915,-11816.182,-11334.922,-1937.816,-0.067,0.998,-0.009,-1.160,-1.678,0.000,80.000,40.000,1.000
1788.331,-5300.263,463564.643,514784.387,-5609.338,-14032.842,-13469.350,-4907.670,-0.069,0.998,-0.009,-1.282,-1.770,-0.031,80.000,41.000,1.000
6.855,-7082.227,460341.910,511620.518,-7830.299,-15890.115,-15325.996,-6864.549,-0.068,0.998,-0.008,-1.251,-1.831,0.000,80.000,42.000,1.000
-1996.356,-9281.153,456946.878,506526.759,-10007.056,-17818.869,-17272.397,-8479.010,-0.067,0.997,-0.006,-1.312,-1.923,0.092,80.000,43.000,1.000
-4567.318,-11931.509,453424.884,501447.506,-12456.874,-19864.406,-19286.964,-10471.527,-0.065,0.996,-0.007,-1.282,-2.014,0.153,80.000,44.000,1.000
-7206.147,-14412.036,449954.805,497871.839,-14967.141,-21793.482,-21144.399,-12825.848,-0.066,0.994,-0.008,-1.282,-2.075,0.275,80.000,45.000,1.000
-9360.181,-16349.962,446635.000,495375.659,-17256.923,-23538.653,-22837.389,-15087.273,-0.066,0.994,-0.008,-1.251,-2.045,0.488,80.000,46.000,1.000
-11025.851,-17960.881,443404.825,492553.283,-19298.762,-25216.921,-24515.109,-16969.171,-0.065,0.994,-0.007,-1.160,-2.106,0.641,80.000,47.000,1.000
-12570.794,-19611.554,440135.342,488627.720,-21170.410,-26818.923,-26139.109,-18492.123,-0.063,0.994,-0.005,-1.160,-2.167,0.793,80.000,48.000,1.000
-14263.234,-21388.216,436762.979,484019.258,-22896.792,-28204.157,-27522.519,-19826.905,-0.064,0.994,-0.004,-1.099,-2.136,0.854,80.000,49.000,1.000
-16089.677,-23148.263,433345.780,479757.148,-24552.239,-29420.987,-28706.107,-21215.312,-0.062,0.994,-0.006,-1.007,-2.075,0.916,80.000,50.000,1.000
-17860.607,-24758.929,430003.262,476497.879,-26289.457,-30736.632,-29990.001,-22850.293,-0.063,0.994,-0.007,-1.007,-2.106,1.129,80.000,51.000,1.000
-19370.532,-26166.536,426790.254,473889.469,-28098.913,-32226.635,-31479.043,-24611.125,-0.063,0.993,-0.007,-1.007,-2.106,1.129,80.000,52.000,1.000
-20558.103,-27380.187,423626.521,470838.672,-29705.054,-33576.050,-32851.781,-26058.727,-0.063,0.993,-0.006,-0.946,-2.045,1.221,80.000,53.000,1.000
-21617.216,-28517.635,420376.868,466656.810,-30916.703,-34505.985,-33799.600,-26950.960,-0.063,0.991,-0.004,-0.916,-2.106,1.312,80.000,54.000,1.000
-22860.496,-29764.636,417014.662,461981.332,-31981.542,-35240.336,-34529.148,-27677.414,-0.064,0.990,-0.006,-0.916,-1.953,1.312,80.000,55.000,1.000
-24349.476,-31146.226,413670.796,458187.375,-33326.644,-36253.499,-35527.173,-28861.764,-0.062,0.990,-0.007,-0.824,-1.923,1.190,80.000,56.000,1.000
-25741.304,-32410.437,410479.958,455686.841,-34945.148,-37584.112,-36857.541,-30502.932,-0.062,0.990,-0.008,-0.793,-1.923,1.251,80.000,57.000,1.000
-26676.430,-33311.381,407400.829,453231.802,-36329.775,-38723.902,-38021.081,-31867.311,-0.060,0.989,-0.009,-0.671,-1.862,1.160,80.000,58.000,1.000
-27288.025,-33985.494,404254.469,449396.286,-37155.593,-39318.476,-38646.785,-32442.136,-0.059,0.990,-0.008,-0.610,-1.801,1.038,80.000,59.000,1.000
-28101.935,-34843.108,400954.932,444507.153,-37785.477,-39705.893,-39049.754,-32702.440,-0.058,0.992,-0.006,-0.488,-1.526,1.160,80.000,60.000,1.000
-29353.129,-36021.483,397633.059,440368.235,-38819.049,-40479.291,-39820.453,-33540.078,-0.056,0.992,-0.007,-0.427,-1.465,1.038,80.000,61.000,1.000
-30621.659,-37145.083,394472.199,437906.218,-40251.702,-41648.026,-40989.076,-35037.354,-0.056,0.993,-0.007,-0.458,-1.434,1.099,80.000,62.000,1.000
-31358.975,-37804.013,391461.043,435832.641,-41439.432,-42596.348,-41959.168,-36293.708,-0.056,0.995,-0.006,-0.427,-1.251,1.038,80.000,63.000,1.000
-31649.853,-38142.321,388399.987,432278.766,-41979.648,-42938.997,-42338.768,-36635.154,-0.058,0.993,-0.006,-0.397,-1.068,0.977,80.000,64.000,1.000
-32144.357,-38708.498,385166.107,427332.711,-42297.130,-43080.870,-42506.875,-36573.932,-0.056,0.993,-0.006,-0.397,-0.946,1.007,80.000,65.000,1.000
-33189.486,-39713.123,381883.084,423002.011,-43082.780,-43670.847,-43099.010,-37145.784,-0.056,0.993,-0.007,-0.336,-0.793,1.038,80.000,66.000,1.000
-34333.892,-40712.817,378758.685,420528.106,-44335.685,-44697.034,-44119.972,-38488.531,-0.058,0.995,-0.007,-0.275,-0.641,1.099,80.000,67.000,1.000
-34922.900,-41200.440,375803.466,418665.849,-45350.133,-45496.316,-44933.083,-39630.912,-0.059,0.996,-0.006,-0.244,-0.519,1.129,80.000,68.000,1.000
-34999.359,-41313.561,372813.980,415334.795,-45688.963,-45676.272,-45148.340,-39818.735,-0.058,0.998,-0.006,-0.244,-0.458,1.038,80.000,69.000,1.000
-35263.898,-41665.700,369647.624,410447.732,-45795.722,-45662.524,-45166.221,-39560.080,-0.058,0.999,-0.006,-0.275,-0.427,1.007,80.000,70.000,1.000
-36123.865,-42506.620,366416.211,406046.928,-46386.411,-46106.305,-45617.943,-39934.583,-0.059,0.999,-0.008,-0.305,-0.244,1.007,80.000,71.000,1.000
-37131.849,-43370.074,363333.655,403530.662,-47461.590,-46982.355,-46489.986,-41112.048,-0.061,1.001,-0.010,-0.305,-0.275,1.038,80.000,72.000,1.000
-37595.864,-43711.036,360425.596,401752.784,-48310.508,-47633.135,-47153.013,-42125.373,-0.060,1.001,-0.009,-0.275,-0.122,1.099,80.000,73.000,1.000
-37528.732,-43659.691,357496.844,398594.347,-48497.054,-47686.255,-47241.494,-42205.721,-0.063,1.002,-0.007,-0.244,-0.153,1.099,80.000,74.000,1.000
-37630.754,-43847.199,354398.398,393847.131,-48457.344,-47563.001,-47152.470,-41831.794,-0.064,1.002,-0.003,-0.397,-0.092,1.068,80.000,75.000,1.000
-38331.516,-44541.296,351227.575,389468.224,-48890.670,-47885.011,-47484.241,-42057.638,-0.066,1.000,-0.003,-0.488,-0.153,1.068,80.000,76.000,1.000
-39210.379,-45285.102,348188.342,386893.180,-49801.095,-48620.860,-48214.115,-43067.614,-0.067,0.999,-0.005,-0.549,-0.122,1.038,80.000,77.000,1.000
-39583.528,-45531.897,345288.033,385090.793,-50510.857,-49150.404,-48751.263,-43948.446,-0.065,0.999,-0.004,-0.641,-0.153,1.129,80.000,78.000,1.000
-39438.052,-45392.861,342253.501,381946.669,-50603.086,-49130.619,-48763.702,-43959.889,-0.066,0.998,-0.005,-0.580,-0.214,1.129,80.000,79.000,1.000
-39433.591,-45471.864,338779.470,377018.943,-50480.062,-48952.200,-48620.683,-43532.883,-0.064,0.999,-0.005,-0.610,-0.275,1.160,80.000,80.000,1.000
-39991.103,-46031.657,334806.163,371943.048,-50788.349,-49178.962,-48861.204,-43646.908,-0.065,1.001,-0.003,-0.641,-0.275,1.160,80.000,81.000,1.000
-40731.522,-46646.302,330489.607,368048.829,-51533.697,-49775.270,-49454.441,-44487.237,-0.065,1.003,-0.005,-0.702,-0.397,1.221,80.000,82.000,1.000
-41015.534,-46801.230,325959.605,364542.786,-52101.082,-50182.628,-49869.089,-45228.720,-0.068,1.006,-0.002,-0.793,-0.519,1.251,80.000,83.000,1.000
-40817.066,-46595.804,321235.766,359729.420,-52115.564,-50102.798,-49819.326,-45193.098,-0.070,1.007,-0.003,-0.977,-0.610,1.251,80.000,84.000,1.000
-40736.688,-46589.482,316385.900,353495.401,-51939.971,-49890.173,-49640.686,-44756.666,-0.066,1.005,-0.007,-1.160,-0.671,1.343,80.000,85.000,1.000
-41169.810,-47030.239,311631.971,347594.334,-52151.861,-50040.767,-49805.019,-44794.728,-0.066,1.002,-0.006,-1.251,-0.702,1.434,80.000,86.000,1.000
-41786.604,-47534.377,307195.848,343375.607,-52756.276,-50517.068,-50277.727,-45482.250,-0.065,1.000,-0.009,-1.373,-0.793,1.465,80.000,87.000,1.000
-42009.612,-47631.972,303072.577,340085.040,-53210.357,-50830.009,-50595.055,-46097.339,-0.063,0.995,-0.008,-1.434,-0.732,1.465,80.000,88.000,1.000
-41799.657,-47403.223,299045.468,335986.105,-53183.142,-50723.763,-50514.694,-46038.227,-0.065,0.991,-0.008,-1.404,-0.702,1.587,80.000,89.000,1.000
-41679.833,-47343.833,294940.682,330683.268,-52987.140,-50504.982,-50327.713,-45621.494,-0.065,0.991,-0.011,-1.251,-0.732,1.526,80.000,90.000,1.000
-42005.756,-47679.063,290803.469,325515.432,-53121.033,-50595.809,-50433.345,-45604.305,-0.065,0.990,-0.012,-1.190,-0.610,1.465,80.000,91.000,1.000
-42501.322,-48077.563,286790.398,321633.831,-53591.766,-50961.516,-50797.169,-46147.829,-0.065,0.990,-0.012,-0.977,-0.671,1.373,80.000,92.000,1.000
-42665.554,-48126.995,282945.333,318473.656,-53938.738,-51189.260,-51028.490,-46642.828,-0.067,0.990,-0.009,-0.793,-0.671,1.221,80.000,93.000,1.000
-42454.361,-47889.690,279156.457,314621.258,-53881.001,-51066.910,-50928.954,-46572.960,-0.065,0.991,-0.012,-0.610,-0.610,1.099,80.000,94.000,1.000
-42310.008,-47789.600,275326.534,309755.404,-53679.355,-50850.889,-50742.550,-46193.632,-0.066,0.993,-0.009,-0.427,-0.610,1.099,80.000,95.000,1.000
-42541.165,-48023.872,271507.430,305004.075,-53749.827,-50887.964,-50794.944,-46135.534,-0.067,0.996,-0.010,-0.183,-0.763,1.007,80.000,96.000,1.000
-42922.873,-48316.694,267821.686,301351.939,-54099.095,-51146.289,-51052.440,-46539.588,-0.066,0.993,-0.010,-0.061,-0.732,0.916,80.000,97.000,1.000
-43033.406,-48320.964,264292.330,298349.109,-54348.058,-51289.442,-51197.182,-46909.128,-0.066,0.993,-0.010,0.061,-0.793,0.946,80.000,98.000,1.000
-42827.901,-48086.472,260814.538,294808.171,-54266.481,-51150.486,-51075.713,-46819.829,-0.066,0.993,-0.009,0.183,-0.793,0.916,80.000,99.000,1.000
-42670.115,-47965.513,257296.963,290417.989,-54066.493,-50940.451,-50890.351,-46476.515,-0.064,0.993,-0.006,0.244,-0.854,0.793,80.000,100.000,1.000
-42821.235,-48122.897,253774.699,286075.157,-54084.906,-50936.143,-50900.283,-46391.274,-0.064,0.992,-0.007,0.397,-0.854,0.824,80.000,101.000,1.000
-43104.797,-48332.129,250349.219,282602.738,-54328.004,-51108.290,-51073.781,-46682.873,-0.065,0.993,-0.011,0.549,-0.946,0.916,80.000,102.000,1.000
-43176.095,-48306.373,247049.099,279677.224,-54493.839,-51189.252,-51158.115,-46955.698,-0.063,0.994,-0.008,0.702,-0.916,0.946,80.000,103.000,1.000
-42990.129,-48082.608,243799.355,276353.481,-54399.378,-51049.630,-51035.029,-46866.231,-0.063,0.995,-0.008,0.580,-0.885,0.916,80.000,104.000,1.000
-42834.221,-47945.832,240527.692,272355.107,-54210.593,-50855.429,-50863.140,-46568.290,-0.064,0.994,-0.008,0.702,-0.916,0.916,80.000,105.000,1.000
-42920.922,-48032.436,237255.888,268370.054,-54190.369,-50819.358,-50840.021,-46463.287,-0.066,0.994,-0.009,0.824,-0.854,0.977,80.000,106.000,1.000
-43116.673,-48164.567,234059.869,265059.660,-54343.775,-50916.083,-50937.781,-46651.395,-0.065,0.996,-0.007,0.854,-0.946,1.068,80.000,107.000,1.000
-43149.729,-48113.035,230964.285,262199.992,-54438.343,-50941.311,-50964.576,-46832.931,-0.065,0.994,-0.004,0.885,-0.916,1.007,80.000,108.000,1.000
-42978.880,-47902.933,227914.648,259060.969,-54334.085,-50799.943,-50835.423,-46741.919,-0.064,0.997,-0.005,0.885,-0.916,1.160,80.000,109.000,1.000
-42824.435,-47756.068,224854.093,255402.699,-54156.888,-50618.438,-50671.600,-46488.224,-0.064,0.996,-0.008,0.885,-0.916,1.068,80.000,110.000,1.000
-42855.088,-47781.407,221794.369,251730.468,-54104.786,-50553.535,-50617.382,-46372.009,-0.065,0.995,-0.005,0.885,-1.038,1.160,80.000,111.000,1.000
-42975.061,-47844.970,218791.198,248559.038,-54181.917,-50584.191,-50648.861,-46472.360,-0.067,0.995,-0.008,0.732,-1.068,1.221,80.000,112.000,1.000
-42977.643,-47770.691,215867.088,245748.443,-54216.339,-50561.668,-50627.228,-46571.828,-0.066,0.994,-0.008,0.702,-1.038,1.190,80.000,113.000,1.000
-42825.335,-47574.433,212985.955,242759.485,-54105.049,-50420.453,-50496.146,-46474.962,-0.068,0.992,-0.006,0.732,-1.099,1.221,80.000,114.000,1.000
-42679.093,-47422.341,210104.779,239390.624,-53939.323,-50253.567,-50345.543,-46259.105,-0.068,0.994,-0.008,0.671,-1.068,1.312,80.000,115.000,1.000
-42667.817,-47398.740,207226.977,235991.500,-53862.033,-50170.852,-50274.839,-46140.572,-0.066,0.993,-0.010,0.732,-1.038,1.190,80.000,116.000,1.000
-42727.141,-47407.650,204390.393,232945.955,-53877.079,-50154.291,-50261.824,-46179.110,-0.066,0.993,-0.010,0.854,-1.068,1.129,80.000,117.000,1.000
-42706.352,-47319.292,201614.362,230179.742,-53864.105,-50099.399,-50208.442,-46223.026,-0.064,0.992,-0.007,0.763,-1.068,1.190,80.000,118.000,1.000
-42571.384,-47140.889,198877.818,227316.157,-53750.292,-49961.798,-50078.070,-46131.377,-0.063,0.992,-0.005,0.763,-1.129,1.099,80.000,119.000,1.000
-42431.352,-46988.333,196150.575,224191.992,-53595.324,-49803.483,-49932.008,-45949.253,-0.064,0.991,-0.008,0.824,-1.160,1.038,80.000,120.000,1.000
-42379.679,-46922.455,193430.608,221029.862,-53494.168,-49695.483,-49834.345,-45820.920,-0.064,0.993,-0.010,0.824,-1.251,0.916,80.000,121.000,1.000
-42379.126,-46879.714,190740.787,218101.207,-53451.525,-49626.765,-49770.646,-45793.242,-0.064,0.993,-0.007,0.854,-1.282,0.946,80.000,122.000,1.000
-42329.661,-46772.460,188096.144,215380.925,-53392.752,-49535.298,-49682.811,-45775.525,-0.063,0.994,-0.009,0.885,-1.282,0.885,80.000,123.000,1.000
-42204.512,-46604.607,185486.425,212625.488,-53272.976,-49398.028,-49552.757,-45677.988,-0.063,0.995,-0.008,0.916,-1.221,0.916,80.000,124.000,1.000
-42072.086,-46452.638,182891.773,209706.954,-53127.833,-49252.362,-49416.942,-45522.614,-0.062,0.995,-0.009,0.977,-1.282,0.916,80.000,125.000,1.000
-41995.377,-46357.714,180306.729,206747.229,-53012.832,-49135.294,-49307.061,-45393.752,-0.062,0.995,-0.008,0.946,-1.282,0.916,80.000,126.000,1.000
-41955.696,-46280.328,177743.088,203924.993,-52930.441,-49036.212,-49210.037,-45322.435,-0.062,0.995,-0.007,0.977,-1.251,0.793,80.000,127.000,1.000
-41890.671,-46163.915,175212.595,201251.305,-52839.462,-48921.773,-49095.923,-45261.230,-0.060,0.998,-0.008,1.038,-1.099,0.916,80.000,128.000,1.000
-41777.827,-46007.743,172713.110,198588.952,-52716.192,-48783.842,-48961.318,-45159.416,-0.063,1.000,-0.007,0.916,-1.099,0.763,80.000,129.000,1.000
-41652.471,-45856.024,170232.905,195841.521,-52578.008,-48642.026,-48826.257,-45022.635,-0.064,0.999,-0.009,0.793,-1.129,0.885,80.000,130.000,1.000
-41552.686,-45733.860,167764.639,193054.188,-52449.919,-48509.392,-48700.151,-44890.025,-0.064,0.999,-0.008,0.763,-1.160,0.824,80.000,131.000,1.000
-41474.449,-45621.244,165312.202,190331.503,-52332.522,-48377.859,-48572.190,-44780.521,-0.062,0.999,-0.009,0.702,-1.099,0.854,80.000,132.000,1.000
-41387.130,-45488.420,162884.697,187709.441,-52210.802,-48237.956,-48434.238,-44680.473,-0.065,1.000,-0.010,0.580,-1.129,0.732,80.000,133.000,1.000
-41275.311,-45334.370,160485.679,185132.532,-52078.444,-48094.701,-48294.433,-44570.867,-0.065,0.998,-0.013,0.488,-1.129,0.732,80.000,134.000,1.000
-41152.032,-45181.080,158109.026,182531.021,-51941.037,-47956.266,-48161.664,-44447.527,-0.065,1.000,-0.010,0.427,-1.099,0.763,80.000,135.000,1.000
-41037.517,-45042.618,155745.382,179892.861,-51802.861,-47819.170,-48030.080,-44316.964,-0.066,0.999,-0.008,0.336,-1.129,0.671,80.000,136.000,1.000
-40937.339,-44912.747,153392.225,177264.338,-51663.280,-47675.892,-47889.877,-44187.519,-0.066,1.000,-0.009,0.275,-1.160,0.610,80.000,137.000,1.000
-40841.494,-44778.447,151056.383,174696.981,-51524.134,-47530.002,-47745.213,-44066.610,-0.068,0.999,-0.010,0.275,-1.190,0.671,80.000,138.000,1.000
-40736.740,-44634.182,148745.626,172196.049,-51388.938,-47390.733,-47608.019,-43955.063,-0.068,0.996,-0.008,0.244,-1.221,0.641,80.000,139.000,1.000
-40617.590,-44482.266,146458.684,169714.887,-51253.064,-47254.834,-47476.742,-43840.442,-0.068,0.997,-0.008,0.153,-1.282,0.580,80.000,140.000,1.000
-40490.267,-44327.789,144185.922,167202.611,-51105.505,-47107.507,-47335.431,-43706.549,-0.068,0.996,-0.010,0.183,-1.221,0.580,80.000,141.000,1.000
-40368.243,-44176.524,141920.662,164662.243,-50945.815,-46945.140,-47177.944,-43556.267,-0.066,0.996,-0.011,0.122,-1.282,0.488,80.000,142.000,1.000
-40259.099,-44031.373,139667.553,162153.077,-50789.706,-46784.758,-47020.395,-43414.734,-0.069,0.996,-0.010,0.153,-1.373,0.671,80.000,143.000,1.000
-40153.711,-43886.771,137436.821,159722.569,-50648.563,-46641.412,-46879.335,-43298.477,-0.067,0.998,-0.008,0.122,-1.312,0.610,80.000,144.000,1.000
-40034.151,-43732.034,135230.811,157343.015,-50510.234,-46504.716,-46746.043,-43189.032,-0.066,0.996,-0.009,0.092,-1.221,0.580,80.000,145.000,1.000
-39896.149,-43565.350,133040.119,154939.010,-50352.851,-46351.428,-46596.887,-43053.271,-0.065,0.998,-0.009,0.122,-1.404,0.763,80.000,146.000,1.000
-39758.035,-43400.076,130855.119,152482.670,-50176.545,-46179.167,-46427.681,-42889.336,-0.067,0.998,-0.010,0.183,-1.434,0.854,80.000,147.000,1.000
-39639.553,-43249.559,128678.342,150035.220,-50007.074,-46012.233,-46262.075,-42733.971,-0.068,0.997,-0.012,0.214,-1.404,0.793,80.000,148.000,1.000
-39534.928,-43107.715,126521.060,147671.149,-49861.825,-45868.291,-46119.185,-42614.833,-0.067,0.997,-0.007,0.183,-1.465,0.885,80.000,149.000,1.000
-39417.984,-42954.319,124387.952,145377.613,-49724.351,-45732.254,-45985.637,-42510.698,-0.066,0.996,-0.005,0.153,-1.556,1.038,80.000,150.000,1.000
-39276.346,-42781.784,122270.289,143066.044,-49565.210,-45575.853,-45833.071,-42377.451,-0.064,0.996,-0.007,0.183,-1.465,1.007,80.000,151.000,1.000
-39129.674,-42607.421,120157.175,140688.389,-49382.481,-45397.191,-45657.864,-42208.058,-0.065,0.997,-0.009,0.275,-1.465,1.099,80.000,152.000,1.000
-39004.614,-42451.475,118049.942,138304.077,-49205.327,-45224.562,-45487.038,-42043.801,-0.065,0.996,-0.008,0.275,-1.434,1.038,80.000,153.000,1.000
-38898.450,-42309.009,115960.219,136002.778,-49053.906,-45077.633,-45340.873,-41918.410,-0.065,0.994,-0.011,0.305,-1.404,1.129,80.000,154.000,1.000
-38781.646,-42155.365,113894.151,133783.033,-48910.973,-44939.933,-45204.584,-41811.119,-0.063,0.995,-0.012,0.397,-1.526,1.160,80.000,155.000,1.000
-38637.552,-41979.596,111844.025,131552.020,-48745.373,-44781.600,-45049.012,-41674.405,-0.062,0.997,-0.009,0.427,-1.434,1.160,80.000,156.000,1.000
-38485.708,-41800.092,109798.528,129250.048,-48555.321,-44600.703,-44871.012,-41499.156,-0.063,0.995,-0.006,0.458,-1.343,1.190,80.000,157.000,1.000
-38355.768,-41639.636,107757.596,126931.669,-48371.190,-44425.394,-44697.050,-41327.361,-0.062,0.995,-0.005,0.488,-1.312,1.282,80.000,158.000,1.000
-38247.019,-41493.731,105731.819,124691.839,-48213.677,-44274.335,-44545.727,-41194.516,-0.063,0.996,-0.006,0.458,-1.221,1.251,80.000,159.000,1.000
-38129.261,-41336.637,103727.586,122536.765,-48065.475,-44131.217,-44402.295,-41081.298,-0.062,0.996,-0.008,0.427,-1.160,1.373,80.000,160.000,1.000
-37984.082,-41157.259,101738.365,120375.551,-47895.639,-43968.447,-44240.302,-40940.931,-0.063,0.996,-0.007,0.519,-1.099,1.312,80.000,161.000,1.000
-37829.837,-40975.009,99753.689,118143.844,-47702.582,-43785.886,-44058.964,-40763.875,-0.062,0.997,-0.005,0.488,-1.099,1.526,80.000,162.000,1.000
-37696.029,-40813.235,97773.222,115890.404,-47516.113,-43610.568,-43883.914,-40590.439,-0.062,0.999,-0.004,0.549,-1.068,1.495,80.000,163.000,1.000
-37582.775,-40667.045,95806.703,113709.271,-47356.262,-43458.847,-43731.273,-40454.800,-0.064,0.997,-0.003,0.397,-0.977,1.495,80.000,164.000,1.000
-37460.938,-40509.966,93860.308,111611.764,-47206.126,-43314.000,-43585.568,-40338.273,-0.063,0.998,-0.008,0.305,-0.946,1.465,80.000,165.000,1.000
-37312.339,-40330.091,91928.205,109512.786,-47035.684,-43149.635,-43421.573,-40195.594,-0.062,0.998,-0.010,0.305,-0.916,1.434,80.000,166.000,1.000
-37155.117,-40146.215,90000.432,107347.488,-46843.076,-42965.827,-43238.976,-40016.998,-0.061,0.997,-0.007,0.214,-0.854,1.373,80.000,167.000,1.000
-37019.344,-39981.896,88076.154,105157.642,-46656.146,-42788.075,-43061.837,-39840.443,-0.063,0.999,-0.007,0.214,-0.763,1.434,80.000,168.000,1.000
-36906.500,-39833.473,86164.447,103032.175,-46493.276,-42631.742,-42904.896,-39698.792,-0.062,1.000,-0.008,0.214,-0.610,1.434,80.000,169.000,1.000
-36788.246,-39676.022,84271.826,100986.310,-46338.670,-42481.981,-42754.283,-39575.930,-0.063,0.999,-0.007,0.061,-0.580,1.434,80.000,170.000,1.000
-36644.847,-39497.860,82393.647,98943.937,-46164.929,-42315.495,-42587.920,-39430.503,-0.062,0.997,-0.006,0.061,-0.549,1.465,80.000,171.000,1.000
-36490.268,-39315.822,80520.696,96843.084,-45970.339,-42132.638,-42405.937,-39252.572,-0.062,0.999,-0.006,0.000,-0.427,1.495,80.000,172.000,1.000
-36351.088,-39151.429,78651.403,94717.884,-45780.152,-41956.078,-42229.666,-39075.719,-0.062,0.998,-0.005,0.031,-0.397,1.434,80.000,173.000,1.000
-36229.937,-39001.595,76793.147,92648.180,-45611.657,-41799.209,-42071.838,-38930.132,-0.063,0.998,-0.005,-0.153,-0.458,1.404,80.000,174.000,1.000
-36103.425,-38843.662,74951.642,90650.444,-45451.787,-41648.517,-41919.654,-38802.499,-0.062,0.997,-0.004,-0.214,-0.397,1.465,80.000,175.000,1.000
-35955.747,-38666.796,73123.168,88658.777,-45276.958,-41483.325,-41753.413,-38656.497,-0.063,0.997,-0.005,-0.183,-0.366,1.343,80.000,176.000,1.000
-35800.819,-38486.249,71299.820,86616.784,-45085.969,-41304.130,-41573.613,-38483.147,-0.063,0.997,-0.007,-0.183,-0.427,1.282,80.000,177.000,1.000
-35662.981,-38321.614,69480.070,84551.858,-44900.488,-41130.490,-41399.113,-38311.368,-0.064,0.996,-0.003,-0.183,-0.305,1.251,80.000,178.000,1.000
-35544.254,-38170.227,67670.255,82533.784,-44734.466,-40973.354,-41240.689,-38167.028,-0.064,0.996,-0.006,-0.183,-0.336,1.282,80.000,179.000,1.000
-35422.721,-38011.891,65875.656,80579.557,-44575.576,-40820.727,-41087.194,-38038.680,-0.065,0.995,-0.007,-0.122,-0.336,1.404,80.000,180.000,1.000
-35282.281,-37836.755,64093.751,78634.339,-44402.627,-40654.859,-40921.726,-37894.970,-0.065,0.996,-0.008,-0.183,-0.275,1.312,80.000,181.000,1.000
-35132.741,-37657.985,62318.223,76648.859,-44213.804,-40476.212,-40744.302,-37727.323,-0.064,0.996,-0.007,-0.153,-0.336,1.343,80.000,182.000,1.000
-34994.362,-37493.145,60547.526,74644.171,-44027.586,-40301.977,-40570.681,-37559.688,-0.061,0.996,-0.005,-0.153,-0.397,1.312,80.000,183.000,1.000
-34869.868,-37340.818,58786.488,72678.888,-43856.873,-40142.607,-40410.535,-37414.585,-0.061,0.997,-0.006,-0.092,-0.427,1.282,80.000,184.000,1.000
-34741.936,-37183.625,57039.396,70769.086,-43692.393,-39988.717,-40255.219,-37283.332,-0.063,0.994,-0.003,-0.122,-0.458,1.282,80.000,185.000,1.000
-34597.530,-37011.452,55304.358,68870.211,-43516.304,-39824.490,-40090.103,-37139.093,-0.063,0.995,-0.008,-0.183,-0.488,1.312,80.000,186.000,1.000
-34445.288,-36833.221,53576.201,66940.219,-43326.006,-39648.157,-39913.422,-36972.721,-0.063,0.994,-0.005,-0.031,-0.519,1.404,80.000,187.000,1.000
-34303.418,-36663.184,51853.321,64994.420,-43136.327,-39472.580,-39736.907,-36803.003,-0.063,0.996,-0.003,0.092,-0.488,1.282,80.000,188.000,1.000
-34175.778,-36501.880,50139.300,63080.554,-42958.797,-39306.928,-39569.040,-36649.736,-0.064,0.996,-0.003,0.031,-0.671,1.312,80.000,189.000,1.000
-34048.420,-36337.373,48437.639,61213.378,-42787.527,-39145.627,-39404.834,-36508.321,-0.065,0.996,-0.006,0.031,-0.702,1.434,80.000,190.000,1.000
-33909.604,-36163.368,46746.953,59357.915,-42609.882,-38978.500,-39235.057,-36359.220,-0.066,0.996,-0.005,0.092,-0.732,1.343,80.000,191.000,1.000
-33764.915,-35988.274,45062.872,57479.193,-42424.882,-38805.827,-39060.111,-36196.207,-0.066,0.996,-0.003,0.061,-0.732,1.221,80.000,192.000,1.000
-33627.776,-35823.242,43383.757,55587.643,-42243.509,-38637.115,-38889.013,-36033.856,-0.066,0.995,-0.006,0.000,-0.702,1.129,80.000,193.000,1.000
-33500.443,-35666.996,41712.499,53721.252,-42072.391,-38476.987,-38726.277,-35886.356,-0.065,0.998,-0.006,0.092,-0.824,1.190,80.000,194.000,1.000
-33371.780,-35508.377,40052.402,51893.615,-41904.684,-38318.847,-38565.898,-35748.735,-0.065,1.000,-0.008,0.031,-0.854,1.190,80.000,195.000,1.000
-33233.146,-35341.948,38403.052,50078.844,-41729.742,-38154.471,-38400.306,-35605.152,-0.065,0.999,-0.003,0.031,-0.977,1.190,80.000,196.000,1.000
-33089.823,-35174.867,36761.423,48249.265,-41547.175,-37985.447,-38230.911,-35450.685,-0.064,1.000,-0.003,-0.092,-1.007,1.282,80.000,197.000,1.000
-32952.912,-35016.044,35126.142,46411.475,-41366.219,-37820.542,-38065.373,-35296.085,-0.062,0.999,-0.006,-0.183,-1.007,1.282,80.000,198.000,1.000
-32824.040,-34863.115,33498.999,44594.133,-41192.473,-37663.340,-37906.123,-35150.868,-0.063,0.995,-0.010,-0.214,-0.916,1.282,80.000,199.000,1.000
-32693.891,-34705.095,31882.127,42808.478,-41020.721,-37507.486,-37746.635,-35009.926,-0.063,0.990,-0.009,-0.122,-0.793,1.343,80.000,200.000,1.000
-32555.121,-34536.221,30275.043,41035.642,-40842.536,-37344.932,-37579.738,-34861.065,-0.063,0.990,-0.008,-0.061,-0.854,1.312,80.000,201.000,1.000
-32411.625,-34362.333,28675.355,39254.049,-40657.380,-37175.285,-37406.114,-34701.533,-0.063,0.990,-0.008,0.183,-0.916,1.343,80.000,202.000,1.000
-32272.581,-34192.601,27081.818,37467.098,-40472.607,-37004.776,-37232.561,-34541.268,-0.061,0.995,-0.008,0.305,-0.824,1.343,80.000,203.000,1.000
-32140.708,-34028.840,25495.673,35695.698,-40293.724,-36838.010,-37063.702,-34389.886,-0.061,0.997,-0.008,0.519,-0.885,1.373,80.000,204.000,1.000
-32010.227,-33865.852,23918.772,33949.529,-40118.506,-36673.919,-36898.065,-34245.599,-0.061,0.999,-0.005,0.610,-0.824,1.343,80.000,205.000,1.000
-31875.433,-33700.084,22351.257,32216.330,-39941.486,-36509.543,-36732.010,-34099.514,-0.061,1.000,-0.007,0.549,-0.854,1.465,80.000,206.000,1.000
-31737.639,-33534.176,20791.724,30480.416,-39761.410,-36344.920,-36564.953,-33947.804,-0.062,0.998,-0.009,0.488,-0.854,1.434,80.000,207.000,1.000
-31601.903,-33372.305,19239.247,28742.917,-39581.836,-36182.457,-36399.202,-33795.291,-0.062,0.995,-0.003,0.549,-0.885,1.343,80.000,208.000,1.000
-31469.491,-33214.028,17694.382,27017.881,-39405.538,-36022.783,-36235.902,-33647.524,-0.063,0.996,-0.005,0.549,-0.916,1.312,80.000,209.000,1.000
-31336.728,-33055.247,16158.040,25312.598,-39231.219,-35863.610,-36073.462,-33503.524,-0.064,0.997,-0.006,0.549,-0.916,1.190,80.000,210.000,1.000
-31200.626,-32893.885,14630.026,23619.261,-39056.118,-35702.693,-35909.988,-33357.956,-0.064,0.997,-0.006,0.641,-0.854,1.129,80.000,211.000,1.000
-31063.094,-32732.166,13109.189,21926.691,-38880.000,-35540.405,-35745.718,-33208.370,-0.065,0.999,-0.005,0.641,-1.099,1.038,80.000,212.000,1.000
-30928.360,-32572.981,11594.772,20234.433,-38705.084,-35378.705,-35582.294,-33057.694,-0.066,1.002,-0.004,0.549,-1.160,0.854,80.000,213.000,1.000
-30797.566,-32415.578,10087.283,18551.596,-38532.334,-35218.127,-35420.002,-32909.469,-0.066,1.002,-0.004,0.458,-1.221,0.641,80.000,214.000,1.000
-30667.595,-32256.190,8587.974,16884.534,-38359.514,-35056.798,-35256.861,-32763.057,-0.067,1.003,-0.005,0.183,-1.282,0.488,80.000,215.000,1.000
-30535.021,-32092.584,7097.588,15230.074,-38183.651,-34892.809,-35091.023,-32615.015,-0.070,1.003,-0.002,0.061,-1.343,0.275,80.000,216.000,1.000
-30400.124,-31927.035,5615.653,13581.045,-38004.688,-34727.074,-34923.454,-32464.173,-0.069,1.002,-0.005,-0.092,-1.434,0.092,80.000,217.000,1.000
-30266.245,-31764.293,4140.995,11935.124,-37825.740,-34562.902,-34757.260,-32313.489,-0.067,1.001,-0.007,-0.244,-1.404,0.061,80.000,218.000,1.000
-30135.735,-31607.012,2672.900,10296.258,-37649.807,-34402.663,-34594.507,-32166.605,-0.066,1.001,-0.004,-0.214,-1.526,-0.031,80.000,219.000,1.000
-30007.512,-31453.853,1211.679,8668.818,-37477.021,-34245.821,-34434.643,-32023.853,-0.066,1.001,-0.006,-0.336,-1.740,-0.092,80.000,220.000,1.000
-29878.599,-31301.605,-241.890,7052.666,-37305.169,-34090.112,-34275.710,-31882.059,-0.065,1.000,-0.005,-0.397,-1.740,-0.061,80.000,221.000,1.000
-29747.398,-31148.157,-1687.500,5444.224,-37132.148,-33933.640,-34116.037,-31737.784,-0.064,0.999,-0.005,-0.458,-1.740,-0.122,80.000,222.000,1.000
-29614.712,-30993.141,-3125.517,3841.005,-36957.337,-33775.626,-33954.797,-31590.144,-0.064,1.000,-0.004,-0.580,-1.770,0.000,80.000,223.000,1.000
-29482.307,-30836.979,-4556.398,2244.043,-36781.380,-33616.270,-33792.058,-31440.913,-0.066,0.998,-0.003,-0.702,-1.709,0.031,80.000,224.000,1.000
-29351.432,-30680.462,-5980.251,656.143,-36605.722,-33456.873,-33629.209,-31292.921,-0.066,0.996,-0.002,-0.641,-1.740,0.092,80.000,225.000,1.000
-29222.037,-30524.309,-7396.890,-921.372,-36431.609,-33299.063,-33468.318,-31147.806,-0.065,0.995,-0.001,-0.580,-1.709,0.153,80.000,226.000,1.000
-29093.133,-30368.606,-8806.151,-2489.947,-36259.061,-33143.267,-33310.260,-31004.916,-0.066,0.996,-0.002,-0.580,-1.740,0.336,80.000,227.000,1.000
-28964.140,-30213.158,-10208.176,-4052.214,-36087.417,-32988.685,-33154.148,-30862.950,-0.065,0.994,-0.003,-0.610,-1.831,0.427,80.000,228.000,1.000
-28835.412,-30058.030,-11603.228,-5609.068,-35916.523,-32834.518,-32998.590,-30721.933,-0.064,0.995,-0.006,-0.610,-1.770,0.519,80.000,229.000,1.000
-28707.005,-29903.065,-12991.129,-7158.317,-35746.539,-32680.312,-32842.617,-30582.271,-0.065,0.995,0.000,-0.519,-1.709,0.549,80.000,230.000,1.000
-28577.478,-29747.138,-14371.204,-8696.845,-35576.587,-32525.007,-32685.006,-30441.852,-0.067,0.992,0.000,-0.458,-1.740,0.580,80.000,231.000,1.000
-28445.119,-29588.854,-15743.030,-10224.316,-35404.538,-32366.582,-32523.768,-30296.114,-0.065,0.992,0.000,-0.366,-1.740,0.702,80.000,232.000,1.000
-28310.607,-29428.342,-17107.147,-11744.005,-35229.026,-32203.788,-32357.844,-30142.950,-0.064,0.991,0.002,-0.214,-1.801,0.732,80.000,233.000,1.000
-28177.607,-29267.936,-18464.712,-13259.189,-35051.544,-32038.240,-32189.237,-29986.699,-0.063,0.991,0.001,-0.153,-1.923,0.763,80.000,234.000,1.000
-28049.683,-29110.519,-19816.322,-14769.158,-34875.747,-31873.938,-32022.462,-29835.351,-0.063,0.992,0.000,-0.153,-1.831,0.824,80.000,235.000,1.000
-27926.600,-28957.034,-21161.427,-16270.056,-34704.192,-31714.035,-31861.113,-29693.208,-0.064,0.992,-0.001,-0.092,-1.770,0.885,80.000,236.000,1.000
-27804.414,-28805.782,-22499.041,-17759.839,-34535.931,-31558.118,-31704.792,-29556.977,-0.063,0.992,-0.001,0.031,-1.740,0.824,80.000,237.000,1.000
-27679.142,-28654.105,-23828.865,-19240.964,-34367.625,-31403.060,-31549.721,-29419.548,-0.063,0.991,-0.002,0.122,-1.587,0.793,80.000,238.000,1.000
-27550.232,-28500.982,-25151.580,-20717.218,-34197.131,-31246.701,-31392.655,-29277.265,-0.062,0.992,-0.002,0.092,-1.434,0.854,80.000,239.000,1.000
-27420.430,-28347.964,-26468.112,-22188.831,-34025.760,-31090.261,-31233.977,-29132.849,-0.063,0.990,-0.001,0.214,-1.495,0.916,80.000,240.000,1.000
-27292.228,-28197.017,-27778.707,-23652.336,-33856.349,-30936.346,-31076.308,-28991.006,-0.063,0.990,-0.005,0.275,-1.404,0.885,80.000,241.000,1.000
-27165.358,-28048.020,-29082.810,-25105.351,-33689.524,-30785.205,-30920.651,-28852.520,-0.062,0.991,-0.003,0.244,-1.282,0.916,80.000,242.000,1.000
-27038.222,-27899.266,-30379.798,-26549.845,-33523.174,-30634.381,-30765.448,-28714.229,-0.060,0.995,-0.003,0.183,-1.251,0.854,80.000,243.000,1.000
-26910.778,-27749.843,-31669.558,-27989.301,-33355.579,-30481.972,-30609.370,-28574.070,-0.061,0.992,-0.002,0.275,-1.129,0.824,80.000,244.000,1.000
-26784.703,-27600.348,-32952.202,-29423.586,-33187.584,-30328.793,-30453.341,-28433.859,-0.063,0.989,-0.002,0.366,-1.038,0.793,80.000,245.000,1.000
-26660.793,-27451.224,-34227.571,-30848.735,-33020.957,-30176.642,-30298.761,-28296.327,-0.063,0.992,-0.004,0.366,-0.916,0.732,80.000,246.000,1.000
-26537.648,-27301.772,-35495.483,-32262.319,-32855.746,-30025.481,-30144.795,-28160.962,-0.062,0.991,-0.003,0.458,-0.946,0.824,80.000,247.000,1.000
-26413.420,-27151.435,-36756.327,-33667.093,-32690.322,-29873.581,-29989.122,-28024.434,-0.063,0.993,-0.004,0.549,-0.732,0.977,80.000,248.000,1.000
-26288.162,-27001.304,-38010.916,-35067.687,-32523.720,-29720.294,-29831.273,-27884.896,-0.064,0.994,0.001,0.519,-0.732,1.038,80.000,249.000,1.000
-26163.691,-26853.442,-39259.625,-36464.609,-32356.985,-29567.605,-29674.002,-27744.507,-0.063,0.992,-0.002,0.458,-0.671,0.916,80.000,250.000,1.000
-26041.183,-26708.684,-40501.972,-37853.653,-32191.865,-29418.347,-29520.885,-27607.071,-0.064,0.993,-0.004,0.458,-0.641,0.916,80.000,251.000,1.000
-25919.808,-26565.796,-41737.263,-39231.589,-32028.778,-29273.239,-29372.895,-27473.747,-0.064,0.995,-0.003,0.519,-0.488,0.916,80.000,252.000,1.000
-25797.839,-26422.785,-42965.487,-40600.447,-31866.489,-29130.024,-29227.468,-27341.772,-0.065,0.997,-0.003,0.580,-0.519,0.916,80.000,253.000,1.000
-25674.649,-26278.713,-44187.266,-41964.664,-31703.638,-28985.589,-29080.901,-27207.558,-0.064,0.998,-0.003,0.549,-0.488,0.946,80.000,254.000,1.000
-25551.183,-26134.035,-45402.972,-43325.063,-31540.175,-28838.683,-28931.489,-27070.539,-0.066,1.000,-0.001,0.519,-0.488,1.160,80.000,255.000,1.000
-25428.391,-25989.106,-46612.286,-44677.889,-31376.822,-28690.022,-28779.770,-26932.980,-0.067,0.999,-0.001,0.519,-0.519,0.977,80.000,256.000,1.000
-25305.977,-25843.364,-47814.728,-46020.044,-31213.560,-28540.562,-28626.697,-26796.632,-0.070,1.000,0.002,0.336,-0.458,0.946,80.000,257.000,1.000
-25183.107,-25696.510,-49010.367,-47353.274,-31049.650,-28390.931,-28473.113,-26661.119,-0.070,0.997,0.001,0.275,-0.519,0.946,80.000,258.000,1.000
-25059.853,-25549.583,-50199.790,-48681.752,-30885.053,-28241.912,-28320.188,-26525.268,-0.070,0.997,0.000,0.214,-0.641,0.977,80.000,259.000,1.000
-24937.244,-25404.046,-51383.367,-50006.488,-30720.911,-28094.174,-28168.858,-26388.728,-0.070,0.997,-0.001,0.275,-0.671,1.068,80.000,260.000,1.000
-24815.877,-25260.154,-52560.762,-51324.094,-30558.256,-27947.500,-28019.073,-26252.132,-0.071,0.997,-0.001,0.336,-0.732,1.068,80.000,261.000,1.000
-24695.248,-25116.936,-53731.301,-52631.375,-30396.779,-27800.808,-27870.060,-26116.137,-0.070,0.998,-0.003,0.244,-0.793,1.007,80.000,262.000,1.000
-24574.632,-24973.718,-54894.719,-53929.409,-30235.227,-27653.106,-27721.090,-25980.668,-0.068,1.000,-0.003,0.366,-0.916,1.038,80.000,263.000,1.000
-24454.197,-24831.111,-56051.372,-55221.783,-30072.887,-27504.545,-27571.966,-25845.308,-0.069,1.000,-0.003,0.366,-0.854,1.160,80.000,264.000,1.000
-24334.740,-24690.033,-57201.683,-56509.651,-29910.258,-27356.331,-27422.855,-25710.134,-0.067,1.003,-0.001,0.336,-0.854,1.099,80.000,265.000,1.000
-24216.318,-24549.944,-58345.599,-57790.354,-29748.151,-27209.318,-27273.520,-25575.506,-0.065,1.002,-0.004,0.275,-0.946,1.160,80.000,266.000,1.000
-24097.724,-24408.876,-59482.790,-59061.261,-29586.616,-27063.038,-27123.065,-25441.141,-0.065,1.000,-0.008,0.244,-1.038,1.343,80.000,267.000,1.000
-23977.417,-24265.294,-60613.195,-60323.324,-29424.891,-26916.338,-26970.880,-25305.959,-0.063,0.998,-0.007,0.244,-1.068,1.373,80.000,268.000,1.000
-23855.199,-24119.761,-61737.119,-61579.646,-29262.353,-26768.777,-26817.704,-25169.271,-0.062,0.991,-0.004,0.305,-1.068,1.404,80.000,269.000,1.000
-23732.903,-23974.778,-62854.915,-62831.377,-29099.526,-26621.334,-26665.574,-25032.266,-0.064,0.991,-0.005,0.458,-0.977,1.526,80.000,270.000,1.000
-23612.829,-23832.776,-63966.747,-64076.602,-28937.863,-26475.654,-26516.521,-24897.689,-0.065,0.992,-0.007,0.549,-0.885,1.465,80.000,271.000,1.000
-23495.597,-23694.416,-65072.651,-65313.373,-28778.462,-26332.727,-26371.154,-24767.428,-0.068,0.993,-0.005,0.671,-0.854,1.465,80.000,272.000,1.000
-23379.797,-23558.599,-66172.715,-66542.481,-28621.348,-26192.362,-26228.596,-24640.625,-0.069,0.995,-0.006,0.793,-0.916,1.343,80.000,273.000,1.000
-23263.524,-23423.430,-67267.038,-67766.243,-28465.857,-26053.479,-26087.368,-24514.421,-0.069,0.997,-0.004,0.854,-1.038,1.068,80.000,274.000,1.000
-23145.818,-23287.036,-68355.489,-68985.180,-28311.166,-25914.530,-25945.938,-24386.360,-0.067,0.997,-0.005,0.916,-1.068,1.007,80.000,275.000,1.000
-23026.796,-23148.197,-69437.566,-70197.132,-28156.334,-25774.055,-25802.964,-24255.986,-0.066,0.996,-0.008,0.916,-1.160,0.885,80.000,276.000,1.000
-22907.110,-23007.051,-70512.720,-71399.965,-28000.465,-25631.603,-25657.963,-24124.486,-0.066,0.996,-0.006,0.885,-1.068,1.007,80.000,277.000,1.000
-22787.355,-22865.179,-71580.901,-72594.215,-27843.185,-25488.092,-25511.836,-23993.163,-0.066,0.996,-0.008,0.977,-1.251,0.854,80.000,278.000,1.000
-22667.993,-22724.795,-72642.674,-73782.260,-27684.957,-25345.044,-25366.285,-23862.448,-0.067,0.996,-0.006,0.885,-1.282,0.610,80.000,279.000,1.000
-22549.572,-22587.478,-73698.724,-74965.348,-27526.863,-25203.589,-25222.586,-23732.275,-0.065,0.997,-0.007,0.946,-1.251,0.549,80.000,280.000,1.000
-22432.433,-22453.101,-74749.350,-76142.471,-27369.867,-25063.938,-25080.789,-23602.756,-0.066,0.997,-0.006,1.007,-1.251,0.397,80.000,281.000,1.000
-22316.346,-22319.971,-75794.459,-77312.246,-27214.266,-24925.456,-24939.925,-23474.069,-0.065,0.998,-0.004,1.129,-1.282,0.336,80.000,282.000,1.000
-22200.539,-22186.035,-76833.795,-78474.808,-27059.550,-24786.985,-24798.657,-23345.700,-0.063,0.998,-0.005,1.099,-1.312,0.305,80.000,283.000,1.000
-22084.309,-22050.212,-77867.010,-79631.210,-26904.657,-24647.436,-24655.851,-23216.399,-0.064,0.999,-0.004,1.099,-1.282,0.366,80.000,284.000,1.000
-21967.896,-21913.149,-78893.788,-80781.632,-26749.016,-24506.796,-24511.469,-23085.698,-0.065,0.999,-0.004,1.129,-1.221,0.336,80.000,285.000,1.000
-21852.470,-21776.675,-79914.100,-81925.103,-26593.338,-24366.354,-24367.056,-22955.095,-0.066,0.996,-0.004,1.038,-1.251,0.397,80.000,286.000,1.000
-21739.094,-21642.288,-80928.235,-83060.900,-26438.902,-24227.459,-24224.608,-22826.758,-0.066,1.000,-0.005,1.007,-1.190,0.488,80.000,287.000,1.000
-21627.692,-21510.036,-81936.521,-84189.540,-26286.185,-24090.193,-24084.793,-22701.163,-0.067,0.997,-0.006,0.946,-1.282,0.519,80.000,288.000,1.000
-21517.113,-21378.682,-82939.043,-85312.100,-26134.514,-23953.435,-23946.425,-22576.583,-0.066,0.998,-0.009,0.946,-1.251,0.580,80.000,289.000,1.000
-21406.006,-21246.760,-83935.639,-86428.865,-25982.948,-23815.999,-23807.551,-22450.878,-0.066,0.997,-0.004,0.885,-1.190,0.610,80.000,290.000,1.000
-21293.460,-21113.425,-84926.070,-87539.047,-25831.091,-23677.478,-23666.824,-22323.270,-0.065,0.996,-0.005,0.885,-1.190,0.702,80.000,291.000,1.000
-21179.177,-20978.719,-85910.178,-88641.819,-25679.137,-23538.291,-23524.186,-22194.432,-0.067,0.996,-0.006,0.916,-1.282,0.885,80.000,292.000,1.000
-21063.374,-20843.269,-86887.953,-89737.290,-25527.425,-23399.168,-23380.710,-22065.504,-0.069,0.995,-0.004,0.732,-1.343,0.916,80.000,293.000,1.000
-20946.815,-20707.775,-87859.559,-90826.258,-25376.049,-23260.537,-23237.832,-21937.247,-0.070,0.995,-0.005,0.702,-1.343,0.854,80.000,294.000,1.000
-20830.803,-20572.844,-88825.332,-91909.289,-25225.004,-23122.532,-23096.753,-21810.139,-0.069,0.995,-0.004,0.702,-1.434,0.885,80.000,295.000,1.000
-20716.705,-20439.081,-89785.656,-92986.287,-25074.527,-22985.604,-22958.317,-21684.933,-0.070,0.996,-0.004,0.641,-1.404,0.916,80.000,296.000,1.000
-20605.282,-20307.143,-90740.705,-94056.898,-24925.024,-22850.700,-22822.857,-21562.469,-0.070,0.994,-0.002,0.610,-1.404,0.854,80.000,297.000,1.000
-20496.092,-20177.374,-91690.328,-95121.079,-24776.575,-22718.538,-22689.800,-21442.523,-0.070,0.995,-0.007,0.641,-1.434,0.916,80.000,298.000,1.000
-20387.628,-20049.318,-92634.259,-96179.110,-24628.640,-22588.674,-22557.501,-21323.158,-0.069,0.995,-0.005,0.549,-1.434,0.946,80.000,299.000,1.000
-20278.404,-19921.866,-93572.372,-97231.161,-24480.436,-22459.561,-22423.968,-21201.972,-0.071,0.994,-0.006,0.519,-1.587,0.946,80.000,300.000,1.000
-20167.953,-19794.035,-94504.773,-98277.117,-24331.724,-22329.672,-22288.240,-21078.203,-0.070,0.995,-0.005,0.488,-1.617,0.916,80.000,301.000,1.000
-20056.774,-19665.518,-95431.655,-99316.803,-24183.030,-22198.369,-22151.031,-20953.273,-0.068,0.997,-0.002,0.580,-1.556,0.854,80.000,302.000,1.000
-19945.433,-19536.463,-96352.996,-100350.118,-24035.008,-22065.744,-22013.887,-20829.293,-0.067,0.997,-0.005,0.519,-1.648,0.763,80.000,303.000,1.000
-19834.170,-19407.174,-97268.514,-101376.983,-23887.866,-21932.217,-21877.828,-20707.353,-0.064,0.995,-0.008,0.488,-1.617,0.854,80.000,304.000,1.000
-19723.251,-19278.132,-98177.932,-102397.285,-23741.383,-21798.396,-21742.790,-20587.091,-0.066,0.997,-0.010,0.488,-1.740,0.824,80.000,305.000,1.000
-19613.161,-19149.921,-99081.165,-103410.883,-23595.138,-21664.952,-21608.127,-20467.407,-0.066,0.998,-0.010,0.458,-1.617,0.946,80.000,306.000,1.000
-19504.512,-19023.012,-99978.371,-104417.769,-23448.909,-21532.531,-21473.413,-20347.429,-0.066,0.996,-0.009,0.427,-1.709,0.885,80.000,307.000,1.000
-19397.739,-18897.548,-100869.910,-105418.245,-23302.937,-21401.729,-21338.915,-20227.011,-0.065,0.996,-0.006,0.458,-1.678,0.946,80.000,308.000,1.000
-19292.759,-18773.253,-101756.120,-106412.756,-23157.616,-21272.788,-21205.310,-20106.492,-0.067,0.996,-0.009,0.458,-1.587,0.885,80.000,309.000,1.000
-19188.569,-18649.234,-102637.055,-107401.517,-23012.795,-21144.928,-21072.690,-19986.007,-0.067,0.998,-0.008,0.397,-1.556,0.885,80.000,310.000,1.000
-19083.373,-18524.023,-103512.484,-108384.356,-22867.604,-21016.275,-20940.050,-19865.324,-0.067,0.998,-0.010,0.397,-1.587,0.946,80.000,311.000,1.000
-18975.865,-18396.710,-104382.113,-109360.907,-22721.308,-20885.268,-20806.282,-19744.485,-0.066,0.997,-0.007,0.366,-1.465,0.946,80.000,312.000,1.000
-18866.157,-18267.881,-105245.797,-110330.907,-22574.099,-20752.073,-20671.335,-19623.997,-0.066,0.999,-0.008,0.366,-1.465,0.824,80.000,313.000,1.000
-18755.338,-18139.031,-106103.574,-111294.344,-22426.766,-20618.171,-20535.991,-19504.089,-0.066,1.001,-0.004,0.244,-1.495,0.885,80.000,314.000,1.000
-18644.657,-18011.355,-106955.596,-112251.411,-22279.993,-20484.940,-20400.969,-19384.330,-0.065,1.000,-0.003,0.183,-1.465,0.824,80.000,315.000,1.000
-18535.154,-17885.217,-107802.105,-113202.415,-22134.207,-20353.007,-20266.639,-19264.184,-0.066,1.000,-0.003,0.122,-1.312,0.732,80.000,316.000,1.000
-18427.679,-17760.662,-108643.415,-114147.648,-21989.830,-20222.620,-20133.331,-19143.760,-0.067,1.000,-0.003,0.153,-1.312,0.671,80.000,317.000,1.000
-18322.632,-17637.971,-109479.734,-115087.219,-21847.276,-20094.019,-20001.568,-19023.940,-0.069,0.999,-0.004,-0.061,-1.343,0.671,80.000,318.000,1.000
-18219.561,-17517.446,-110311.027,-116021.046,-21706.641,-19967.231,-19871.844,-18905.790,-0.069,0.998,-0.004,-0.122,-1.404,0.641,80.000,319.000,1.000
-18117.267,-17398.878,-111137.137,-116949.088,-21567.597,-19841.819,-19744.243,-18789.933,-0.068,0.996,-0.004,-0.244,-1.312,0.671,80.000,320.000,1.000
-18014.427,-17281.296,-111957.921,-117871.403,-21429.468,-19716.958,-19618.206,-18676.288,-0.068,0.996,-0.003,-0.336,-1.312,0.671,80.000,321.000,1.000
-17910.267,-17163.369,-112773.213,-118787.893,-21291.354,-19591.732,-19492.563,-18563.989,-0.069,0.994,-0.006,-0.336,-1.343,0.580,80.000,322.000,1.000
-17804.769,-17044.120,-113582.783,-119698.152,-21152.416,-19465.564,-19366.002,-18451.573,-0.069,0.996,-0.007,-0.275,-1.312,0.580,80.000,323.000,1.000
-17698.570,-16923.414,-114386.479,-120601.794,-21012.325,-19338.526,-19237.757,-18337.664,-0.069,0.996,-0.007,-0.275,-1.343,0.610,80.000,324.000,1.000
-17592.622,-16801.879,-115184.372,-121498.876,-20871.395,-19211.238,-19107.976,-18221.828,-0.068,0.998,-0.006,-0.305,-1.343,0.610,80.000,325.000,1.000
-17487.698,-16680.456,-115976.707,-122389.842,-20730.250,-19084.570,-18977.620,-18104.823,-0.067,0.996,-0.006,-0.275,-1.282,0.519,80.000,326.000,1.000
-17384.115,-16560.038,-116763.755,-123275.100,-20589.608,-18959.439,-18848.060,-17988.110,-0.068,0.996,-0.006,-0.244,-1.282,0.641,80.000,327.000,1.000
-17281.519,-16440.932,-117545.666,-124154.703,-20450.067,-18836.266,-18720.274,-17872.874,-0.069,0.996,-0.007,-0.244,-1.221,0.641,80.000,328.000,1.000
-17179.142,-16322.721,-118322.450,-125028.480,-20311.889,-18714.707,-18594.307,-17759.400,-0.070,0.996,-0.006,-0.153,-1.221,0.702,80.000,329.000,1.000
-17076.551,-16205.004,-119094.115,-125896.433,-20175.070,-18594.184,-18469.584,-17647.292,-0.068,0.995,-0.004,-0.214,-1.251,0.793,80.000,330.000,1.000
-16973.739,-16087.693,-119860.629,-126758.714,-20039.230,-18474.027,-18345.159,-17535.672,-0.069,0.994,-0.003,-0.122,-1.343,0.916,80.000,331.000,1.000
-16870.655,-15970.492,-120621.769,-127615.244,-19903.410,-18353.141,-18219.716,-17423.274,-0.068,0.993,-0.002,0.000,-1.221,1.038,80.000,332.000,1.000
-16767.178,-15852.770,-121377.224,-128465.644,-19766.560,-18230.402,-18092.264,-17309.128,-0.070,0.997,-0.006,-0.061,-1.221,1.129,80.000,333.000,1.000
-16663.620,-15734.265,-122126.901,-129309.643,-19628.478,-18105.634,-17963.121,-17193.376,-0.069,0.996,-0.007,-0.061,-1.251,1.099,80.000,334.000,1.000
-16560.932,-15615.715,-122871.104,-130147.477,-19490.269,-17980.109,-17834.101,-17077.426,-0.070,0.995,-0.003,0.000,-1.221,1.221,80.000,335.000,1.000
-16460.079,-15498.460,-123610.381,-130979.800,-19353.649,-17855.887,-17707.457,-16963.130,-0.069,0.996,-0.004,0.031,-1.190,1.190,80.000,336.000,1.000
-16361.164,-15383.380,-124345.097,-131807.076,-19219.579,-17734.336,-17584.246,-16851.424,-0.066,0.996,-0.003,0.000,-1.251,1.282,80.000,337.000,1.000
-16263.211,-15270.255,-125075.168,-132629.177,-19087.623,-17615.310,-17463.759,-16741.860,-0.067,0.995,-0.003,0.031,-1.251,1.312,80.000,338.000,1.000
-16165.043,-15158.091,-125800.283,-133445.699,-18956.652,-17497.688,-17344.504,-16633.554,-0.067,0.995,-0.004,0.031,-1.129,1.312,80.000,339.000,1.000
-16066.198,-15045.841,-126520.220,-134256.471,-18825.679,-17380.335,-17225.268,-16525.964,-0.066,0.994,-0.004,0.122,-1.068,1.526,80.000,340.000,1.000
-15966.903,-14932.759,-127234.815,-135061.505,-18693.977,-17262.555,-17105.363,-16418.520,-0.066,0.994,-0.002,0.153,-1.099,1.495,80.000,341.000,1.000
-15867.630,-14818.533,-127943.893,-135860.693,-18561.073,-17144.095,-16984.524,-16310.260,-0.067,0.994,-0.003,0.153,-1.099,1.526,80.000,342.000,1.000
-15768.576,-14703.135,-128647.381,-136653.807,-18426.834,-17024.899,-16862.701,-16200.171,-0.066,0.996,-0.005,0.122,-1.099,1.526,80.000,343.000,1.000
-15669.542,-14586.785,-129345.427,-137440.780,-18291.576,-16905.099,-16739.986,-16087.915,-0.065,0.997,-0.002,0.061,-1.068,1.343,80.000,344.000,1.000
-15570.436,-14470.314,-130038.360,-138221.904,-18156.280,-16785.357,-16617.051,-15974.574,-0.065,0.996,-0.003,0.122,-1.068,1.404,80.000,345.000,1.000
-15471.564,-14354.991,-130726.540,-138997.698,-18022.316,-16666.665,-16495.271,-15862.375,-0.067,0.997,-0.005,0.153,-0.977,1.404,80.000,346.000,1.000
-15373.403,-14241.676,-131410.224,-139768.576,-17890.666,-16549.538,-16375.782,-15753.151,-0.067,0.996,-0.006,0.183,-1.007,1.343,80.000,347.000,1.000
-15276.045,-14130.146,-132089.437,-140534.543,-17761.256,-16433.531,-16258.401,-15646.919,-0.065,0.996,-0.005,0.061,-1.007,1.312,80.000,348.000,1.000
-15178.864,-14019.177,-132763.887,-141295.190,-17632.885,-16317.479,-16141.506,-15541.761,-0.063,0.994,-0.003,0.153,-0.946,1.343,80.000,349.000,1.000
-15080.962,-13907.309,-133433.105,-142050.034,-17503.909,-16200.118,-16022.965,-15435.015,-0.065,0.995,-0.002,0.092,-0.916,1.312,80.000,350.000,1.000
-14981.956,-13793.857,-134096.753,-142798.865,-17373.334,-16080.966,-15901.662,-15325.182,-0.066,0.995,0.002,0.061,-0.824,1.312,80.000,351.000,1.000
-14882.381,-13679.557,-134754.863,-143541.804,-17241.597,-15961.107,-15778.674,-15213.231,-0.064,0.996,-0.001,0.000,-0.763,1.312,80.000,352.000,1.000
-14783.117,-13565.954,-135407.732,-144279.051,-17110.116,-15842.580,-15656.576,-15101.755,-0.066,0.997,-0.001,-0.061,-0.824,1.312,80.000,353.000,1.000
-14684.639,-13454.048,-136055.640,-145010.682,-16979.915,-15726.636,-15537.218,-14992.631,-0.064,0.997,-0.001,-0.061,-0.824,1.343,80.000,354.000,1.000
-14587.093,-13343.893,-136698.786,-145736.803,-16851.086,-15612.996,-15420.535,-14885.916,-0.065,0.998,0.002,-0.183,-0.763,1.404,80.000,355.000,1.000
-14490.677,-13235.155,-137337.377,-146457.729,-16723.314,-15500.526,-15305.261,-14780.686,-0.065,0.997,0.000,-0.153,-0.763,1.312,80.000,356.000,1.000
-14395.599,-13127.604,-137971.542,-147173.774,-16596.429,-15388.222,-15190.255,-14676.251,-0.066,0.997,-0.001,-0.153,-0.763,1.373,80.000,357.000,1.000
-14301.554,-13020.929,-138601.137,-147884.854,-16470.301,-15275.693,-15075.106,-14572.373,-0.066,0.998,-0.001,-0.122,-0.732,1.221,80.000,358.000,1.000
-14207.542,-12914.287,-139225.763,-148590.501,-16344.413,-15162.834,-14959.747,-14468.639,-0.065,0.996,0.000,-0.183,-0.702,1.251,80.000,359.000,1.000
-14112.590,-12806.516,-139845.105,-149290.348,-16218.039,-15049.398,-14843.962,-14364.295,-0.068,0.995,-0.001,-0.244,-0.671,1.251,80.000,360.000,1.000
-14016.482,-12696.803,-140459.188,-149984.437,-16090.719,-14934.940,-14727.299,-14258.725,-0.067,0.996,0.000,-0.244,-0.732,1.404,80.000,361.000,1.000
-13919.928,-12585.315,-141068.277,-150673.062,-15962.505,-14819.260,-14609.438,-14151.921,-0.067,0.996,-0.001,-0.275,-0.763,1.312,80.000,362.000,1.000
-13824.216,-12473.511,-141672.692,-151356.514,-15834.160,-14703.125,-14491.014,-14044.703,-0.069,0.996,0.000,-0.153,-0.763,1.312,80.000,363.000,1.000
-13730.425,-12363.466,-142272.641,-152034.955,-15706.900,-14588.079,-14373.533,-13938.271,-0.068,0.997,0.001,-0.153,-0.732,1.221,80.000,364.000,1.000
-13638.617,-12256.434,-142868.097,-152708.355,-15581.658,-14475.221,-14258.120,-13833.314,-0.068,0.997,0.002,-0.244,-0.793,1.404,80.000,365.000,1.000
-13547.897,-12152.188,-143458.911,-153376.604,-15458.756,-14364.547,-14144.839,-13729.876,-0.066,0.997,0.001,-0.244,-0.763,1.404,80.000,366.000,1.000
-13457.331,-12049.685,-144045.030,-154039.661,-15338.023,-14255.334,-14033.077,-13627.909,-0.068,0.994,0.000,-0.153,-0.854,1.251,80.000,367.000,1.000
-13366.480,-11947.839,-144626.510,-154697.566,-15218.705,-14146.708,-13922.030,-13527.375,-0.066,0.996,-0.001,-0.153,-0.885,1.343,80.000,368.000,1.000
-13275.283,-11845.858,-145203.373,-155350.363,-15099.530,-14038.063,-13811.009,-13427.881,-0.066,0.994,-0.002,-0.214,-0.885,1.343,80.000,369.000,1.000
-13183.753,-11743.363,-145775.518,-155998.018,-14979.281,-13929.247,-13699.729,-13328.747,-0.067,0.993,-0.001,-0.061,-0.885,1.221,80.000,370.000,1.000
-13091.902,-11640.312,-146342.773,-156640.402,-14857.367,-13820.381,-13588.388,-13229.509,-0.067,0.991,-0.001,0.000,-0.946,1.190,80.000,371.000,1.000
-13000.021,-11536.888,-146905.050,-157277.387,-14733.976,-13711.523,-13477.220,-13130.057,-0.066,0.991,-0.002,0.031,-0.854,1.282,80.000,372.000,1.000
-12908.572,-11433.296,-147462.388,-157908.900,-14609.813,-13602.518,-13366.056,-13030.362,-0.065,0.991,-0.001,0.183,-0.885,1.373,80.000,373.000,1.000
-12817.847,-11329.802,-148014.888,-158534.950,-14485.863,-13493.367,-13254.820,-12930.529,-0.065,0.993,-0.002,0.305,-0.916,1.312,80.000,374.000,1.000
-12727.811,-11226.932,-148562.653,-159155.651,-14363.196,-13384.684,-13144.253,-12830.879,-0.064,0.995,-0.001,0.488,-0.824,1.343,80.000,375.000,1.000
-12637.985,-11125.133,-149105.741,-159771.153,-14242.392,-13277.221,-13035.203,-12731.372,-0.066,0.995,-0.001,0.519,-0.946,1.373,80.000,376.000,1.000
-12547.826,-11024.406,-149644.231,-160381.621,-14123.328,-13171.135,-12927.467,-12631.501,-0.066,0.995,0.000,0.580,-0.946,1.373,80.000,377.000,1.000
-12457.241,-10924.313,-150178.311,-160987.253,-14005.539,-13065.888,-12819.939,-12531.089,-0.068,0.991,-0.001,0.641,-0.977,1.343,80.000,378.000,1.000
-12366.504,-10824.128,-150708.139,-161588.153,-13888.322,-12960.442,-12711.312,-12430.424,-0.068,0.994,-0.002,0.580,-0.946,1.282,80.000,379.000,1.000
-12276.020,-10723.296,-151233.714,-162184.272,-13770.966,-12853.857,-12600.782,-12329.866,-0.067,0.996,-0.001,0.763,-0.885,1.251,80.000,380.000,1.000
-12186.323,-10621.941,-151754.950,-162775.513,-13653.318,-12746.068,-12488.763,-12229.950,-0.067,0.999,0.000,0.824,-0.854,1.190,80.000,381.000,1.000
-12098.061,-10520.841,-152271.685,-163361.731,-13535.750,-12637.970,-12376.877,-12131.392,-0.067,0.999,0.000,0.793,-0.854,1.160,80.000,382.000,1.000
-12011.526,-10420.768,-152783.664,-163942.706,-13418.565,-12530.730,-12266.957,-12034.588,-0.063,1.001,0.001,0.580,-0.824,1.099,80.000,383.000,1.000
-11926.224,-10321.724,-153290.690,-164518.296,-13301.657,-12424.910,-12159.810,-11939.232,-0.062,1.003,0.000,0.519,-0.824,1.160,80.000,384.000,1.000
-11841.106,-10222.965,-153792.810,-165088.573,-13184.750,-12320.302,-12054.909,-11844.564,-0.064,0.999,0.000,0.488,-0.885,1.099,80.000,385.000,1.000
-11754.981,-10123.559,-154290.287,-165653.767,-13067.622,-12216.405,-11951.040,-11749.725,-0.065,0.995,-0.002,0.488,-0.885,1.068,80.000,386.000,1.000
-11666.916,-10023.008,-154783.393,-166214.076,-12950.010,-12112.727,-11846.949,-11653.819,-0.064,0.992,-0.001,0.366,-0.885,1.099,80.000,387.000,1.000
-11576.736,-9921.646,-155272.179,-166769.536,-12831.705,-12008.825,-11741.739,-11556.259,-0.064,0.990,-0.004,0.519,-0.916,1.251,80.000,388.000,1.000
-11485.217,-9820.347,-155756.498,-167320.079,-12712.841,-11904.303,-11635.004,-11457.185,-0.065,0.991,-0.005,0.641,-0.885,1.190,80.000,389.000,1.000
-11393.765,-9719.847,-156236.265,-167865.721,-12593.978,-11798.977,-11526.936,-11357.495,-0.065,0.995,-0.007,0.702,-0.916,1.190,80.000,390.000,1.000
-11303.931,-9620.557,-156711.643,-168406.631,-12476.008,-11693.297,-11418.638,-11258.660,-0.066,0.999,-0.007,0.824,-0.793,1.190,80.000,391.000,1.000
-11216.727,-9522.509,-157182.868,-168942.950,-12359.784,-11588.096,-11311.594,-11162.025,-0.066,0.999,-0.007,0.854,-0.916,1.160,80.000,392.000,1.000
-11131.799,-9424.989,-157649.901,-169474.540,-12245.385,-11483.550,-11206.256,-11067.730,-0.066,0.998,-0.007,0.824,-0.946,1.190,80.000,393.000,1.000
-11047.729,-9327.014,-158112.432,-170001.066,-12132.028,-11379.183,-11101.748,-10974.743,-0.065,0.998,-0.006,0.824,-1.007,1.251,80.000,394.000,1.000
-10963.235,-9228.513,-158570.239,-170522.352,-12018.885,-11275.135,-10997.169,-10882.017,-0.065,0.997,-0.006,0.824,-1.038,1.312,80.000,395.000,1.000
-10877.735,-9130.408,-159023.434,-171038.548,-11905.654,-11172.557,-10892.631,-10789.270,-0.068,0.994,-0.006,0.854,-1.099,1.099,80.000,396.000,1.000
-10791.233,-9033.550,-159472.365,-171550.006,-11792.419,-11072.413,-10788.819,-10696.772,-0.070,0.995,-0.006,0.916,-1.068,1.007,80.000,397.000,1.000
-10703.907,-8937.804,-159917.334,-172057.061,-11679.254,-10974.252,-10685.912,-10604.707,-0.071,0.996,-0.006,0.824,-1.190,0.916,80.000,398.000,1.000
-10615.991,-8842.257,-160358.409,-172559.876,-11566.024,-10876.349,-10583.297,-10512.872,-0.071,0.999,-0.006,0.977,-1.312,0.671,80.000,399.000,1.000
-10527.896,-8746.057,-160795.400,-173058.310,-11452.462,-10776.857,-10479.999,-10420.713,-0.072,1.003,-0.003,0.977,-1.495,0.488,80.000,400.000,1.000
-10440.086,-8648.911,-161228.000,-173551.950,-11338.527,-10675.073,-10375.442,-10327.668,-0.072,1.005,0.001,0.732,-1.495,0.427,80.000,401.000,1.000
-10353.057,-8551.383,-161656.016,-174040.434,-11224.946,-10572.145,-10270.309,-10233.895,-0.073,1.004,-0.003,0.610,-1.495,0.183,80.000,402.000,1.000
-10267.344,-8454.810,-162079.503,-174523.774,-11113.064,-10470.480,-10166.498,-10140.520,-0.073,1.005,-0.002,0.427,-1.648,0.000,80.000,403.000,1.000
-10183.442,-8360.676,-162498.717,-175002.334,-11003.893,-10372.105,-10065.764,-10048.912,-0.071,1.004,-0.002,0.305,-1.709,-0.092,80.000,404.000,1.000
-10101.415,-8269.649,-162913.878,-175476.442,-10897.167,-10277.129,-9968.120,-9959.505,-0.070,1.002,-0.002,0.153,-1.831,-0.244,80.000,405.000,1.000
-10020.344,-8180.758,-163324.914,-175945.988,-10791.107,-10183.320,-9871.312,-9871.075,-0.072,1.001,-0.003,0.031,-1.862,-0.366,80.000,406.000,1.000
-9938.784,-8091.899,-163731.479,-176410.549,-10683.483,-10087.631,-9772.337,-9781.630,-0.072,1.000,-0.001,-0.122,-1.923,-0.397,80.000,407.000,1.000
-9856.030,-8001.456,-164133.327,-176869.951,-10573.257,-9988.635,-9670.004,-9690.295,-0.071,1.000,-0.001,-0.183,-2.045,-0.336,80.000,408.000,1.000
-9772.591,-7909.149,-164530.588,-177324.547,-10461.092,-9887.309,-9565.686,-9597.894,-0.071,1.001,-0.002,-0.244,-2.106,-0.275,80.000,409.000,1.000
-9689.375,-7815.418,-164923.578,-177774.751,-10348.314,-9785.494,-9461.522,-9505.630,-0.069,0.999,0.001,-0.397,-2.045,-0.092,80.000,410.000,1.000
-9606.938,-7720.888,-165312.512,-178220.548,-10235.903,-9684.457,-9358.884,-9413.986,-0.068,0.999,0.001,-0.366,-2.106,-0.031,80.000,411.000,1.000
-9525.805,-7626.857,-165697.558,-178661.754,-10124.749,-9585.267,-9258.714,-9323.189,-0.069,0.997,0.001,-0.427,-2.136,0.122,80.000,412.000,1.000
-9446.548,-7535.088,-166078.851,-179098.477,-10015.834,-9489.042,-9161.685,-9233.734,-0.070,0.996,0.000,-0.427,-2.106,0.214,80.000,413.000,1.000
-9369.062,-7446.452,-166456.325,-179531.055,-9909.546,-9395.920,-9067.374,-9145.864,-0.069,0.998,0.003,-0.549,-2.136,0.427,80.000,414.000,1.000
-9292.284,-7360.266,-166829.821,-179959.670,-9805.419,-9304.665,-8974.323,-9059.261,-0.068,0.995,0.001,-0.458,-2.075,0.519,80.000,415.000,1.000
-9214.735,-7274.739,-167199.314,-180384.074,-9702.516,-9213.382,-8881.003,-8973.347,-0.068,0.994,-0.001,-0.366,-2.014,0.610,80.000,416.000,1.000
-9135.430,-7187.895,-167564.882,-180803.889,-9599.813,-9120.355,-8786.332,-8887.492,-0.067,0.993,0.000,-0.244,-2.075,0.702,80.000,417.000,1.000
-9054.348,-7098.479,-167926.551,-181219.589,-9496.487,-9024.719,-8689.810,-8801.035,-0.069,0.993,-0.001,-0.366,-2.045,0.732,80.000,418.000,1.000
-8972.189,-7006.430,-168284.179,-181632.782,-9391.960,-8926.714,-8591.471,-8713.383,-0.068,0.991,-0.001,-0.244,-1.892,0.671,80.000,419.000,1.000
-8889.852,-6912.800,-168637.442,-182044.060,-9285.886,-8827.370,-8491.757,-8624.381,-0.068,0.991,0.000,-0.275,-1.953,0.854,80.000,420.000,1.000
-8808.109,-6819.167,-168986.063,-182450.936,-9178.449,-8727.950,-8391.529,-8534.632,-0.066,0.992,0.002,-0.183,-1.862,0.885,80.000,421.000,1.000
-8727.582,-6726.917,-169330.163,-182851.092,-9070.589,-8629.516,-8291.830,-8445.144,-0.066,0.990,-0.002,0.000,-1.709,0.946,80.000,422.000,1.000
-8648.667,-6636.800,-169670.436,-183252.690,-8963.540,-8532.805,-8193.540,-8356.769,-0.065,0.991,-0.003,0.092,-1.678,1.068,80.000,423.000,1.000
-8571.589,-6549.072,-170007.912,-183677.424,-8858.208,-8438.401,-8097.444,-8270.190,-0.066,0.989,-0.002,0.092,-1.617,0.977,80.000,424.000,1.000
-8496.359,-6463.679,-170343.012,-184134.604,-8754.856,-8346.501,-8004.055,-8185.818,-0.065,0.990,-0.002,0.153,-1.556,0.977,80.000,425.000,1.000
-8422.264,-6379.877,-170674.735,-184594.442,-8652.804,-8256.169,-7912.648,-8102.981,-0.064,0.991,0.000,0.183,-1.495,1.038,80.000,426.000,1.000
-8347.732,-6296.140,-171001.379,-185012.735,-8550.537,-8165.314,-7820.829,-8019.601,-0.064,0.990,-0.002,0.305,-1.404,1.068,80.000,427.000,1.000
-8271.026,-6210.871,-171322.217,-185388.599,-8446.647,-8071.936,-7725.849,-7933.355,-0.063,0.991,0.000,0.397,-1.190,1.007,80.000,428.000,1.000
-8191.446,-6123.526,-171638.192,-185779.690,-8341.000,-7975.596,-7626.795,-7843.598,-0.063,0.992,0.001,0.427,-1.160,1.038,80.000,429.000,1.000
-8110.087,-6035.298,-171950.785,-186233.267,-8235.107,-7878.071,-7525.782,-7752.358,-0.064,0.991,0.001,0.488,-1.038,1.099,80.000,430.000,1.000
-8029.142,-5948.366,-172260.443,-186713.613,-8131.156,-7782.415,-7426.722,-7663.064,-0.065,0.993,0.002,0.488,-0.824,1.129,80.000,431.000,1.000
-7950.392,-5864.131,-172566.562,-187140.467,-8030.375,-7690.652,-7332.285,-7577.823,-0.063,0.994,0.000,0.427,-0.793,1.251,80.000,432.000,1.000
-7874.337,-5782.210,-172868.769,-187498.178,-7932.293,-7602.203,-7242.085,-7496.120,-0.062,0.994,-0.004,0.458,-0.732,1.129,80.000,433.000,1.000
-7800.513,-5701.213,-173167.547,-187869.550,-7835.634,-7514.973,-7154.019,-7416.117,-0.064,0.993,-0.003,0.458,-0.671,1.129,80.000,434.000,1.000
-7728.149,-5620.091,-173463.426,-188330.553,-7739.504,-7427.625,-7066.538,-7336.453,-0.064,0.994,-0.001,0.488,-0.610,1.129,80.000,435.000,1.000
-7656.259,-5538.364,-173755.923,-188836.958,-7643.393,-7339.951,-6978.880,-7256.421,-0.066,0.995,0.000,0.458,-0.488,1.251,80.000,436.000,1.000
-7583.715,-5455.751,-174043.896,-189274.781,-7546.688,-7251.772,-6890.209,-7175.404,-0.068,0.995,0.001,0.397,-0.397,1.312,80.000,437.000,1.000
-7509.751,-5372.383,-174326.886,-189614.422,-7449.024,-7163.061,-6800.245,-7093.308,-0.068,0.996,-0.002,0.366,-0.244,1.221,80.000,438.000,1.000
-7434.450,-5289.016,-174605.578,-189959.870,-7350.797,-7074.700,-6710.221,-7011.123,-0.069,0.995,-0.002,0.336,-0.336,1.373,80.000,439.000,1.000
-7358.359,-5206.255,-174880.823,-190413.520,-7252.712,-6987.697,-6621.711,-6930.051,-0.066,0.997,-0.004,0.336,-0.336,1.251,80.000,440.000,1.000
-7281.811,-5123.863,-175152.640,-190930.270,-7155.002,-6901.895,-6534.809,-6850.218,-0.068,0.998,-0.001,0.305,-0.366,1.434,80.000,441.000,1.000
-7205.149,-5041.474,-175420.467,-191374.256,-7057.551,-6816.234,-6448.244,-6770.817,-0.070,0.999,0.001,0.275,-0.336,1.343,80.000,442.000,1.000
-7129.025,-4959.249,-175684.095,-191703.483,-6960.376,-6729.798,-6360.755,-6691.066,-0.072,1.000,-0.001,0.183,-0.275,1.312,80.000,443.000,1.000
-7054.043,-4877.458,-175943.934,-192030.529,-6863.610,-6642.259,-6271.893,-6610.571,-0.072,0.999,0.003,0.183,-0.458,1.373,80.000,444.000,1.000
-6980.439,-4796.115,-176200.540,-192472.652,-6767.358,-6553.919,-6182.137,-6529.297,-0.073,0.998,0.005,0.000,-0.519,1.160,80.000,445.000,1.000
-6908.056,-4715.225,-176454.114,-192989.380,-6671.692,-6465.682,-6092.742,-6447.649,-0.074,0.998,0.004,-0.122,-0.610,1.160,80.000,446.000,1.000
-6836.577,-4635.147,-176704.417,-193438.012,-6576.696,-6378.696,-6005.124,-6366.424,-0.072,0.998,0.001,-0.122,-0.671,1.129,80.000,447.000,1.000
-6765.510,-4556.246,-176951.024,-193767.782,-6482.257,-6293.396,-5919.708,-6286.189,-0.072,0.998,-0.002,-0.122,-0.671,1.221,80.000,448.000,1.000
-6694.061,-4478.242,-177193.542,-194085.873,-6387.813,-6208.791,-5835.183,-6206.644,-0.070,0.998,-0.001,-0.061,-0.732,1.251,80.000,449.000,1.000
-6621.453,-4400.416,-177431.809,-194510.060,-6292.665,-6123.243,-5749.335,-6126.907,-0.069,1.000,-0.002,-0.031,-0.854,1.221,80.000,450.000,1.000
-6547.420,-4322.233,-177666.048,-195009.274,-6196.511,-6036.157,-5660.952,-6046.513,-0.070,1.001,0.000,-0.031,-0.946,1.190,80.000,451.000,1.000
-6472.704,-4243.842,-177896.680,-195452.194,-6099.875,-5949.105,-5571.386,-5966.384,-0.071,1.001,0.001,-0.061,-0.946,1.282,80.000,452.000,1.000
-6398.867,-4165.934,-178123.903,-195787.206,-6004.100,-5864.949,-5483.978,-5888.498,-0.068,0.999,0.001,-0.092,-0.946,1.343,80.000,453.000,1.000
-6327.096,-4088.756,-178347.455,-196104.246,-5910.338,-5785.068,-5400.992,-5813.814,-0.067,0.996,-0.002,-0.122,-0.946,1.617,80.000,454.000,1.000
-6257.301,-4011.587,-178566.999,-196507.371,-5818.475,-5707.771,-5321.328,-5740.887,-0.063,0.992,-0.001,-0.031,-0.885,1.587,80.000,455.000,1.000
-6188.346,-3933.370,-178782.782,-196979.165,-5727.189,-5629.561,-5241.401,-5666.870,-0.064,0.990,-0.003,0.122,-0.946,1.526,80.000,456.000,1.000
-6118.846,-3853.578,-178995.456,-197416.113,-5635.003,-5547.521,-5157.770,-5589.581,-0.067,0.989,0.000,0.336,-0.885,1.587,80.000,457.000,1.000
-6047.914,-3772.590,-179205.225,-197769.366,-5541.355,-5461.042,-5069.392,-5508.901,-0.068,0.989,-0.002,0.610,-0.854,1.556,80.000,458.000,1.000
-5975.773,-3691.633,-179411.559,-198095.999,-5446.981,-5372.192,-4978.296,-5426.820,-0.069,0.994,-0.007,0.763,-0.824,1.556,80.000,459.000,1.000
-5903.656,-3612.083,-179614.000,-198473.638,-5353.329,-5284.346,-4888.182,-5346.097,-0.070,0.996,-0.001,0.916,-0.824,1.373,80.000,460.000,1.000
-5832.628,-3534.164,-179812.993,-198909.585,-5261.299,-5199.674,-4801.653,-5268.245,-0.069,0.999,-0.001,0.946,-0.946,1.282,80.000,461.000,1.000
-5762.681,-3456.611,-180009.366,-199351.693,-5170.508,-5117.669,-4718.382,-5192.565,-0.072,0.999,-0.002,0.946,-1.007,1.129,80.000,462.000,1.000
-5692.946,-3377.966,-180202.964,-199757.585,-5079.885,-5036.268,-4636.084,-5117.214,-0.071,0.999,-0.005,0.946,-1.007,1.038,80.000,463.000,1.000
-5622.560,-3298.034,-180392.403,-200127.387,-4988.722,-4954.110,-4552.862,-5040.909,-0.070,0.998,-0.001,0.977,-1.099,0.885,80.000,464.000,1.000
-5551.437,-3218.216,-180576.558,-200485.393,-4897.172,-4871.424,-4468.495,-4963.670,-0.070,0.999,-0.002,1.007,-1.038,0.824,80.000,465.000,1.000
-5480.321,-3140.585,-180755.973,-200855.005,-4806.055,-4789.205,-4384.159,-4886.516,-0.070,0.998,-0.002,0.977,-1.129,0.641,80.000,466.000,1.000
-5410.136,-3066.402,-180932.332,-201246.559,-4716.283,-4708.055,-4301.222,-4810.518,-0.070,0.999,-0.001,1.007,-1.221,0.610,80.000,467.000,1.000
-5341.194,-2995.169,-181106.628,-201647.862,-4628.153,-4627.757,-4220.114,-4735.821,-0.070,0.998,-0.001,0.977,-1.099,0.549,80.000,468.000,1.000
-5273.238,-2925.194,-181278.344,-202026.770,-4541.133,-4547.749,-4140.225,-4661.711,-0.067,1.000,-0.004,0.885,-1.129,0.519,80.000,469.000,1.000
-5206.003,-2855.029,-181446.479,-202364.224,-4454.396,-4467.842,-4060.719,-4587.686,-0.068,1.001,-0.003,0.854,-1.221,0.488,80.000,470.000,1.000
-5139.237,-2784.170,-181610.862,-202686.911,-4367.508,-4388.286,-3981.192,-4514.072,-0.068,0.999,-0.001,0.946,-1.251,0.458,80.000,471.000,1.000
-5072.557,-2712.806,-181772.053,-203043.589,-4280.502,-4309.186,-3901.494,-4441.452,-0.069,0.997,0.000,0.824,-1.129,0.580,80.000,472.000,1.000
-5005.493,-2641.198,-181930.200,-203438.950,-4193.342,-4230.162,-3821.261,-4369.690,-0.067,1.001,-0.002,0.610,-1.160,0.763,80.000,473.000,1.000
-4937.794,-2569.461,-182084.615,-203814.986,-4105.801,-4150.964,-3740.240,-4297.872,-0.068,0.997,-0.001,0.641,-1.129,0.763,80.000,474.000,1.000
-4869.766,-2497.686,-182234.617,-204122.209,-4017.920,-4072.116,-3658.977,-4225.280,-0.070,0.996,-0.003,0.641,-1.221,0.854,80.000,475.000,1.000
-4802.097,-2425.906,-182380.444,-204393.123,-3930.158,-3994.503,-3578.643,-4152.206,-0.068,0.996,-0.003,0.732,-1.221,0.824,80.000,476.000,1.000
-4735.440,-2354.247,-182523.068,-204708.354,-3843.244,-3918.676,-3500.324,-4079.919,-0.069,0.996,-0.003,0.580,-1.160,0.977,80.000,477.000,1.000
-4669.836,-2282.879,-182663.106,-205088.228,-3757.670,-3844.392,-3424.263,-4009.571,-0.070,0.997,0.000,0.580,-1.190,1.068,80.000,478.000,1.000
-4604.503,-2211.626,-182800.223,-205457.480,-3673.122,-3770.454,-3349.321,-3940.868,-0.071,0.998,0.001,0.488,-1.251,1.068,80.000,479.000,1.000
-4538.602,-2140.065,-182933.844,-205742.546,-3588.822,-3695.457,-3273.646,-3872.210,-0.070,0.997,0.000,0.488,-1.282,1.068,80.000,480.000,1.000
-4472.052,-2067.933,-183064.036,-205974.245,-3504.189,-3618.773,-3196.105,-3802.145,-0.071,0.996,-0.002,0.549,-1.282,1.068,80.000,481.000,1.000
-4405.638,-1995.390,-183191.318,-206250.141,-3419.029,-3540.783,-3117.017,-3730.438,-0.072,0.995,-0.002,0.488,-1.343,1.190,80.000,482.000,1.000
-4340.440,-1923.049,-183315.935,-206602.017,-3333.537,-3462.547,-3037.830,-3658.066,-0.071,0.994,-0.002,0.458,-1.373,1.160,80.000,483.000,1.000
-4276.972,-1851.579,-183437.615,-206950.275,-3248.208,-3385.100,-2959.990,-3586.379,-0.071,0.993,-0.003,0.488,-1.373,1.160,80.000,484.000,1.000
-4214.738,-1781.177,-183555.922,-207212.079,-3163.467,-3308.737,-2883.830,-3516.041,-0.071,0.993,-0.005,0.427,-1.465,1.190,80.000,485.000,1.000
-4152.592,-1711.496,-183670.651,-207416.301,-3079.342,-3233.127,-2808.629,-3446.662,-0.070,0.993,-0.005,0.519,-1.434,1.068,80.000,486.000,1.000
-4089.603,-1642.085,-183781.864,-207664.952,-2995.489,-3158.044,-2733.525,-3377.310,-0.069,0.994,-0.005,0.519,-1.495,1.160,80.000,487.000,1.000
-4025.400,-1572.567,-183889.627,-207992.432,-2911.413,-3083.462,-2657.955,-3307.086,-0.069,0.996,-0.003,0.549,-1.404,1.160,80.000,488.000,1.000
-3960.161,-1502.744,-183993.947,-208317.138,-2826.885,-3009.097,-2581.546,-3235.546,-0.066,0.995,0.002,0.549,-1.373,1.129,80.000,489.000,1.000
-3894.632,-1432.950,-184095.028,-208553.123,-2742.379,-2934.550,-2504.367,-3163.195,-0.066,0.996,-0.004,0.519,-1.343,1.160,80.000,490.000,1.000
-3829.653,-1363.875,-184193.235,-208727.488,-2658.791,-2859.844,-2427.236,-3091.293,-0.066,0.996,-0.005,0.549,-1.343,0.977,80.000,491.000,1.000
-3765.669,-1296.024,-184288.731,-208942.558,-2576.792,-2785.590,-2351.505,-3021.090,-0.067,0.996,-0.003,0.519,-1.282,0.977,80.000,492.000,1.000
-3702.715,-1229.426,-184381.375,-209236.760,-2496.593,-2712.571,-2278.382,-2953.346,-0.066,0.995,-0.003,0.458,-1.404,0.854,80.000,493.000,1.000
-3640.600,-1163.617,-184470.933,-209535.120,-2417.914,-2641.082,-2208.117,-2888.136,-0.067,0.996,-0.002,0.488,-1.251,0.824,80.000,494.000,1.000
-3579.118,-1097.922,-184557.260,-209754.173,-2340.072,-2570.658,-2139.661,-2824.752,-0.068,0.996,-0.003,0.580,-1.282,0.763,80.000,495.000,1.000
-3518.031,-1031.786,-184640.326,-209914.233,-2262.279,-2500.371,-2071.106,-2761.757,-0.066,0.997,-0.002,0.488,-1.221,0.854,80.000,496.000,1.000
-3457.077,-965.089,-184720.199,-210107.122,-2184.028,-2429.503,-2000.683,-2697.493,-0.068,0.998,-0.002,0.458,-1.221,0.824,80.000,497.000,1.000
-3396.052,-898.231,-184796.972,-210368.860,-2105.167,-2357.887,-1927.718,-2630.963,-0.067,0.999,-0.004,0.427,-1.190,0.824,80.000,498.000,1.000
-3334.751,-831.654,-184870.637,-210633.273,-2025.522,-2285.390,-1852.599,-2562.210,-0.067,1.000,-0.005,0.427,-1.190,0.824,80.000,499.000,1.000
-3273.030,-765.407,-184941.099,-210825.897,-1944.978,-2211.604,-1776.270,-2492.167,-0.069,0.999,-0.004,0.397,-1.190,0.793,80.000,500.000,1.000
-3211.042,-699.263,-185008.409,-210964.894,-1864.030,-2136.521,-1700.091,-2422.336,-0.070,1.000,-0.003,0.336,-1.190,0.824,80.000,501.000,1.000
-3149.378,-633.181,-185072.841,-211132.590,-1783.687,-2061.131,-1625.511,-2354.100,-0.071,1.000,-0.003,0.183,-1.129,0.732,80.000,502.000,1.000
-3088.700,-567.494,-185134.693,-211362.446,-1704.674,-1986.947,-1553.352,-2288.057,-0.072,1.000,-0.001,0.214,-1.251,0.671,80.000,503.000,1.000
-3029.220,-502.704,-185194.015,-211597.702,-1626.963,-1915.027,-1483.460,-2223.934,-0.070,0.999,-0.001,0.061,-1.160,0.793,80.000,504.000,1.000
-2970.530,-439.116,-185250.512,-211772.689,-1550.001,-1845.471,-1414.942,-2160.864,-0.070,0.999,-0.002,-0.061,-1.312,0.671,80.000,505.000,1.000
-2911.666,-376.368,-185303.649,-211900.009,-1472.947,-1777.296,-1346.394,-2097.539,-0.072,1.000,0.000,-0.122,-1.221,0.732,80.000,506.000,1.000
-2851.638,-313.556,-185352.974,-212047.566,-1394.950,-1708.774,-1276.367,-2032.737,-0.073,0.999,-0.002,-0.214,-1.221,0.641,80.000,507.000,1.000
-2790.222,-250.170,-185398.522,-212244.152,-1315.873,-1638.789,-1204.633,-1966.444,-0.073,0.999,0.001,-0.244,-1.343,0.793,80.000,508.000,1.000
-2728.223,-186.774,-185440.881,-212444.324,-1236.766,-1568.062,-1132.779,-1900.128,-0.072,0.999,0.000,-0.244,-1.373,0.763,80.000,509.000,1.000
-2666.798,-124.415,-185480.699,-212594.764,-1159.160,-1498.460,-1062.776,-1835.319,-0.072,0.999,-0.003,-0.305,-1.373,0.793,80.000,510.000,1.000
-2606.577,-63.554,-185518.166,-212705.703,-1083.746,-1431.143,-995.096,-1772.152,-0.073,0.997,0.001,-0.397,-1.343,0.793,80.000,511.000,1.000
-2547.805,-4.108,-185553.037,-212832.811,-1010.147,-1365.981,-928.831,-1709.931,-0.073,0.996,-0.001,-0.336,-1.373,0.824,80.000,512.000,1.000
-2490.713,54.018,-185585.006,-213000.725,-937.566,-1302.189,-863.151,-1648.495,-0.071,0.994,0.000,-0.458,-1.404,0.793,80.000,513.000,1.000
-2435.111,111.187,-185613.951,-213173.519,-865.156,-1238.768,-797.775,-1588.088,-0.072,0.994,-0.003,-0.458,-1.465,0.763,80.000,514.000,1.000
-2380.091,168.258,-185639.977,-213307.257,-792.345,-1174.864,-732.569,-1528.565,-0.073,0.993,-0.003,-0.336,-1.495,0.916,80.000,515.000,1.000
-2324.526,226.121,-185663.217,-213407.939,-719.022,-1110.080,-667.249,-1469.310,-0.070,0.994,0.000,-0.275,-1.495,1.007,80.000,516.000,1.000
-2267.909,285.059,-185683.605,-213518.383,-645.303,-1044.441,-601.335,-1409.521,-0.069,0.996,-0.002,-0.153,-1.465,0.916,80.000,517.000,1.000
-2210.469,344.774,-185701.028,-213658.325,-571.338,-978.258,-534.361,-1348.469,-0.070,0.995,-0.001,-0.153,-1.373,1.068,80.000,518.000,1.000
-2152.735,404.851,-185715.590,-213800.904,-497.330,-911.931,-466.063,-1285.736,-0.070,0.994,-0.002,-0.092,-1.465,1.068,80.000,519.000,1.000
-2095.349,464.846,-185727.516,-213912.666,-423.587,-845.756,-396.664,-1221.688,-0.069,0.993,-0.001,-0.092,-1.404,1.068,80.000,520.000,1.000
-2038.868,524.323,-185736.828,-213997.659,-350.428,-779.981,-327.172,-1157.666,-0.068,0.995,0.002,-0.031,-1.404,1.190,80.000,521.000,1.000
-1983.404,583.153,-185743.239,-214087.944,-277.976,-714.767,-258.831,-1095.113,-0.069,0.995,0.002,0.061,-1.373,1.221,80.000,522.000,1.000
-1928.471,641.862,-185746.445,-214198.893,-206.000,-649.833,-191.955,-1034.296,-0.069,0.994,0.001,0.061,-1.343,1.282,80.000,523.000,1.000
-1873.321,701.432,-185746.477,-214311.400,-134.072,-584.452,-125.710,-974.264,-0.069,0.996,0.000,0.122,-1.343,1.373,80.000,524.000,1.000
-1817.610,762.285,-185743.664,-214401.242,-61.975,-518.300,-59.366,-914.121,-0.070,0.996,0.000,0.183,-1.373,1.312,80.000,525.000,1.000
-1761.609,823.693,-185738.296,-214471.276,10.207,-452.014,6.837,-853.758,-0.069,0.994,0.000,0.153,-1.190,1.404,80.000,526.000,1.000
-1705.808,884.493,-185730.417,-214544.334,82.387,-386.479,72.500,-793.176,-0.069,0.995,-0.001,0.214,-1.007,1.526,80.000,527.000,1.000
-1650.385,944.175,-185719.979,-214631.201,154.615,-321.840,137.958,-731.957,-0.067,0.995,0.000,0.153,-0.946,1.617,80.000,528.000,1.000
-1595.173,1003.005,-185707.043,-214718.302,226.845,-257.549,203.789,-669.855,-0.066,0.995,0.002,0.214,-0.946,1.831,80.000,529.000,1.000
-1540.147,1061.219,-185691.699,-214788.211,298.630,-193.281,269.745,-607.602,-0.069,0.996,0.002,0.153,-0.946,1.801,80.000,530.000,1.000
-1485.576,1118.555,-185673.830,-214841.796,369.241,-129.431,334.602,-546.717,-0.067,0.995,0.004,0.214,-0.793,1.770,80.000,531.000,1.000
-1431.635,1174.751,-185653.132,-214894.092,438.256,-66.591,397.307,-488.335,-0.065,0.995,0.002,0.214,-0.732,1.709,80.000,532.000,1.000
-1378.063,1230.197,-185629.449,-214953.474,505.845,-4.864,458.093,-432.272,-0.065,0.997,0.000,0.122,-0.702,1.678,80.000,533.000,1.000
-1324.373,1285.726,-185602.933,-215012.883,572.509,56.209,518.320,-377.247,-0.065,1.000,-0.002,0.122,-0.580,1.770,80.000,534.000,1.000
-1270.198,1341.892,-185573.779,-215061.709,638.821,117.293,579.357,-321.852,-0.066,0.997,0.000,0.092,-0.488,1.709,80.000,535.000,1.000
-1215.363,1398.595,-185541.988,-215099.390,705.228,178.704,641.507,-265.453,-0.066,0.998,0.002,0.122,-0.549,1.678,80.000,536.000,1.000
-1160.098,1455.165,-185507.500,-215134.177,771.711,239.931,703.827,-208.526,-0.065,0.999,0.001,0.153,-0.519,1.709,80.000,537.000,1.000
-1105.012,1510.964,-185470.364,-215171.660,837.922,300.079,765.104,-152.062,-0.065,1.000,0.000,0.092,-0.336,1.678,80.000,538.000,1.000
-1050.596,1566.003,-185430.571,-215208.922,903.874,359.013,825.039,-96.498,-0.066,0.998,-0.001,0.061,-0.275,1.617,80.000,539.000,1.000
-996.851,1620.793,-185387.864,-215240.047,970.129,417.669,884.360,-41.409,-0.066,0.998,0.001,0.061,-0.214,1.617,80.000,540.000,1.000
-943.421,1675.785,-185341.929,-215263.147,1037.167,477.300,944.088,13.947,-0.066,0.998,0.004,0.092,-0.305,1.526,80.000,541.000,1.000
-890.037,1730.936,-185292.819,-215280.886,1104.714,538.568,1004.782,70.034,-0.065,0.997,0.001,0.061,-0.244,1.556,80.000,542.000,1.000
-836.687,1785.709,-185241.106,-215296.456,1171.792,601.013,1066.061,126.804,-0.066,0.998,0.001,0.031,-0.305,1.556,80.000,543.000,1.000
-783.526,1839.605,-185187.498,-215310.594,1237.601,663.366,1126.822,183.855,-0.066,0.996,0.000,0.000,-0.275,1.617,80.000,544.000,1.000
-730.809,1892.790,-185132.201,-215321.896,1302.361,724.562,1186.142,240.691,-0.066,0.997,0.000,-0.031,-0.214,1.556,80.000,545.000,1.000
-678.638,1946.302,-185074.752,-215328.316,1367.148,784.588,1244.063,296.882,-0.065,0.996,0.001,0.031,-0.214,1.526,80.000,546.000,1.000
-626.811,2001.392,-185014.543,-215328.799,1432.873,844.351,1301.578,352.228,-0.065,0.996,0.004,0.031,-0.153,1.495,80.000,547.000,1.000
-574.911,2058.497,-184951.389,-215324.310,1499.626,904.784,1359.913,406.958,-0.065,0.997,0.001,-0.061,-0.214,1.465,80.000,548.000,1.000
-522.579,2116.856,-184885.527,-215317.026,1566.996,966.183,1419.904,461.801,-0.066,0.996,0.000,-0.031,-0.153,1.373,80.000,549.000,1.000
-469.912,2174.735,-184817.240,-215308.200,1634.371,1027.925,1481.506,517.428,-0.069,0.996,-0.001,0.092,-0.183,1.312,80.000,550.000,1.000
-417.542,2230.064,-184746.700,-215296.658,1700.719,1088.486,1543.355,573.471,-0.068,0.997,0.001,0.000,-0.183,1.282,80.000,551.000,1.000
-366.220,2281.524,-184674.046,-215280.229,1764.845,1146.326,1603.407,628.618,-0.068,0.997,0.001,0.061,-0.214,1.251,80.000,552.000,1.000
-316.201,2329.466,-184599.522,-215258.508,1826.365,1201.199,1660.438,681.769,-0.067,0.996,0.004,0.061,-0.275,1.221,80.000,553.000,1.000
-267.059,2375.716,-184523.520,-215232.900,1886.143,1254.437,1714.791,732.817,-0.070,0.995,0.002,0.000,-0.275,1.251,80.000,554.000,1.000
-217.908,2422.658,-184445.956,-215203.469,1945.888,1308.216,1768.227,782.844,-0.069,0.995,0.001,0.000,-0.366,1.312,80.000,555.000,1.000
-167.764,2472.349,-184365.633,-215167.009,2007.485,1364.646,1823.249,833.803,-0.071,0.994,0.001,0.153,-0.366,1.221,80.000,556.000,1.000
-116.319,2525.349,-184281.053,-215120.524,2071.904,1424.546,1881.515,887.108,-0.071,0.997,0.004,0.153,-0.549,1.190,80.000,557.000,1.000
-64.356,2580.183,-184191.810,-215065.088,2138.325,1486.628,1942.346,942.281,-0.072,0.995,0.003,0.153,-0.519,1.099,80.000,558.000,1.000
-13.303,2634.197,-184098.831,-215003.431,2204.516,1548.121,2003.149,997.356,-0.071,0.996,0.004,0.183,-0.610,1.007,80.000,559.000,1.000
35.631,2685.062,-184003.659,-214935.947,2268.145,1606.433,2061.368,1050.539,-0.070,0.996,0.002,0.275,-0.763,1.007,80.000,560.000,1.000
82.218,2731.993,-183907.574,-214861.964,2328.067,1660.615,2116.028,1101.360,-0.070,0.994,0.001,0.183,-0.824,0.977,80.000,561.000,1.000
127.083,2775.743,-183810.987,-214784.081,2384.699,1711.462,2167.611,1150.287,-0.070,0.994,0.004,0.305,-0.885,1.068,80.000,562.000,1.000
171.132,2817.823,-183713.372,-214708.199,2439.533,1760.584,2217.186,1197.871,-0.070,0.993,-0.001,0.366,-0.916,1.007,80.000,563.000,1.000
215.304,2859.960,-183613.699,-214637.504,2494.401,1809.684,2266.116,1244.765,-0.071,0.993,0.001,0.397,-0.946,0.946,80.000,564.000,1.000
260.320,2903.472,-183511.095,-214568.042,2550.588,1860.030,2315.825,1291.845,-0.071,0.994,0.005,0.519,-1.068,1.099,80.000,565.000,1.000
306.587,2948.856,-183405.282,-214492.184,2608.479,1912.188,2367.313,1339.964,-0.070,0.993,0.003,0.671,-1.068,1.038,80.000,566.000,1.000
354.221,2996.049,-183296.463,-214406.252,2667.975,1966.250,2421.018,1389.806,-0.069,0.994,0.000,0.763,-1.129,0.946,80.000,567.000,1.000
402.839,3044.762,-183184.951,-214313.762,2728.743,2021.954,2476.704,1441.548,-0.070,0.993,0.002,0.916,-1.068,0.977,80.000,568.000,1.000
451.507,3094.626,-183070.976,-214220.722,2790.164,2078.679,2533.410,1494.587,-0.070,0.993,-0.002,0.916,-1.282,1.160,80.000,569.000,1.000
499.389,3145.468,-182954.747,-214128.522,2851.535,2135.783,2590.049,1548.036,-0.069,0.995,-0.002,0.946,-1.312,1.099,80.000,570.000,1.000
546.535,3197.588,-182836.539,-214032.827,2912.517,2193.106,2646.334,1601.569,-0.067,0.995,-0.002,1.007,-1.404,1.282,80.000,571.000,1.000
593.852,3251.486,-182716.480,-213929.300,2973.323,2251.111,2703.028,1655.583,-0.070,0.997,-0.002,1.007,-1.343,1.373,80.000,572.000,1.000
642.263,3306.991,-182594.320,-213818.938,3034.073,2310.098,2760.682,1710.040,-0.071,0.996,0.001,1.068,-1.312,1.282,80.000,573.000,1.000
691.704,3362.482,-182469.698,-213706.858,3093.874,2368.943,2818.020,1763.303,-0.071,0.994,0.001,1.038,-1.465,1.160,80.000,574.000,1.000
741.071,3415.458,-182342.576,-213595.984,3151.258,2425.233,2872.416,1813.102,-0.071,0.995,0.000,1.068,-1.495,1.099,80.000,575.000,1.000
789.114,3464.248,-182213.214,-213483.606,3205.772,2477.011,2922.078,1858.698,-0.070,0.997,0.001,1.129,-1.587,1.038,80.000,576.000,1.000
834.956,3508.785,-182081.830,-213365.662,3258.402,2524.071,2967.328,1901.416,-0.068,0.999,0.001,1.129,-1.648,1.099,80.000,577.000,1.000
878.470,3550.194,-181948.432,-213242.420,3310.694,2568.048,3010.429,1943.655,-0.066,1.002,0.000,1.160,-1.709,1.007,80.000,578.000,1.000
920.578,3590.172,-181812.837,-213117.840,3363.923,2611.717,3054.505,1987.733,-0.063,1.002,-0.003,1.038,-1.678,1.068,80.000,579.000,1.000
962.687,3630.279,-181674.877,-212993.957,3418.530,2657.467,3101.770,2034.695,-0.063,1.001,0.000,0.854,-1.556,1.129,80.000,580.000,1.000
1005.931,3671.442,-181534.602,-212867.271,3474.218,2706.047,3152.397,2083.946,-0.063,1.000,-0.005,0.763,-1.587,1.190,80.000,581.000,1.000
1050.922,3713.878,-181392.109,-212732.141,3530.703,2756.797,3205.105,2134.243,-0.064,0.994,-0.001,0.641,-1.465,1.190,80.000,582.000,1.000
1097.750,3757.258,-181247.266,-212587.557,3587.936,2808.472,3258.328,2184.594,-0.064,0.992,-0.003,0.610,-1.373,1.190,80.000,583.000,1.000
1145.786,3800.874,-181099.860,-212439.081,3645.417,2859.546,3310.625,2234.122,-0.062,0.989,-0.005,0.702,-1.404,1.251,80.000,584.000,1.000
1193.593,3843.866,-180950.047,-212293.098,3701.775,2908.459,3360.704,2281.761,-0.064,0.991,-0.005,0.824,-1.373,1.129,80.000,585.000,1.000
1239.697,3885.915,-180798.406,-212149.737,3755.727,2954.610,3408.038,2326.888,-0.064,0.996,-0.005,1.007,-1.373,1.160,80.000,586.000,1.000
1283.616,3927.813,-180645.347,-212003.686,3807.486,2999.273,3453.670,2370.230,-0.063,1.000,-0.005,1.068,-1.282,1.129,80.000,587.000,1.000
1326.189,3971.115,-180490.641,-211851.388,3858.809,3045.099,3499.940,2413.746,-0.063,1.001,-0.005,0.977,-1.282,1.190,80.000,588.000,1.000
1368.782,4016.873,-180333.712,-211695.324,3911.454,3094.212,3548.959,2459.347,-0.062,0.998,-0.003,0.916,-1.312,1.282,80.000,589.000,1.000
1411.981,4064.382,-180174.271,-211540.229,3965.626,3146.364,3600.933,2507.348,-0.064,0.998,-0.004,0.763,-1.190,1.251,80.000,590.000,1.000
1455.377,4111.589,-180012.550,-211385.815,4020.061,3199.148,3653.952,2556.228,-0.065,0.995,-0.004,0.763,-1.190,1.160,80.000,591.000,1.000
1498.614,4156.920,-179848.908,-211226.295,4073.575,3250.212,3705.731,2604.260,-0.065,0.994,-0.007,0.763,-1.190,1.038,80.000,592.000,1.000
1542.108,4200.457,-179683.352,-211057.431,4126.245,3299.076,3755.512,2651.189,-0.067,0.995,-0.004,0.793,-1.038,0.854,80.000,593.000,1.000
1586.492,4243.421,-179515.516,-210881.895,4179.123,3346.962,3804.302,2698.070,-0.070,0.997,-0.005,0.824,-1.038,0.549,80.000,594.000,1.000
1631.650,4286.907,-179345.107,-210706.066,4232.997,3395.329,3853.492,2745.746,-0.070,1.001,0.000,0.793,-1.099,0.427,80.000,595.000,1.000
1676.716,4331.257,-179172.315,-210531.644,4287.543,3444.617,3903.494,2793.905,-0.071,1.003,-0.002,0.610,-1.099,0.336,80.000,596.000,1.000
1720.677,4376.026,-178997.708,-210353.968,4341.442,3493.917,3953.507,2841.387,-0.071,1.003,-0.004,0.458,-1.160,0.092,80.000,597.000,1.000
1762.911,4420.207,-178821.765,-210169.376,4393.195,3541.616,4002.107,2886.982,-0.073,1.005,-0.002,0.244,-1.282,-0.214,80.000,598.000,1.000
1803.495,4462.750,-178644.528,-209981.060,4442.237,3586.658,4048.228,2930.169,-0.073,1.006,-0.003,0.031,-1.282,-0.305,80.000,599.000,1.000
1843.149,4503.177,-178465.593,-209795.288,4489.527,3629.417,4092.008,2971.498,-0.071,1.005,-0.001,-0.183,-1.343,-0.305,80.000,600.000,1.000
1882.864,4541.861,-178284.438,-209612.288,4536.946,3671.522,4134.812,3012.324,-0.070,1.003,-0.001,-0.214,-1.404,-0.336,80.000,601.000,1.000
1923.200,4579.631,-178100.789,-209424.945,4586.011,3714.774,4178.311,3053.986,-0.072,1.001,0.002,-0.427,-1.404,-0.214,80.000,602.000,1.000
1964.011,4617.296,-177914.690,-209227.555,4637.138,3760.005,4223.342,3097.020,-0.072,1.000,-0.001,-0.458,-1.465,-0.305,80.000,603.000,1.000
2004.946,4655.539,-177726.323,-209023.032,4689.808,3806.832,4269.568,3141.132,-0.072,0.998,-0.002,-0.580,-1.465,-0.397,80.000,604.000,1.000
2045.889,4694.739,-177535.912,-208819.348,4743.043,3854.282,4316.079,3185.813,-0.074,0.998,0.002,-0.610,-1.465,-0.397,80.000,605.000,1.000
2086.994,4734.676,-177343.731,-208618.839,4795.835,3901.553,4362.301,3230.844,-0.073,0.998,0.002,-0.641,-1.465,-0.183,80.000,606.000,1.000
2128.394,4774.560,-177150.035,-208414.979,4847.373,3948.249,4408.368,3276.190,-0.074,0.997,0.005,-0.671,-1.465,-0.061,80.000,607.000,1.000
2169.945,4813.509,-176954.897,-208201.238,4897.129,3994.022,4454.505,3321.401,-0.073,0.997,0.001,-0.641,-1.556,0.061,80.000,608.000,1.000
2211.263,4851.283,-176758.064,-207979.967,4945.128,4038.540,4500.458,3365.513,-0.073,0.996,0.000,-0.702,-1.556,0.275,80.000,609.000,1.000
2251.939,4888.689,-176559.040,-207759.265,4992.185,4082.141,4545.909,3407.901,-0.074,0.995,0.005,-0.610,-1.556,0.519,80.000,610.000,1.000
2291.674,4927.006,-176357.542,-207540.213,5039.377,4125.792,4590.855,3448.886,-0.074,0.994,0.003,-0.549,-1.587,0.641,80.000,611.000,1.000
2330.145,4966.643,-176153.849,-207312.633,5087.029,4169.884,4635.165,3489.182,-0.074,0.991,0.003,-0.519,-1.587,0.702,80.000,612.000,1.000
2366.934,5006.550,-175948.499,-207068.172,5134.423,4213.657,4678.326,3528.985,-0.074,0.992,0.005,-0.488,-1.678,0.916,80.000,613.000,1.000
2401.942,5045.236,-175741.800,-206813.775,5180.685,4256.302,4720.210,3568.054,-0.073,0.991,0.001,-0.397,-1.740,1.099,80.000,614.000,1.000
2436.078,5082.350,-175533.619,-206566.246,5225.979,4298.268,4761.797,3606.590,-0.074,0.991,0.003,-0.336,-1.740,1.160,80.000,615.000,1.000
2471.078,5118.955,-175323.428,-206334.135,5271.400,4340.789,4804.286,3645.257,-0.074,0.991,0.002,-0.183,-1.740,1.190,80.000,616.000,1.000
2508.110,5156.246,-175110.724,-206110.375,5317.578,4384.322,4847.605,3684.220,-0.073,0.990,0.001,-0.122,-1.648,1.282,80.000,617.000,1.000
2547.094,5194.732,-174895.526,-205882.957,5364.185,4428.305,4890.591,3723.062,-0.072,0.990,-0.002,0.092,-1.740,1.251,80.000,618.000,1.000
2587.349,5234.471,-174678.366,-205648.229,5410.834,4472.292,4932.577,3761.762,-0.070,0.991,0.004,0.183,-1.587,1.221,80.000,619.000,1.000
2628.235,5275.208,-174459.737,-205411.526,5457.637,4516.472,4974.143,3801.051,-0.068,0.991,0.004,0.183,-1.526,1.282,80.000,620.000,1.000
2669.283,5316.280,-174239.619,-205177.032,5504.834,4561.094,5016.300,3841.628,-0.069,0.990,0.001,0.336,-1.434,1.343,80.000,621.000,1.000
2709.956,5356.598,-174017.678,-204941.882,5552.223,4605.811,5059.290,3883.284,-0.069,0.989,0.001,0.366,-1.373,1.343,80.000,622.000,1.000
2749.525,5395.034,-173793.836,-204700.984,5599.092,4649.801,5102.335,3924.933,-0.067,0.992,0.004,0.427,-1.282,1.343,80.000,623.000,1.000
2787.414,5431.174,-173568.370,-204453.910,5644.917,4692.630,5144.566,3965.628,-0.066,0.991,0.003,0.458,-1.251,1.404,80.000,624.000,1.000
2823.737,5465.709,-173341.468,-204204.831,5689.986,4734.860,5186.018,4005.391,-0.066,0.993,0.001,0.519,-1.160,1.465,80.000,625.000,1.000
2859.396,5499.892,-173112.925,-203956.757,5735.033,4777.506,5227.350,4044.834,-0.063,0.994,-0.001,0.580,-1.068,1.617,80.000,626.000,1.000
2895.365,5534.454,-172882.371,-203708.622,5780.210,4820.721,5268.661,4084.206,-0.063,0.995,0.000,0.610,-1.007,1.678,80.000,627.000,1.000
2932.167,5569.381,-172649.672,-203457.846,5825.029,4863.626,5309.415,4123.369,-0.065,0.996,0.001,0.671,-0.824,1.587,80.000,628.000,1.000
2969.973,5604.584,-172415.011,-203203.663,5869.310,4905.632,5349.623,4162.642,-0.064,0.996,0.003,0.519,-0.793,1.740,80.000,629.000,1.000
3008.578,5640.026,-172178.655,-202947.640,5913.381,4947.010,5389.997,4202.697,-0.065,0.997,0.001,0.549,-0.702,1.678,80.000,630.000,1.000
3047.147,5675.160,-171940.787,-202691.615,5957.266,4987.909,5430.593,4243.196,-0.063,0.996,0.000,0.580,-0.488,1.740,80.000,631.000,1.000
3084.289,5708.768,-171701.564,-202435.999,6000.229,5027.658,5470.190,4282.273,-0.064,0.997,0.000,0.580,-0.366,1.617,80.000,632.000,1.000
3119.106,5739.968,-171461.119,-202179.591,6041.577,5065.599,5507.517,4318.124,-0.066,0.998,0.001,0.519,-0.183,1.740,80.000,633.000,1.000
3152.238,5769.309,-171219.331,-201920.400,6081.724,5102.250,5542.843,4350.926,-0.067,0.999,0.001,0.458,-0.183,1.770,80.000,634.000,1.000
3185.437,5798.481,-170975.725,-201657.087,6122.063,5139.198,5578.095,4382.902,-0.066,0.998,0.001,0.427,-0.153,1.740,80.000,635.000,1.000
3220.141,5829.079,-170729.765,-201389.607,6163.855,5177.870,5615.438,4416.663,-0.066,0.998,0.000,0.458,-0.031,1.678,80.000,636.000,1.000
3256.300,5861.574,-170481.301,-201119.082,6207.274,5218.391,5655.519,4453.243,-0.067,1.000,-0.001,0.336,0.000,1.678,80.000,637.000,1.000
3292.521,5895.307,-170230.738,-200846.858,6251.413,5259.628,5696.978,4491.431,-0.069,1.001,-0.001,0.305,0.000,1.678,80.000,638.000,1.000
3327.295,5929.231,-169978.768,-200573.183,6295.058,5300.133,5737.487,4528.783,-0.069,1.000,0.003,0.183,0.061,1.709,80.000,639.000,1.000
3360.030,5962.551,-169725.882,-200297.393,6337.299,5338.864,5775.172,4563.140,-0.070,0.997,0.004,0.092,0.061,1.556,80.000,640.000,1.000
3391.336,5995.282,-169472.029,-200019.114,6377.934,5375.829,5809.953,4593.983,-0.069,0.996,0.004,0.000,0.092,1.465,80.000,641.000,1.000
3422.533,6028.338,-169216.651,-199738.740,6417.841,5412.501,5844.116,4623.103,-0.069,0.998,0.003,-0.061,-0.061,1.526,80.000,642.000,1.000
3454.859,6062.641,-168959.080,-199456.320,6458.555,5450.697,5880.616,4653.462,-0.069,0.997,0.005,-0.122,-0.183,1.587,80.000,643.000,1.000
3488.697,6097.865,-168699.049,-199170.546,6500.897,5490.432,5920.206,4686.836,-0.068,0.995,0.002,-0.061,-0.183,1.495,80.000,644.000,1.000
3523.087,6132.132,-168436.916,-198880.301,6543.990,5529.363,5960.630,4722.506,-0.068,0.995,0.001,-0.031,-0.153,1.373,80.000,645.000,1.000
3556.410,6163.398,-168173.399,-198586.772,6585.961,5564.897,5998.787,4758.232,-0.068,0.998,0.000,0.031,-0.061,1.404,80.000,646.000,1.000
3588.005,6191.399,-167909.025,-198292.833,6625.723,5596.901,6033.585,4792.502,-0.068,1.003,0.002,0.092,-0.153,1.495,80.000,647.000,1.000
3619.036,6218.254,-167643.726,-197999.531,6664.081,5628.337,6066.954,4825.888,-0.070,1.003,0.000,-0.092,-0.092,1.404,80.000,648.000,1.000
3651.399,6246.844,-167376.944,-197704.191,6702.979,5663.031,6102.178,4860.197,-0.069,1.001,0.001,-0.153,-0.153,1.465,80.000,649.000,1.000
3685.923,6278.507,-167108.108,-197403.314,6743.698,5702.535,6141.038,4896.468,-0.067,0.997,0.000,-0.183,-0.244,1.495,80.000,650.000,1.000
3721.881,6312.324,-166837.034,-197096.672,6785.878,5745.084,6182.390,4933.889,-0.065,0.994,0.000,-0.031,-0.244,1.648,80.000,651.000,1.000
3757.648,6346.013,-166564.019,-196788.046,6827.807,5787.072,6223.081,4970.272,-0.066,0.992,0.000,0.092,-0.275,1.617,80.000,652.000,1.000
3791.810,6377.483,-166289.639,-196481.290,6867.546,5825.506,6260.253,5003.600,-0.069,0.991,-0.001,0.366,-0.244,1.678,80.000,653.000,1.000
3824.127,6406.179,-166014.353,-196175.811,6904.305,5859.868,6293.349,5033.563,-0.073,0.991,0.002,0.427,-0.244,1.617,80.000,654.000,1.000
3855.493,6433.194,-165738.175,-195867.423,6938.989,5892.167,6324.306,5061.783,-0.075,0.993,0.001,0.610,-0.366,1.495,80.000,655.000,1.000
3887.103,6460.408,-165460.683,-195553.190,6973.473,5925.330,6356.037,5090.703,-0.075,0.995,0.001,0.702,-0.427,1.312,80.000,656.000,1.000
3919.523,6489.421,-165181.379,-195234.249,7009.318,5961.275,6390.552,5122.123,-0.076,0.996,0.001,0.763,-0.488,1.190,80.000,657.000,1.000
3952.423,6520.808,-164900.064,-194913.588,7046.912,5999.784,6427.787,5156.156,-0.075,0.996,0.000,0.763,-0.580,1.038,80.000,658.000,1.000
3985.104,6554.028,-164616.890,-194592.205,7085.554,6038.884,6465.890,5191.359,-0.075,0.998,-0.001,0.885,-0.763,0.916,80.000,659.000,1.000
4017.086,6587.833,-164332.205,-194268.951,7124.036,6076.358,6502.616,5225.780,-0.075,0.996,0.000,0.916,-0.946,0.824,80.000,660.000,1.000
4048.433,6620.926,-164046.329,-193943.196,7161.465,6111.311,6536.760,5258.136,-0.072,0.995,-0.002,0.824,-1.007,0.671,80.000,661.000,1.000
4079.588,6652.431,-163759.319,-193616.160,7197.966,6144.530,6568.751,5288.635,-0.074,0.997,-0.001,0.732,-1.068,0.549,80.000,662.000,1.000
4110.954,6682.136,-163470.924,-193288.812,7234.624,6177.391,6600.044,5318.743,-0.073,0.998,0.000,0.916,-1.282,0.519,80.000,663.000,1.000
4142.683,6710.605,-163180.852,-192959.373,7272.589,6210.677,6632.031,5349.985,-0.072,0.998,0.001,0.885,-1.282,0.397,80.000,664.000,1.000
4174.648,6738.747,-162889.104,-192624.948,7312.015,6244.264,6665.345,5382.895,-0.071,0.999,0.000,0.946,-1.373,0.427,80.000,665.000,1.000
4206.503,6766.994,-162596.048,-192285.360,7351.821,6277.455,6699.657,5416.834,-0.071,0.999,0.000,0.916,-1.343,0.519,80.000,666.000,1.000
4237.795,6794.888,-162302.123,-191944.034,7390.481,6309.507,6733.799,5450.350,-0.070,1.000,-0.001,0.824,-1.465,0.610,80.000,667.000,1.000
4268.233,6821.465,-162007.446,-191604.297,7426.916,6339.984,6766.205,5481.720,-0.072,0.998,0.000,0.916,-1.495,0.580,80.000,668.000,1.000
4297.655,6845.930,-161711.783,-191265.708,7460.731,6368.660,6795.668,5509.786,-0.072,0.997,0.000,0.916,-1.587,0.732,80.000,669.000,1.000
4325.849,6868.216,-161414.815,-190925.285,7492.158,6395.349,6822.095,5534.793,-0.073,0.997,0.003,0.793,-1.587,0.793,80.000,670.000,1.000
4353.034,6889.453,-161116.247,-190581.076,7522.339,6420.463,6846.933,5558.733,-0.070,0.997,0.002,0.885,-1.556,0.885,80.000,671.000,1.000
4380.384,6911.783,-160815.763,-190233.430,7553.371,6445.665,6872.899,5584.754,-0.070,0.997,0.001,0.854,-1.556,0.916,80.000,672.000,1.000
4409.503,6937.194,-160513.162,-189883.129,7587.204,6473.231,6902.484,5615.354,-0.070,0.997,-0.003,0.885,-1.678,0.977,80.000,673.000,1.000
4441.100,6966.105,-160208.615,-189529.633,7624.155,6504.494,6936.184,5650.494,-0.072,0.997,0.000,0.732,-1.678,1.099,80.000,674.000,1.000
4474.393,6997.145,-159902.552,-189172.124,7662.815,6539.154,6972.318,5687.632,-0.071,0.999,0.000,0.854,-1.801,1.190,80.000,675.000,1.000
4507.985,7028.445,-159595.278,-188811.417,7701.386,6575.805,7008.574,5723.742,-0.071,0.998,0.000,0.793,-1.831,1.160,80.000,676.000,1.000
4540.749,7058.703,-159286.950,-188450.272,7738.539,6612.525,7043.450,5757.203,-0.071,0.996,0.001,0.732,-1.801,1.221,80.000,677.000,1.000
4571.979,7087.238,-158977.818,-188091.074,7773.375,6647.239,7076.404,5788.085,-0.072,0.996,0.001,0.732,-1.770,1.251,80.000,678.000,1.000
4601.407,7113.882,-158668.099,-187733.096,7805.690,6678.491,7107.350,5817.360,-0.070,0.995,0.000,0.702,-1.831,1.190,80.000,679.000,1.000
4629.162,7138.864,-158357.681,-187373.464,7836.222,6706.123,7136.335,5845.937,-0.070,0.997,0.002,0.732,-1.862,1.129,80.000,680.000,1.000
4655.478,7162.494,-158046.175,-187010.751,7866.100,6731.156,7163.547,5874.150,-0.069,0.997,0.000,0.763,-1.862,1.068,80.000,681.000,1.000
4680.515,7185.193,-157733.144,-186646.420,7896.260,6755.366,7189.787,5902.220,-0.067,0.996,0.003,0.641,-1.831,1.007,80.000,682.000,1.000
4704.776,7207.986,-157418.216,-186282.209,7927.396,6780.817,7216.615,5930.927,-0.068,0.997,0.001,0.610,-1.770,1.007,80.000,683.000,1.000
4729.150,7232.025,-157101.301,-185917.593,7959.513,6808.718,7245.193,5960.978,-0.068,0.996,-0.004,0.580,-1.740,0.946,80.000,684.000,1.000
4754.324,7257.520,-156782.755,-185550.631,7991.605,6838.608,7275.296,5991.962,-0.067,0.995,-0.003,0.580,-1.648,0.824,80.000,685.000,1.000
4780.708,7283.988,-156463.084,-185179.730,8022.709,6869.229,7306.024,6022.754,-0.065,0.994,-0.003,0.671,-1.556,0.824,80.000,686.000,1.000
4808.494,7310.965,-156142.514,-184804.706,8052.993,6899.762,7336.870,6052.513,-0.065,0.996,-0.003,0.519,-1.495,0.763,80.000,687.000,1.000
4837.457,7338.005,-155820.915,-184426.520,8083.505,6930.063,7367.748,6081.042,-0.064,0.996,-0.004,0.519,-1.373,0.702,80.000,688.000,1.000
4866.906,7364.494,-155498.042,-184045.857,8115.170,6960.165,7398.519,6108.716,-0.065,0.994,-0.003,0.427,-1.282,0.732,80.000,689.000,1.000
4895.938,7389.741,-155173.791,-183662.818,8147.976,6989.679,7428.634,6136.096,-0.065,0.993,0.000,0.427,-1.160,0.763,80.000,690.000,1.000
4923.914,7413.355,-154848.255,-183277.905,8180.880,7017.741,7457.160,6163.278,-0.064,0.994,-0.002,0.458,-1.129,0.702,80.000,691.000,1.000
4950.675,7435.452,-154521.689,-182892.702,8212.438,7043.673,7483.350,6189.729,-0.068,0.995,0.000,0.549,-1.038,0.671,80.000,692.000,1.000
4976.535,7456.615,-154194.334,-182508.532,8241.891,7067.934,7507.591,6215.101,-0.068,0.996,0.000,0.580,-1.068,0.671,80.000,693.000,1.000
5002.112,7477.694,-153866.096,-182124.602,8269.875,7092.417,7531.772,6240.054,-0.069,0.999,0.000,0.427,-0.946,0.641,80.000,694.000,1.000
5027.921,7499.287,-153536.504,-181738.731,8297.859,7119.200,7558.000,6265.747,-0.069,0.999,-0.002,0.336,-0.885,0.549,80.000,695.000,1.000
5054.136,7521.438,-153205.093,-181349.488,8326.956,7148.798,7586.774,6292.713,-0.069,0.999,-0.001,0.244,-0.854,0.488,80.000,696.000,1.000
5080.690,7543.898,-152871.750,-180957.193,8357.405,7179.879,7616.822,6320.636,-0.072,0.998,0.000,0.183,-0.763,0.549,80.000,697.000,1.000
5107.545,7566.492,-152536.752,-180563.006,8388.767,7210.554,7646.469,6348.873,-0.072,0.997,0.000,0.122,-0.916,0.549,80.000,698.000,1.000
5134.727,7589.115,-152200.645,-180167.503,8420.205,7239.761,7674.717,6376.719,-0.071,0.996,0.001,0.092,-0.854,0.549,80.000,699.000,1.000
5162.109,7611.507,-151864.030,-179770.471,8450.820,7267.606,7701.383,6403.449,-0.073,0.997,0.003,0.061,-0.916,0.458,80.000,700.000,1.000
5189.529,7633.440,-151527.154,-179371.128,8480.310,7294.989,7727.014,6428.830,-0.073,0.997,0.001,-0.031,-0.977,0.458,80.000,701.000,1.000
5216.842,7654.916,-151189.689,-178968.860,8509.170,7322.798,7752.507,6453.487,-0.073,0.997,0.001,-0.061,-1.068,0.397,80.000,702.000,1.000
5243.583,7675.934,-150851.051,-178564.159,8537.899,7350.980,7778.232,6478.206,-0.073,0.997,0.000,-0.153,-1.129,0.458,80.000,703.000,1.000
5269.018,7696.516,-150510.866,-178158.240,8566.534,7378.723,7803.895,6503.266,-0.073,0.997,-0.001,-0.183,-1.068,0.580,80.000,704.000,1.000
5292.811,7717.054,-150169.025,-177751.927,8595.099,7405.566,7829.319,6528.634,-0.075,0.997,0.000,-0.122,-1.068,0.519,80.000,705.000,1.000
5315.347,7737.928,-149825.605,-177345.335,8623.635,7431.516,7854.496,6553.999,-0.074,0.996,0.003,-0.122,-1.129,0.580,80.000,706.000,1.000
5337.222,7758.728,-149480.894,-176938.530,8651.684,7456.408,7879.147,6578.617,-0.075,0.998,0.000,-0.092,-1.160,0.549,80.000,707.000,1.000
5359.084,7778.734,-149135.233,-176531.423,8678.642,7480.300,7903.238,6602.112,-0.078,0.998,0.001,-0.122,-1.251,0.610,80.000,708.000,1.000
5381.832,7798.051,-148788.749,-176123.114,8704.607,7504.074,7927.524,6625.281,-0.076,0.997,0.002,-0.092,-1.282,0.702,80.000,709.000,1.000
5406.120,7817.497,-148441.406,-175712.464,8730.195,7528.699,7952.764,6649.371,-0.074,0.997,0.004,-0.092,-1.404,0.793,80.000,710.000,1.000
5431.688,7837.681,-148093.251,-175298.955,8755.688,7554.277,7978.686,6674.675,-0.075,0.996,0.003,-0.183,-1.373,0.885,80.000,711.000,1.000
5457.398,7858.412,-147744.401,-174883.147,8780.731,7580.214,8004.136,6700.209,-0.075,0.997,-0.002,-0.305,-1.526,0.977,80.000,712.000,1.000
5481.956,7878.805,-147394.808,-174466.307,8804.785,7605.881,8028.120,6724.726,-0.076,0.999,0.000,-0.305,-1.526,1.068,80.000,713.000,1.000
5504.578,7897.782,-147044.209,-174049.393,8827.681,7630.819,8050.539,6747.867,-0.075,0.996,0.001,-0.214,-1.587,1.038,80.000,714.000,1.000
5525.268,7914.715,-146692.294,-173632.492,8849.812,7654.750,8072.143,6770.337,-0.074,0.995,0.002,-0.183,-1.587,1.068,80.000,715.000,1.000
5544.993,7930.110,-146338.879,-173214.558,8872.239,7678.002,8094.137,6793.323,-0.074,0.996,0.000,-0.122,-1.709,1.221,80.000,716.000,1.000
5565.236,7945.471,-145984.042,-172794.152,8896.241,7701.507,8117.519,6817.651,-0.073,0.996,0.001,-0.061,-1.678,1.343,80.000,717.000,1.000
5587.032,7962.246,-145628.159,-172370.653,8922.249,7725.837,8142.256,6843.033,-0.072,0.996,0.003,-0.061,-1.648,1.373,80.000,718.000,1.000
5610.417,7980.875,-145271.709,-171944.497,8949.379,7750.471,8167.147,6868.065,-0.072,0.997,0.002,-0.061,-1.648,1.404,80.000,719.000,1.000
5634.694,8000.752,-144914.902,-171516.656,8976.240,7774.439,8190.842,6891.310,-0.072,0.997,0.003,-0.031,-1.617,1.526,80.000,720.000,1.000
5659.144,8020.982,-144557.520,-171087.710,9002.009,7797.469,8212.958,6912.506,-0.069,0.996,0.002,-0.031,-1.526,1.526,80.000,721.000,1.000
5683.197,8040.837,-144199.224,-170657.778,9026.476,7819.927,8233.872,6932.366,-0.068,0.998,0.002,-0.122,-1.495,1.709,80.000,722.000,1.000
5706.384,8059.894,-143839.836,-170226.901,9049.727,7842.145,8253.962,6951.639,-0.066,0.997,0.002,-0.092,-1.404,1.801,80.000,723.000,1.000
5728.640,8078.300,-143479.262,-169794.869,9072.396,7864.526,8273.789,6971.015,-0.067,0.994,0.002,0.000,-1.343,1.678,80.000,724.000,1.000
5750.385,8096.676,-143117.394,-169361.257,9095.541,7887.571,8294.218,6991.299,-0.067,0.995,0.003,0.031,-1.404,1.709,80.000,725.000,1.000
5772.206,8115.556,-142754.210,-168925.650,9119.806,7911.279,8315.589,7012.945,-0.065,0.996,0.005,0.061,-1.251,1.801,80.000,726.000,1.000
5794.542,8135.009,-142389.868,-168488.051,9144.911,7935.060,8337.300,7035.620,-0.066,0.996,0.004,0.092,-1.190,1.831,80.000,727.000,1.000
5817.759,8154.980,-142024.563,-168048.733,9170.159,7958.584,8358.692,7058.528,-0.068,0.996,0.002,-0.031,-1.038,1.770,80.000,728.000,1.000
5842.001,8175.500,-141658.349,-167607.739,9195.088,7982.094,8379.699,7080.945,-0.066,0.995,0.001,-0.031,-0.977,1.617,80.000,729.000,1.000
5866.674,8196.236,-141291.261,-167165.287,9219.364,8005.612,8400.294,7102.324,-0.065,0.996,0.003,0.031,-0.946,1.709,80.000,730.000,1.000
5890.872,8216.669,-140923.371,-166721.661,9242.886,8028.786,8420.457,7122.666,-0.066,0.996,0.002,0.000,-0.793,1.709,80.000,731.000,1.000
5914.163,8236.602,-140554.599,-166276.738,9266.115,8051.540,8440.833,7142.877,-0.066,0.996,0.005,-0.061,-0.702,1.709,80.000,732.000,1.000
5936.483,8255.803,-140184.753,-165830.427,9289.485,8073.809,8462.106,7163.741,-0.064,0.997,0.002,-0.122,-0.610,1.678,80.000,733.000,1.000
5957.729,8273.567,-139813.852,-165383.282,9312.546,8094.850,8483.703,7184.637,-0.065,0.997,0.001,-0.031,-0.549,1.678,80.000,734.000,1.000
5977.854,8289.207,-139442.196,-164936.243,9334.282,8113.775,8504.116,7204.096,-0.066,0.996,0.001,-0.061,-0.488,1.648,80.000,735.000,1.000
5997.283,8302.983,-139070.025,-164489.357,9354.333,8130.732,8522.486,7221.574,-0.065,0.995,0.004,-0.031,-0.519,1.678,80.000,736.000,1.000
6016.764,8316.100,-138697.248,-164041.587,9373.473,8146.954,8539.296,7238.135,-0.065,0.994,0.006,0.031,-0.427,1.556,80.000,737.000,1.000
6036.806,8329.777,-138323.559,-163591.887,9392.908,8163.855,8555.780,7255.474,-0.065,0.995,0.006,0.061,-0.366,1.678,80.000,738.000,1.000
6057.458,8344.561,-137948.705,-163139.774,9413.515,8182.656,8573.418,7274.875,-0.065,0.996,0.004,-0.061,-0.275,1.556,80.000,739.000,1.000
6078.545,8360.428,-137572.635,-162685.381,9435.558,8204.234,8593.593,7296.861,-0.066,0.997,0.007,-0.122,-0.183,1.526,80.000,740.000,1.000
6099.827,8377.022,-137195.504,-162229.167,9458.721,8228.329,8616.620,7321.004,-0.067,0.996,0.005,-0.153,-0.122,1.434,80.000,741.000,1.000
6120.609,8393.317,-136817.574,-161772.027,9482.071,8252.833,8640.799,7345.710,-0.067,0.996,0.007,-0.153,0.000,1.526,80.000,742.000,1.000
6139.748,8407.671,-136439.088,-161315.235,9504.191,8274.590,8662.962,7368.604,-0.066,0.997,0.007,-0.153,0.000,1.556,80.000,743.000,1.000
6156.486,8419.070,-136060.156,-160859.489,9523.961,8291.492,8680.556,7387.923,-0.066,0.996,0.009,-0.061,0.000,1.526,80.000,744.000,1.000
6171.070,8428.089,-135680.706,-160404.446,9541.374,8303.984,8693.461,7403.694,-0.066,0.995,0.006,-0.061,0.000,1.495,80.000,745.000,1.000
6184.680,8436.500,-135300.505,-159949.021,9557.541,8314.785,8704.060,7417.515,-0.067,0.995,0.006,-0.031,0.000,1.495,80.000,746.000,1.000
6198.736,8446.023,-134919.313,-159492.132,9573.899,8327.124,8715.662,7431.370,-0.067,0.996,0.003,-0.031,0.092,1.404,80.000,747.000,1.000
6214.326,8457.601,-134537.082,-159033.104,9591.416,8342.888,8730.612,7446.690,-0.067,0.995,-0.001,0.000,0.061,1.343,80.000,748.000,1.000
6232.112,8471.485,-134153.939,-158571.466,9610.405,8362.152,8749.454,7464.161,-0.068,0.994,0.001,0.061,-0.031,1.343,80.000,749.000,1.000
6252.215,8487.327,-133770.018,-158107.073,9630.603,8383.822,8771.137,7483.650,-0.069,0.996,0.000,0.061,-0.122,1.190,80.000,750.000,1.000
6274.028,8504.220,-133385.390,-157640.179,9651.276,8406.267,8793.570,7504.081,-0.069,0.996,0.002,0.153,-0.122,1.221,80.000,751.000,1.000
6296.046,8520.794,-133000.127,-157171.642,9671.403,8427.674,8814.488,7523.857,-0.070,0.995,0.004,0.305,-0.183,1.068,80.000,752.000,1.000
6316.378,8535.603,-132614.339,-156702.837,9690.032,8446.629,8832.458,7541.799,-0.071,0.996,0.003,0.336,-0.153,1.007,80.000,753.000,1.000
6334.029,8548.005,-132228.029,-156234.712,9706.892,8462.906,8847.609,7557.973,-0.072,0.996,0.006,0.397,-0.244,1.007,80.000,754.000,1.000
6349.537,8558.648,-131840.986,-155767.129,9722.745,8477.565,8861.558,7573.660,-0.072,0.998,0.005,0.519,-0.275,0.977,80.000,755.000,1.000
6364.420,8569.018,-131452.899,-155298.900,9738.902,8492.223,8876.451,7590.400,-0.071,0.998,0.006,0.519,-0.366,1.007,80.000,756.000,1.000
6380.276,8580.568,-131063.596,-154828.500,9756.372,8508.190,8893.727,7609.006,-0.072,0.997,0.003,0.519,-0.519,0.977,80.000,757.000,1.000
6398.253,8594.107,-130673.135,-154354.875,9775.430,8525.803,8913.233,7629.189,-0.073,0.999,0.006,0.488,-0.702,1.068,80.000,758.000,1.000
6418.563,8609.426,-130281.750,-153877.959,9795.552,8544.231,8933.255,7649.734,-0.073,0.998,0.003,0.458,-0.824,0.946,80.000,759.000,1.000
6440.181,8625.259,-129889.799,-153398.908,9815.588,8562.099,8951.686,7669.141,-0.073,0.997,0.004,0.580,-0.854,0.885,80.000,760.000,1.000
6461.516,8640.115,-129497.598,-152919.117,9834.480,8578.782,8967.659,7686.660,-0.073,0.999,0.005,0.580,-0.885,0.885,80.000,761.000,1.000
6481.498,8653.437,-129105.161,-152439.195,9852.127,8595.194,8982.318,7702.960,-0.073,0.997,0.007,0.610,-0.977,0.854,80.000,762.000,1.000
6499.934,8665.777,-128712.126,-151959.052,9869.402,8612.940,8997.777,7719.480,-0.073,0.998,0.005,0.458,-1.160,0.946,80.000,763.000,1.000
6516.976,8677.845,-128318.027,-151478.531,9887.153,8632.467,9015.097,7736.986,-0.073,0.999,0.005,0.549,-1.251,1.038,80.000,764.000,1.000
6532.689,8689.784,-127922.661,-150997.884,9905.283,8652.384,9033.528,7754.997,-0.073,0.998,0.003,0.519,-1.282,0.946,80.000,765.000,1.000
6547.198,8701.283,-127526.262,-150517.379,9922.792,8670.526,9051.242,7772.245,-0.072,0.997,0.005,0.519,-1.343,0.854,80.000,766.000,1.000
6560.756,8711.743,-127129.404,-150037.050,9938.481,8685.189,9066.119,7787.176,-0.072,0.995,0.006,0.488,-1.495,0.824,80.000,767.000,1.000
6573.921,8720.756,-126732.613,-149556.728,9951.841,8695.976,9076.771,7798.814,-0.072,0.998,0.005,0.458,-1.526,0.763,80.000,768.000,1.000
6587.672,8728.746,-126335.981,-149075.887,9963.543,8704.251,9083.859,7807.874,-0.073,0.998,0.002,0.488,-1.740,0.793,80.000,769.000,1.000
6602.888,8736.827,-125939.134,-148593.795,9975.101,8712.641,9090.192,7816.687,-0.072,0.996,0.004,0.488,-1.801,0.824,80.000,770.000,1.000
6619.851,8746.304,-125541.446,-148109.416,9988.282,8724.020,9099.416,7827.945,-0.073,0.998,0.004,0.519,-1.770,0.793,80.000,771.000,1.000
6638.152,8758.077,-125142.328,-147621.774,10004.412,8740.359,9114.207,7843.319,-0.073,0.998,0.004,0.580,-1.923,0.824,80.000,772.000,1.000
6656.980,8772.004,-124741.539,-147130.936,10023.602,8761.490,9134.559,7862.400,-0.071,0.997,0.004,0.549,-1.923,0.793,80.000,773.000,1.000
6675.440,8786.832,-124339.363,-146638.256,10044.506,8784.771,9157.356,7882.652,-0.071,0.996,0.006,0.549,-1.984,0.702,80.000,774.000,1.000
6692.707,8800.874,-123936.451,-146145.692,10064.995,8806.484,9178.207,7900.933,-0.071,0.996,0.003,0.580,-2.014,0.732,80.000,775.000,1.000
6708.406,8813.031,-123533.406,-145654.550,10083.321,8824.012,9194.177,7915.550,-0.071,0.996,0.005,0.549,-2.136,0.732,80.000,776.000,1.000
6722.786,8823.169,-123130.542,-145165.061,10098.795,8836.963,9205.108,7926.970,-0.071,0.996,0.005,0.610,-2.258,0.763,80.000,777.000,1.000
6736.449,8831.752,-122727.923,-144676.611,10111.699,8846.756,9212.996,7936.919,-0.072,0.995,0.003,0.580,-2.136,0.793,80.000,778.000,1.000
6749.960,8839.356,-122325.396,-144187.881,10122.935,8855.517,9220.393,7947.074,-0.071,0.993,0.003,0.671,-2.289,0.763,80.000,779.000,1.000
6763.515,8846.279,-121922.672,-143697.614,10133.458,8864.808,9228.825,7958.086,-0.070,0.993,0.001,0.732,-2.167,0.671,80.000,780.000,1.000
6776.997,8852.514,-121519.520,-143205.357,10143.725,8874.934,9238.217,7969.404,-0.070,0.993,0.002,0.702,-2.167,0.671,80.000,781.000,1.000
6790.372,8858.078,-121115.758,-142711.410,10153.909,8885.522,9247.970,7980.358,-0.071,0.993,0.003,0.732,-2.197,0.641,80.000,782.000,1.000
6804.121,8863.440,-120711.036,-142216.064,10164.627,8896.663,9258.382,7991.447,-0.068,0.993,0.001,0.793,-2.075,0.702,80.000,783.000,1.000
6818.994,8869.441,-120304.942,-141719.293,10176.833,8908.947,9270.475,8003.991,-0.067,0.994,0.003,0.916,-1.984,0.671,80.000,784.000,1.000
6835.044,8876.597,-119897.426,-141221.529,10190.825,8922.387,9284.442,8018.361,-0.067,0.993,0.000,0.977,-2.106,0.732,80.000,785.000,1.000
6851.384,8884.934,-119488.892,-140723.697,10205.933,8936.084,9299.014,8033.200,-0.065,0.995,0.000,0.977,-2.075,0.702,80.000,786.000,1.000
6866.977,8894.501,-119079.884,-140226.404,10221.167,8949.204,9312.630,8046.740,-0.068,0.997,0.000,0.977,-2.014,0.885,80.000,787.000,1.000
6881.427,8905.580,-118670.749,-139729.265,10235.883,8961.857,9324.791,8058.481,-0.068,0.996,0.003,1.007,-1.892,0.885,80.000,788.000,1.000
6894.940,8918.098,-118261.545,-139231.114,10249.879,8974.723,9336.045,8069.273,-0.068,0.996,0.001,0.946,-1.831,0.824,80.000,789.000,1.000
6907.765,8931.015,-117852.103,-138731.248,10262.970,8987.951,9346.911,8080.054,-0.067,0.996,0.002,0.916,-1.770,0.671,80.000,790.000,1.000
6920.129,8942.930,-117442.119,-138229.665,10274.960,9001.056,9357.456,8091.186,-0.067,0.999,0.003,0.946,-1.709,0.732,80.000,791.000,1.000
6932.461,8953.173,-117031.250,-137726.435,10286.250,9013.862,9367.947,8102.965,-0.066,1.000,0.002,0.885,-1.587,0.702,80.000,792.000,1.000
6945.238,8961.957,-116619.344,-137221.744,10297.770,9026.802,9379.005,8115.826,-0.066,1.001,0.002,0.793,-1.526,0.610,80.000,793.000,1.000
6958.588,8969.777,-116206.661,-136716.191,10310.092,9040.238,9390.866,8129.787,-0.066,1.004,0.005,0.641,-1.373,0.671,80.000,794.000,1.000
6972.110,8976.869,-115793.752,-136210.668,10322.931,9053.931,9402.991,8144.158,-0.063,1.003,0.001,0.519,-1.373,0.702,80.000,795.000,1.000
6985.230,8983.148,-115381.041,-135705.527,10335.501,9067.143,9414.439,8158.012,-0.064,1.002,0.000,0.366,-1.282,0.793,80.000,796.000,1.000
6997.597,8988.426,-114968.518,-135200.352,10347.109,9079.046,9424.502,8170.844,-0.067,1.000,0.000,0.214,-1.129,1.038,80.000,797.000,1.000
7009.112,8992.635,-114555.816,-134694.604,10357.414,9089.096,9432.985,8182.646,-0.067,0.996,0.000,0.092,-1.099,0.977,80.000,798.000,1.000
7019.805,8996.048,-114142.507,-134187.944,10366.528,9097.428,9440.310,8193.717,-0.068,0.991,0.000,-0.061,-0.977,1.068,80.000,799.000,1.000
7029.987,8999.413,-113728.313,-133680.077,10375.252,9105.082,9447.638,8204.864,-0.069,0.992,-0.003,0.061,-0.946,1.038,80.000,800.000,1.000
7040.470,9003.761,-113313.130,-133170.475,10384.942,9113.531,9456.348,8217.189,-0.069,0.995,-0.002,0.305,-0.977,0.977,80.000,801.000,1.000
7052.002,9009.735,-112897.036,-132658.917,10396.428,9123.643,9466.781,8230.782,-0.067,0.997,-0.001,0.336,-0.946,1.007,80.000,802.000,1.000
7064.561,9017.216,-112480.314,-132146.049,10409.091,9135.252,9477.760,8243.998,-0.068,0.999,0.000,0.488,-0.916,1.129,80.000,803.000,1.000
7077.520,9025.688,-112063.283,-131632.833,10421.510,9147.793,9487.795,8254.925,-0.069,1.000,-0.002,0.397,-0.793,1.099,80.000,804.000,1.000
7090.286,9034.604,-111646.008,-131119.905,10432.841,9160.879,9496.462,8263.367,-0.069,1.000,-0.004,0.275,-0.824,1.068,80.000,805.000,1.000
7102.724,9043.428,-111228.317,-130607.304,10443.230,9174.154,9504.429,8270.983,-0.069,0.998,-0.006,0.275,-0.824,1.068,80.000,806.000,1.000
7114.903,9051.535,-110810.138,-130094.782,10453.138,9187.023,9512.603,8279.778,-0.070,0.996,-0.002,0.366,-0.763,1.007,80.000,807.000,1.000
7126.584,9058.266,-110391.640,-129582.118,10462.708,9198.833,9521.446,8290.669,-0.072,0.996,-0.002,0.427,-0.641,0.916,80.000,808.000,1.000
7137.238,9063.270,-109973.017,-129068.994,10471.785,9209.361,9530.858,8303.163,-0.073,0.996,0.001,0.458,-0.854,0.885,80.000,809.000,1.000
7146.510,9066.709,-109554.282,-128555.144,10480.198,9218.995,9540.365,8315.966,-0.074,0.999,0.001,0.458,-0.885,0.763,80.000,810.000,1.000
7154.674,9069.341,-109135.293,-128040.342,10488.009,9228.430,9549.434,8327.941,-0.075,1.000,-0.002,0.397,-0.916,0.580,80.000,811.000,1.000
7162.599,9072.354,-108715.946,-127524.482,10495.452,9238.144,9557.719,8338.691,-0.076,1.002,0.000,0.275,-0.946,0.458,80.000,812.000,1.000
7171.251,9076.835,-108296.237,-127007.737,10502.743,9248.163,9565.213,8348.459,-0.076,1.005,0.003,0.061,-1.038,0.336,80.000,813.000,1.000
7181.378,9083.401,-107876.054,-126490.204,10510.323,9258.640,9572.626,8358.010,-0.076,1.006,0.003,-0.031,-1.160,0.214,80.000,814.000,1.000
7193.409,9092.028,-107455.130,-125971.846,10518.958,9270.193,9581.234,8368.367,-0.076,1.005,0.005,-0.244,-1.160,0.122,80.000,815.000,1.000
7207.080,9101.720,-107033.350,-125452.817,10528.968,9282.851,9591.459,8379.824,-0.076,1.003,0.005,-0.488,-1.221,0.092,80.000,816.000,1.000
7221.147,9110.526,-106610.911,-124933.836,10539.676,9295.164,9602.067,8391.336,-0.074,1.003,0.000,-0.549,-1.312,0.031,80.000,817.000,1.000
7234.046,9116.681,-106188.102,-124415.794,10550.043,9305.216,9611.416,8401.341,-0.074,1.000,0.001,-0.732,-1.312,0.092,80.000,818.000,1.000
7244.888,9119.843,-105765.128,-123898.816,10559.528,9312.321,9619.025,8409.084,-0.074,1.000,0.004,-0.793,-1.373,0.153,80.000,819.000,1.000
7253.681,9120.925,-105342.116,-123382.384,10568.122,9317.371,9625.607,8415.098,-0.075,0.999,0.005,-0.946,-1.343,0.214,80.000,820.000,1.000
7261.075,9121.022,-104919.101,-122865.966,10575.989,9321.835,9631.937,8420.578,-0.074,0.998,0.003,-0.854,-1.465,0.336,80.000,821.000,1.000
7267.883,9120.698,-104495.985,-122349.320,10583.234,9326.587,9637.957,8426.353,-0.075,0.998,0.004,-0.854,-1.526,0.519,80.000,822.000,1.000
7274.704,9120.144,-104072.661,-121832.359,10589.799,9331.545,9642.992,8432.397,-0.075,0.996,0.005,-0.824,-1.556,0.610,80.000,823.000,1.000
7281.826,9119.552,-103649.162,-121314.963,10595.497,9336.144,9646.670,8438.158,-0.075,0.994,0.006,-0.824,-1.495,0.824,80.000,824.000,1.000
7289.325,9119.218,-103225.509,-120797.160,10600.271,9340.156,9649.465,8443.120,-0.074,0.992,0.007,-0.671,-1.526,0.916,80.000,825.000,1.000
7297.363,9119.753,-102801.487,-120278.934,10604.501,9344.162,9652.431,8447.249,-0.074,0.991,0.006,-0.580,-1.556,1.038,80.000,826.000,1.000
7306.070,9121.979,-102376.829,-119760.141,10608.865,9349.125,9656.555,8451.142,-0.074,0.992,0.004,-0.488,-1.587,1.129,80.000,827.000,1.000
7315.329,9126.421,-101951.474,-119240.622,10614.000,9355.590,9662.301,8455.752,-0.073,0.992,0.005,-0.397,-1.587,1.282,80.000,828.000,1.000
7325.044,9133.074,-101525.482,-118720.114,10620.399,9363.479,9669.571,8461.914,-0.071,0.992,0.008,-0.305,-1.556,1.282,80.000,829.000,1.000
7335.267,9141.484,-101098.934,-118198.556,10628.162,9372.349,9677.860,8469.846,-0.073,0.991,0.006,-0.153,-1.587,1.404,80.000,830.000,1.000
