EEG 1,EEG 2,EEG 3,EEG 4,EEG 5,EEG 6,EEG 7,EEG 8,Accelerometer X,Accelerometer Y,Accelerometer Z,Gyroscope X,Gyroscope Y,Gyroscope Z,Battery Level,Counter,Validation Indicator
5076.714,1217.790,-781.510,-8518.695,17233.776,4767.147,-2819.907,630.386,-0.404,0.854,-0.167,0.000,0.000,0.000,73.333,1.000,1.000
34976.575,7072.686,-11307.229,-60580.503,45195.800,35934.588,-15826.713,6222.784,-0.417,0.867,-0.180,0.000,0.000,0.000,73.333,2.000,1.000
113298.113,19601.915,-42828.338,-202873.062,121499.213,121170.796,-51801.442,21530.765,-0.422,0.870,-0.184,0.000,0.000,0.000,73.333,3.000,1.000
237889.641,40956.438,-99989.188,-436596.975,249737.587,263178.448,-111847.617,52939.944,-0.423,0.875,-0.182,0.000,0.000,0.000,73.333,4.000,1.000
376860.607,83755.585,-167178.927,-680326.021,401510.175,422285.890,-178143.763,107787.380,-0.422,0.873,-0.186,0.000,0.000,0.000,73.333,5.000,1.000
495229.940,166782.303,-211564.245,-804451.744,535283.446,537489.035,-221479.004,185010.189,-0.423,0.874,-0.187,-4.639,1.007,-0.519,73.333,6.000,1.000
572904.406,292389.576,-202360.383,-715930.816,618542.903,567572.809,-215112.866,269460.568,-0.422,0.876,-0.190,-3.418,-0.061,0.336,73.333,7.000,1.000
606143.404,437201.488,-130408.443,-424815.733,640134.602,521913.945,-147149.108,347230.349,-0.423,0.877,-0.191,-1.587,-0.824,0.824,73.333,8.000,1.000
606549.628,565904.353,-13719.718,-39363.479,613755.905,453540.833,-24656.238,418139.496,-0.422,0.875,-0.193,-0.854,-1.129,1.007,73.333,9.000,1.000
595368.100,649391.486,112595.655,298030.209,569774.354,420238.813,133247.396,485444.452,-0.421,0.873,-0.192,-0.641,-1.251,1.190,73.333,10.000,1.000
589065.208,676173.796,215582.594,488575.097,536655.751,448729.982,302702.596,546001.876,-0.418,0.871,-0.190,-0.732,-1.282,1.251,73.333,11.000,1.000
587373.237,655976.347,281477.267,523939.690,524990.524,523340.438,457871.207,593060.095,-0.417,0.871,-0.187,-0.824,-1.190,1.373,73.333,12.000,1.000
575935.596,612128.289,317898.623,472222.719,527414.236,600813.363,576736.368,617164.397,-0.417,0.869,-0.188,-0.793,-0.977,1.556,73.333,13.000,1.000
540815.808,564390.226,340697.320,416782.637,532054.940,641792.490,647804.615,605553.881,-0.418,0.868,-0.188,-0.824,-0.916,1.617,73.333,14.000,1.000
479983.363,516349.122,359422.107,399322.631,534020.435,634727.897,670674.672,550485.994,-0.419,0.868,-0.188,-0.824,-0.946,1.801,73.333,15.000,1.000
401362.890,459233.504,373563.306,410364.837,534747.603,592564.104,653199.348,459601.033,-0.421,0.869,-0.190,-0.824,-0.946,1.862,73.333,16.000,1.000
314641.292,386757.736,379093.377,423548.165,534770.249,531666.699,608643.108,354485.006,-0.422,0.869,-0.188,-0.732,-0.946,1.923,73.333,17.000,1.000
229434.054,305554.932,376210.421,429525.611,531387.648,458757.962,551914.800,258442.081,-0.424,0.869,-0.192,-0.793,-0.854,1.953,73.333,18.000,1.000
157978.298,231832.066,370170.530,435811.000,523293.186,376896.572,494455.170,185667.092,-0.420,0.870,-0.195,-0.793,-0.732,1.953,73.333,19.000,1.000
111970.545,178894.919,365828.593,445315.703,514021.898,297104.778,440698.405,139298.885,-0.420,0.868,-0.191,-0.732,-0.702,1.923,73.333,20.000,1.000
93726.278,148657.616,363467.992,448269.991,508555.631,236968.606,390512.755,115688.715,-0.419,0.869,-0.192,-0.732,-0.671,1.892,73.333,21.000,1.000
92967.249,134213.410,360622.508,436798.760,507579.545,206120.928,345515.261,108301.734,-0.419,0.870,-0.193,-0.732,-0.732,1.831,73.333,22.000,1.000
94945.342,127798.524,356514.027,418472.073,507097.855,196693.676,310597.094,108937.592,-0.419,0.870,-0.195,-0.610,-0.671,1.953,73.333,23.000,1.000
91598.445,124818.086,353080.049,408657.472,503648.120,191248.353,288183.717,109102.910,-0.418,0.872,-0.194,-0.641,-0.580,1.953,73.333,24.000,1.000
84157.625,122271.602,351894.064,412192.437,498116.269,179098.153,273559.745,103388.829,-0.420,0.874,-0.192,-0.702,-0.519,1.923,73.333,25.000,1.000
76591.870,117008.654,351726.963,418853.340,493671.215,162517.383,258531.908,92071.996,-0.421,0.875,-0.188,-0.671,-0.549,1.740,73.333,26.000,1.000
69492.038,107300.636,350062.996,417398.095,491306.974,148205.798,239326.504,79494.854,-0.422,0.876,-0.186,-0.793,-0.610,1.709,73.333,27.000,1.000
61062.705,94952.673,346292.070,408798.694,488972.157,137098.738,218994.955,69446.878,-0.423,0.876,-0.188,-0.885,-0.671,1.526,73.333,28.000,1.000
51550.680,83972.373,342294.863,402524.853,484790.311,124843.593,202019.563,62302.346,-0.424,0.876,-0.189,-1.190,-0.763,1.526,73.333,29.000,1.000
43901.873,76714.935,339900.502,403083.430,479565.410,109631.126,188619.009,56305.067,-0.424,0.875,-0.189,-1.282,-0.702,1.404,73.333,30.000,1.000
39976.846,72025.130,338723.312,405140.287,475415.548,95396.228,175573.357,50451.826,-0.423,0.874,-0.188,-1.495,-0.763,1.251,73.333,31.000,1.000
38019.313,67315.310,336998.787,401961.632,472666.154,86504.863,161247.820,45269.471,-0.421,0.873,-0.187,-1.465,-0.885,1.251,73.333,32.000,1.000
34849.056,61627.761,333969.194,394374.746,468851.408,81932.009,147610.831,41240.524,-0.422,0.873,-0.188,-1.556,-0.946,1.129,73.333,33.000,1.000
29601.027,56034.728,330654.667,388778.284,460787.368,76717.015,137068.763,37629.835,-0.422,0.872,-0.188,-1.648,-0.916,1.129,73.333,34.000,1.000
24167.245,51565.466,328307.114,388359.376,447180.437,68158.410,129018.205,33332.324,-0.422,0.871,-0.187,-1.678,-0.977,1.007,73.333,35.000,1.000
20328.436,47764.627,326811.318,389592.216,428932.637,58479.878,120723.690,28323.670,-0.421,0.871,-0.187,-1.709,-1.007,0.977,73.333,36.000,1.000
17682.082,43534.760,325013.785,387556.657,407577.580,51227.552,110880.720,23645.664,-0.420,0.871,-0.188,-1.740,-0.977,0.854,73.333,37.000,1.000
14709.522,38711.203,322281.971,382077.583,384407.382,46788.583,100954.404,20063.321,-0.418,0.871,-0.183,-1.740,-0.946,0.854,73.333,38.000,1.000
10952.277,34195.456,319201.405,377067.503,360919.657,42568.443,92899.298,17245.536,-0.418,0.871,-0.183,-1.770,-0.946,0.824,73.333,39.000,1.000
7334.928,30708.821,316699.891,375128.887,338966.493,36701.222,86655.292,14382.171,-0.418,0.870,-0.185,-1.831,-0.916,0.793,73.333,40.000,1.000
4669.101,27953.212,314897.565,374778.346,319799.953,30129.894,80560.906,11210.296,-0.418,0.867,-0.182,-1.862,-0.793,0.763,73.333,41.000,1.000
2650.673,25124.411,313090.418,373010.913,303203.186,24903.504,73651.433,8133.736,-0.418,0.867,-0.182,-1.801,-0.702,0.671,73.333,42.000,1.000
478.351,21895.309,310697.442,369055.446,287928.108,21505.423,66656.566,5525.607,-0.419,0.866,-0.181,-1.740,-0.641,0.641,73.333,43.000,1.000
-2096.740,18632.049,307910.661,364759.825,272929.901,18556.950,60731.023,3273.146,-0.418,0.866,-0.182,-1.678,-0.641,0.793,73.333,44.000,1.000
-4684.807,15800.577,305355.355,361988.548,258012.896,14715.240,55935.806,1042.014,-0.420,0.868,-0.185,-1.617,-0.580,0.824,73.333,45.000,1.000
-6917.877,13441.310,303314.381,360617.842,243483.805,10124.133,51366.115,-1276.084,-0.419,0.868,-0.185,-1.495,-0.519,0.946,73.333,46.000,1.000
-8806.741,11242.849,301456.716,359083.795,229589.384,5935.262,46398.926,-3525.568,-0.422,0.868,-0.180,-1.404,-0.488,0.885,73.333,47.000,1.000
-10529.717,8938.166,299289.581,356255.459,216385.632,2884.405,41314.635,-5556.308,-0.421,0.869,-0.180,-1.373,-0.488,0.885,73.333,48.000,1.000
-12207.194,6535.659,296730.951,352488.111,203860.088,609.247,36734.259,-7368.601,-0.419,0.868,-0.182,-1.404,-0.427,0.885,73.333,49.000,1.000
-13927.241,4248.766,294161.975,349080.157,191944.790,-1812.044,32841.497,-9039.340,-0.418,0.866,-0.179,-1.404,-0.488,0.916,73.333,50.000,1.000
-15730.028,2275.364,291959.231,346896.956,180503.774,-4877.388,29306.258,-10642.783,-0.418,0.866,-0.178,-1.465,-0.458,1.007,73.333,51.000,1.000
-17462.008,604.822,290064.453,345474.792,169479.252,-8203.439,25748.247,-12244.353,-0.418,0.866,-0.178,-1.465,-0.427,0.916,73.333,52.000,1.000
-18857.804,-999.583,288068.661,343480.437,158992.392,-10964.363,22083.089,-13857.850,-0.419,0.864,-0.181,-1.343,-0.366,0.977,73.333,53.000,1.000
-19920.030,-2776.251,285700.311,340185.230,149138.235,-12799.562,18500.025,-15382.556,-0.420,0.863,-0.180,-1.251,-0.366,1.038,73.333,54.000,1.000
-21042.571,-4680.759,283149.283,336405.106,139722.450,-14269.484,15250.524,-16685.524,-0.421,0.862,-0.180,-1.068,-0.275,0.946,73.333,55.000,1.000
-22534.878,-6395.188,280839.398,333646.934,130410.954,-16272.784,12430.006,-17797.147,-0.423,0.863,-0.180,-1.068,-0.397,0.977,73.333,56.000,1.000
-24133.070,-7705.569,278908.969,332248.206,121183.671,-18970.496,9859.889,-18931.177,-0.423,0.862,-0.183,-0.946,-0.488,1.068,73.333,57.000,1.000
-25277.980,-8810.806,277031.196,330813.441,112425.525,-21512.753,7214.023,-20221.921,-0.424,0.863,-0.181,-0.854,-0.458,1.068,73.333,58.000,1.000
-25894.365,-10113.175,274816.169,327896.892,104415.411,-23051.914,4371.755,-21511.879,-0.426,0.865,-0.181,-0.763,-0.458,0.916,73.333,59.000,1.000
-26574.263,-11695.973,272308.345,323931.613,96879.665,-23867.353,1616.319,-22533.261,-0.424,0.868,-0.179,-0.702,-0.519,1.068,73.333,60.000,1.000
-27803.597,-13180.110,269941.010,320792.545,89294.073,-25093.957,-667.463,-23285.033,-0.423,0.868,-0.182,-0.671,-0.580,1.068,73.333,61.000,1.000
-29257.841,-14209.464,267982.895,319362.141,81585.659,-27271.466,-2511.781,-24073.363,-0.423,0.869,-0.179,-0.641,-0.702,1.129,73.333,62.000,1.000
-30201.856,-14948.404,266182.783,318276.888,74251.233,-29585.358,-4400.630,-25110.501,-0.423,0.870,-0.180,-0.763,-0.702,1.099,73.333,63.000,1.000
-30508.240,-15894.326,264088.707,315663.386,67670.843,-30895.993,-6670.544,-26208.142,-0.424,0.869,-0.185,-0.702,-0.702,1.038,73.333,64.000,1.000
-30875.273,-17216.054,261640.371,311659.545,61544.828,-31271.864,-9033.160,-27018.097,-0.424,0.867,-0.184,-0.702,-0.793,1.190,73.333,65.000,1.000
-31887.101,-18510.444,259254.351,308297.604,55266.497,-31953.466,-10919.704,-27516.647,-0.422,0.866,-0.188,-0.580,-0.824,1.190,73.333,66.000,1.000
-33194.396,-19337.298,257276.919,306798.143,48746.185,-33717.327,-12253.849,-28057.541,-0.423,0.866,-0.186,-0.458,-0.885,1.251,73.333,67.000,1.000
-33976.773,-19823.948,255523.842,305895.808,42538.469,-35814.598,-13600.299,-28895.768,-0.425,0.867,-0.186,-0.366,-0.793,1.282,73.333,68.000,1.000
-34075.511,-20505.716,253523.708,303516.516,37071.575,-36956.360,-15427.145,-29830.986,-0.424,0.867,-0.184,-0.275,-0.885,1.343,73.333,69.000,1.000
-34226.006,-21603.017,251145.357,299580.793,32037.531,-37054.350,-17457.968,-30476.300,-0.424,0.869,-0.185,-0.183,-0.946,1.343,73.333,70.000,1.000
-35051.530,-22719.762,248771.038,296121.708,26798.191,-37355.678,-19026.184,-30792.841,-0.425,0.869,-0.186,-0.031,-0.916,1.373,73.333,71.000,1.000
-36205.375,-23382.875,246783.241,294534.031,21253.053,-38765.449,-19984.941,-31149.853,-0.425,0.869,-0.186,-0.061,-0.885,1.465,73.333,72.000,1.000
-36851.145,-23688.998,245055.080,293690.897,15966.367,-40626.879,-20928.377,-31820.640,-0.424,0.871,-0.183,0.061,-0.885,1.495,73.333,73.000,1.000
-36815.758,-24172.997,243126.686,291487.224,11377.798,-41619.085,-22395.674,-32608.574,-0.425,0.873,-0.180,0.092,-1.007,1.495,73.333,74.000,1.000
-36821.359,-25080.224,240823.717,287692.719,7190.454,-41549.201,-24135.815,-33120.594,-0.426,0.873,-0.181,0.031,-1.038,1.526,73.333,75.000,1.000
-37486.870,-26039.851,238483.312,284231.915,2777.659,-41601.634,-25448.563,-33308.944,-0.426,0.875,-0.184,0.061,-1.038,1.465,73.333,76.000,1.000
-38487.322,-26579.478,236476.156,282535.950,-1964.147,-42722.966,-26143.416,-33533.940,-0.423,0.874,-0.182,0.031,-1.190,1.465,73.333,77.000,1.000
-39019.243,-26767.818,234643.345,281568.360,-6493.712,-44355.226,-26802.091,-34067.421,-0.423,0.875,-0.181,-0.061,-1.221,1.587,73.333,78.000,1.000
-38906.836,-27110.359,232400.028,279168.359,-10385.101,-45222.984,-27984.455,-34725.595,-0.420,0.873,-0.182,-0.183,-1.251,1.587,73.333,79.000,1.000
-38823.095,-27856.819,229391.342,274850.456,-13909.765,-45066.998,-29470.252,-35130.546,-0.420,0.873,-0.179,-0.275,-1.312,1.709,73.333,80.000,1.000
-39350.842,-28673.485,225847.975,270286.201,-17652.279,-44963.233,-30571.737,-35228.826,-0.420,0.872,-0.178,-0.427,-1.282,1.678,73.333,81.000,1.000
-40198.310,-29112.734,222220.478,266937.196,-21713.939,-45839.046,-31076.662,-35354.772,-0.423,0.871,-0.180,-0.580,-1.312,1.587,73.333,82.000,1.000
-40628.708,-29219.867,218647.963,264164.538,-25600.908,-47239.861,-31527.542,-35766.741,-0.425,0.870,-0.181,-0.519,-1.343,1.648,73.333,83.000,1.000
-40474.663,-29454.349,214960.127,260329.204,-28922.244,-47993.569,-32471.690,-36302.991,-0.424,0.868,-0.183,-0.488,-1.434,1.526,73.333,84.000,1.000
-40340.000,-30057.990,211117.323,255223.351,-31919.250,-47808.657,-33725.146,-36618.810,-0.422,0.866,-0.182,-0.488,-1.404,1.465,73.333,85.000,1.000
-40751.897,-30742.382,207412.561,250445.424,-35117.006,-47625.351,-34646.565,-36660.256,-0.422,0.865,-0.182,-0.427,-1.434,1.495,73.333,86.000,1.000
-41457.003,-31101.459,204142.187,247269.437,-38609.589,-48304.312,-35019.233,-36724.664,-0.420,0.863,-0.182,-0.397,-1.465,1.465,73.333,87.000,1.000
-41803.049,-31161.427,201213.489,244976.472,-41961.138,-49483.794,-35328.903,-37045.271,-0.419,0.860,-0.183,-0.458,-1.312,1.404,73.333,88.000,1.000
-41635.778,-31323.991,198243.809,241879.698,-44823.577,-50123.913,-36084.426,-37481.969,-0.419,0.858,-0.183,-0.305,-1.343,1.465,73.333,89.000,1.000
-41477.593,-31810.913,195029.536,237567.775,-47401.750,-49926.722,-37135.679,-37729.238,-0.419,0.862,-0.182,-0.122,-1.221,1.495,73.333,90.000,1.000
-41789.282,-32379.667,191768.613,233337.505,-50150.003,-49692.514,-37906.610,-37734.483,-0.419,0.863,-0.181,-0.061,-1.251,1.526,73.333,91.000,1.000
-42359.060,-32674.104,188764.210,230355.944,-53153.024,-50196.595,-38188.126,-37753.902,-0.423,0.865,-0.181,0.092,-1.221,1.465,73.333,92.000,1.000
-42629.082,-32704.935,186025.395,228127.143,-56040.370,-51165.662,-38399.927,-37992.246,-0.423,0.864,-0.182,0.183,-1.282,1.312,73.333,93.000,1.000
-42462.602,-32812.491,183285.897,225267.810,-58514.645,-51706.906,-38997.559,-38333.668,-0.421,0.866,-0.183,0.275,-1.343,1.068,73.333,94.000,1.000
-42297.573,-33194.626,180380.185,221403.222,-60746.591,-51529.289,-39864.455,-38517.785,-0.423,0.865,-0.184,0.275,-1.404,1.007,73.333,95.000,1.000
-42524.112,-33655.491,177455.219,217593.651,-63118.304,-51287.097,-40502.000,-38496.475,-0.424,0.866,-0.183,0.214,-1.343,1.007,73.333,96.000,1.000
-42970.737,-33893.393,174752.171,214830.907,-65703.347,-51651.271,-40717.302,-38483.636,-0.423,0.867,-0.184,0.183,-1.465,0.885,73.333,97.000,1.000
-43174.950,-33907.802,172277.762,212732.391,-68195.557,-52425.454,-40861.404,-38653.259,-0.420,0.868,-0.187,0.275,-1.495,0.854,73.333,98.000,1.000
-43018.859,-33977.950,169806.430,210142.783,-70346.904,-52870.098,-41328.683,-38912.577,-0.421,0.869,-0.187,0.214,-1.556,0.793,73.333,99.000,1.000
-42857.735,-34274.152,167187.246,206705.866,-72293.585,-52717.477,-42032.565,-39046.408,-0.420,0.872,-0.185,0.244,-1.556,0.702,73.333,100.000,1.000
-43012.274,-34643.662,164531.648,203263.012,-74346.832,-52487.441,-42555.585,-39012.268,-0.421,0.871,-0.185,0.244,-1.404,0.671,73.333,101.000,1.000
-43349.532,-34838.970,162046.097,200650.449,-76570.005,-52743.489,-42726.936,-38983.088,-0.418,0.870,-0.184,0.214,-1.373,0.610,73.333,102.000,1.000
-43498.645,-34850.851,159755.561,198606.386,-78719.759,-53352.379,-42830.765,-39101.538,-0.418,0.869,-0.185,0.153,-1.404,0.610,73.333,103.000,1.000
-43360.435,-34899.348,157485.765,196208.942,-80596.450,-53717.859,-43196.604,-39294.668,-0.417,0.869,-0.184,0.122,-1.343,0.671,73.333,104.000,1.000
-43212.297,-35125.044,155104.628,193135.647,-82304.639,-53599.031,-43761.863,-39388.687,-0.418,0.870,-0.184,0.153,-1.282,0.732,73.333,105.000,1.000
-43308.233,-35412.637,152687.098,190024.903,-84088.788,-53391.590,-44186.392,-39345.927,-0.421,0.871,-0.187,0.244,-1.251,0.732,73.333,106.000,1.000
-43548.725,-35565.831,150397.213,187552.777,-86001.245,-53554.045,-44323.078,-39301.448,-0.420,0.872,-0.185,0.153,-1.251,0.671,73.333,107.000,1.000
-43647.170,-35571.506,148266.320,185550.869,-87855.542,-54007.205,-44395.035,-39370.393,-0.420,0.871,-0.185,0.244,-1.221,0.641,73.333,108.000,1.000
-43524.170,-35599.421,146163.584,183307.506,-89496.927,-54290.702,-44671.391,-39500.522,-0.420,0.872,-0.184,0.153,-1.129,0.763,73.333,109.000,1.000
-43389.494,-35764.317,143978.089,180541.204,-91002.629,-54198.377,-45112.292,-39558.431,-0.421,0.872,-0.184,0.122,-1.099,0.702,73.333,110.000,1.000
-43437.976,-35984.001,141757.472,177716.101,-92557.209,-54019.218,-45450.904,-39512.220,-0.420,0.871,-0.183,0.061,-1.038,0.732,73.333,111.000,1.000
-43598.654,-36107.152,139629.681,175362.603,-94201.835,-54112.872,-45563.723,-39461.838,-0.420,0.873,-0.183,-0.031,-0.977,0.854,73.333,112.000,1.000
-43657.876,-36115.912,137630.381,173388.585,-95799.154,-54439.904,-45617.634,-39494.527,-0.419,0.875,-0.184,-0.122,-0.885,0.946,73.333,113.000,1.000
-43552.574,-36133.167,135666.270,171267.834,-97233.965,-54657.328,-45823.887,-39573.137,-0.419,0.872,-0.183,-0.244,-0.732,0.977,73.333,114.000,1.000
-43432.517,-36247.894,133646.210,168761.571,-98560.603,-54592.381,-46159.926,-39598.728,-0.417,0.874,-0.186,-0.305,-0.763,1.007,73.333,115.000,1.000
-43440.078,-36405.289,131594.945,166185.876,-99912.566,-54442.532,-46424.054,-39545.569,-0.419,0.873,-0.183,-0.366,-0.702,1.038,73.333,116.000,1.000
-43528.769,-36495.187,129607.342,163939.976,-101322.135,-54479.269,-46516.249,-39485.412,-0.420,0.872,-0.183,-0.549,-0.702,1.038,73.333,117.000,1.000
-43549.234,-36500.240,127719.762,161989.729,-102694.699,-54695.047,-46556.154,-39483.607,-0.419,0.869,-0.184,-0.610,-0.610,1.099,73.333,118.000,1.000
-43455.188,-36506.552,125870.537,159967.206,-103949.047,-54849.177,-46703.830,-39517.005,-0.421,0.869,-0.183,-0.641,-0.519,1.160,73.333,119.000,1.000
-43347.878,-36581.707,123988.116,157677.018,-105120.109,-54802.307,-46949.991,-39516.364,-0.422,0.870,-0.183,-0.641,-0.641,1.251,73.333,120.000,1.000
-43325.882,-36692.986,122080.518,155315.224,-106298.080,-54677.735,-47149.200,-39461.388,-0.422,0.868,-0.182,-0.702,-0.610,1.343,73.333,121.000,1.000
-43361.501,-36763.305,120214.467,153167.935,-107506.987,-54671.029,-47223.250,-39399.618,-0.422,0.869,-0.183,-0.702,-0.671,1.282,73.333,122.000,1.000
-43356.422,-36773.906,118424.512,151243.145,-108687.048,-54797.146,-47252.534,-39376.669,-0.424,0.869,-0.186,-0.671,-0.610,1.282,73.333,123.000,1.000
-43276.312,-36777.803,116673.747,149302.846,-109785.319,-54899.018,-47353.079,-39379.584,-0.422,0.868,-0.186,-0.732,-0.549,1.221,73.333,124.000,1.000
-43181.294,-36822.112,114907.473,147191.902,-110821.292,-54866.987,-47525.591,-39362.680,-0.422,0.868,-0.184,-0.732,-0.519,1.343,73.333,125.000,1.000
-43133.701,-36891.210,113121.468,145011.736,-111849.452,-54765.020,-47671.696,-39309.301,-0.422,0.869,-0.183,-0.702,-0.427,1.404,73.333,126.000,1.000
-43121.809,-36937.087,111359.748,142954.371,-112885.927,-54724.644,-47732.111,-39246.316,-0.423,0.869,-0.183,-0.641,-0.488,1.434,73.333,127.000,1.000
-43090.330,-36943.492,109654.489,141057.424,-113898.038,-54775.528,-47754.460,-39202.521,-0.424,0.871,-0.181,-0.732,-0.610,1.404,73.333,128.000,1.000
-43016.720,-36939.439,107988.530,139186.968,-114855.408,-54827.972,-47816.819,-39173.124,-0.424,0.872,-0.182,-0.702,-0.580,1.495,73.333,129.000,1.000
-42929.681,-36956.308,106321.796,137224.359,-115765.945,-54800.510,-47926.769,-39132.907,-0.424,0.871,-0.183,-0.732,-0.610,1.556,73.333,130.000,1.000
-42862.296,-36991.313,104641.014,135198.797,-116657.056,-54714.147,-48025.080,-39071.231,-0.424,0.871,-0.184,-0.732,-0.702,1.404,73.333,131.000,1.000
-42813.479,-37018.404,102970.988,133225.297,-117539.664,-54649.918,-48070.264,-39001.601,-0.424,0.870,-0.181,-0.732,-0.732,1.404,73.333,132.000,1.000
-42760.139,-37022.571,101340.030,131359.784,-118402.453,-54646.078,-48085.263,-38940.629,-0.424,0.871,-0.185,-0.854,-0.671,1.343,73.333,133.000,1.000
-42689.108,-37013.338,99746.132,129548.797,-119232.354,-54662.996,-48116.993,-38888.819,-0.422,0.870,-0.182,-0.916,-0.671,1.373,73.333,134.000,1.000
-42606.254,-37009.089,98162.459,127706.373,-120028.779,-54640.792,-48176.455,-38834.949,-0.424,0.870,-0.180,-1.038,-0.702,1.373,73.333,135.000,1.000
-42523.598,-37016.941,96570.772,125810.047,-120799.203,-54567.854,-48234.568,-38771.587,-0.421,0.870,-0.181,-1.099,-0.732,1.404,73.333,136.000,1.000
-42448.469,-37028.794,94981.405,123914.871,-121550.480,-54485.605,-48264.829,-38701.213,-0.422,0.870,-0.182,-1.099,-0.793,1.465,73.333,137.000,1.000
-42381.574,-37032.107,93418.367,122086.475,-122286.535,-54437.462,-48272.334,-38630.849,-0.420,0.871,-0.182,-1.251,-0.671,1.465,73.333,138.000,1.000
-42316.311,-37022.356,91889.761,120330.200,-123006.873,-54423.008,-48280.585,-38565.054,-0.419,0.872,-0.180,-1.160,-0.671,1.404,73.333,139.000,1.000
-42240.935,-37006.880,90378.740,118587.126,-123704.386,-54402.058,-48302.773,-38502.912,-0.418,0.869,-0.179,-1.160,-0.580,1.556,73.333,140.000,1.000
-42150.090,-36997.117,88864.325,116799.674,-124370.529,-54339.566,-48331.105,-38438.171,-0.419,0.869,-0.179,-1.160,-0.549,1.587,73.333,141.000,1.000
-42054.862,-36995.748,87346.263,114977.934,-125007.382,-54244.203,-48348.642,-38363.636,-0.421,0.869,-0.179,-1.190,-0.580,1.648,73.333,142.000,1.000
-41972.507,-36992.208,85844.303,113190.711,-125629.521,-54159.301,-48346.714,-38279.070,-0.419,0.868,-0.179,-1.282,-0.671,1.709,73.333,143.000,1.000
-41903.081,-36973.996,84373.310,111484.339,-126246.833,-54112.909,-48332.117,-38193.626,-0.418,0.869,-0.179,-1.312,-0.610,1.617,73.333,144.000,1.000
-41825.591,-36942.980,82924.618,109822.313,-126849.621,-54082.949,-48320.566,-38116.800,-0.421,0.868,-0.181,-1.190,-0.610,1.617,73.333,145.000,1.000
-41725.103,-36915.672,81476.558,108125.588,-127419.925,-54022.167,-48321.294,-38046.588,-0.422,0.868,-0.181,-1.129,-0.610,1.709,73.333,146.000,1.000
-41616.052,-36903.688,80021.298,106371.929,-127957.260,-53917.391,-48326.141,-37971.046,-0.421,0.869,-0.183,-1.190,-0.671,1.709,73.333,147.000,1.000
-41525.730,-36897.573,78574.500,104628.587,-128482.362,-53809.094,-48316.772,-37883.653,-0.420,0.867,-0.179,-1.190,-0.702,1.709,73.333,148.000,1.000
-41456.523,-36877.088,77155.185,102968.411,-129009.926,-53741.374,-48285.773,-37792.698,-0.420,0.868,-0.179,-1.129,-0.641,1.617,73.333,149.000,1.000
-41379.774,-36837.590,75761.062,101372.841,-129527.259,-53703.972,-48248.110,-37711.023,-0.420,0.869,-0.178,-1.129,-0.610,1.678,73.333,150.000,1.000
-41273.635,-36797.476,74371.184,99752.114,-130010.370,-53643.384,-48224.607,-37638.062,-0.422,0.871,-0.178,-1.068,-0.641,1.709,73.333,151.000,1.000
-41154.457,-36774.728,72972.867,98062.487,-130457.590,-53532.561,-48214.870,-37559.074,-0.420,0.870,-0.179,-1.038,-0.580,1.709,73.333,152.000,1.000
-41056.407,-36762.847,71577.944,96366.327,-130894.197,-53408.601,-48196.077,-37464.591,-0.418,0.870,-0.183,-1.007,-0.610,1.617,73.333,153.000,1.000
-40984.857,-36739.022,70206.972,94750.916,-131339.180,-53325.197,-48152.211,-37363.872,-0.419,0.870,-0.180,-1.007,-0.671,1.678,73.333,154.000,1.000
-40907.794,-36694.634,68861.929,93211.139,-131779.277,-53280.627,-48096.572,-37273.273,-0.419,0.870,-0.179,-0.946,-0.671,1.648,73.333,155.000,1.000
-40798.981,-36647.072,67523.442,91654.526,-132186.671,-53218.240,-48055.288,-37194.376,-0.420,0.872,-0.178,-0.946,-0.671,1.678,73.333,156.000,1.000
-40674.265,-36616.203,66176.328,90024.692,-132556.999,-53101.299,-48031.810,-37112.026,-0.420,0.872,-0.179,-0.885,-0.580,1.740,73.333,157.000,1.000
-40570.219,-36597.054,64829.498,88377.514,-132915.675,-52962.705,-48000.961,-37015.613,-0.420,0.873,-0.180,-0.916,-0.580,1.801,73.333,158.000,1.000
-40493.857,-36566.234,63503.732,86805.963,-133283.237,-52861.597,-47942.421,-36914.094,-0.417,0.873,-0.181,-0.763,-0.488,1.862,73.333,159.000,1.000
-40412.813,-36514.022,62203.690,85314.480,-133647.856,-52804.617,-47869.571,-36823.849,-0.418,0.872,-0.183,-0.793,-0.427,1.831,73.333,160.000,1.000
-40299.786,-36458.106,60911.597,83813.092,-133982.704,-52737.692,-47812.958,-36745.660,-0.419,0.872,-0.183,-0.824,-0.519,1.984,73.333,161.000,1.000
-40169.941,-36419.921,59610.792,82238.965,-134283.604,-52619.388,-47779.311,-36662.811,-0.418,0.871,-0.182,-0.854,-0.488,2.075,73.333,162.000,1.000
-40060.020,-36395.876,58307.469,80640.198,-134575.059,-52476.525,-47742.090,-36563.417,-0.419,0.873,-0.179,-0.793,-0.397,2.075,73.333,163.000,1.000
-39978.525,-36362.612,57021.851,79109.241,-134876.522,-52366.821,-47676.926,-36456.262,-0.417,0.872,-0.182,-0.732,-0.427,2.014,73.333,164.000,1.000
-39895.223,-36308.840,55761.157,77657.998,-135176.045,-52300.601,-47594.499,-36358.752,-0.418,0.873,-0.179,-0.580,-0.275,1.892,73.333,165.000,1.000
-39783.356,-36250.224,54510.486,76203.821,-135447.300,-52228.022,-47525.892,-36273.431,-0.418,0.874,-0.180,-0.519,-0.336,2.045,73.333,166.000,1.000
-39655.828,-36207.738,53253.084,74682.628,-135686.136,-52107.910,-47480.520,-36185.264,-0.418,0.873,-0.179,-0.519,-0.275,1.984,73.333,167.000,1.000
-39546.318,-36179.591,51992.241,73133.774,-135916.408,-51963.439,-47434.137,-36083.118,-0.419,0.874,-0.177,-0.519,-0.244,2.106,73.333,168.000,1.000
-39462.678,-36144.435,50745.852,71643.637,-136157.286,-51849.347,-47362.160,-35975.137,-0.421,0.873,-0.179,-0.580,-0.275,2.075,73.333,169.000,1.000
-39376.793,-36090.439,49521.943,70228.281,-136397.691,-51777.301,-47272.544,-35877.184,-0.421,0.873,-0.177,-0.580,-0.275,2.014,73.333,170.000,1.000
-39263.555,-36030.196,48308.414,68814.700,-136612.194,-51700.908,-47193.664,-35790.635,-0.420,0.873,-0.178,-0.519,-0.244,2.014,73.333,171.000,1.000
-39134.488,-35982.358,47089.906,67341.911,-136795.677,-51579.061,-47135.122,-35700.345,-0.417,0.873,-0.177,-0.610,-0.305,2.045,73.333,172.000,1.000
-39020.708,-35946.178,45868.173,65841.638,-136969.617,-51430.465,-47075.613,-35595.084,-0.417,0.872,-0.176,-0.549,-0.366,1.892,73.333,173.000,1.000
-38930.319,-35903.389,44658.837,64391.643,-137152.477,-51306.460,-46993.042,-35481.927,-0.420,0.873,-0.175,-0.519,-0.397,1.923,73.333,174.000,1.000
-38838.767,-35843.759,43469.895,63009.814,-137335.817,-51221.738,-46894.957,-35375.993,-0.420,0.873,-0.178,-0.580,-0.397,1.892,73.333,175.000,1.000
-38723.538,-35778.696,42291.337,61633.195,-137497.522,-51136.713,-46807.666,-35280.332,-0.419,0.873,-0.177,-0.549,-0.366,1.770,73.333,176.000,1.000
-38594.386,-35725.185,41109.106,60205.664,-137632.313,-51012.710,-46740.219,-35183.372,-0.419,0.874,-0.177,-0.580,-0.549,1.709,73.333,177.000,1.000
-38478.710,-35682.948,39923.732,58751.863,-137757.737,-50863.103,-46672.933,-35076.132,-0.417,0.872,-0.177,-0.732,-0.580,1.648,73.333,178.000,1.000
-38384.158,-35635.643,38748.786,57339.858,-137888.979,-50732.550,-46584.644,-34964.528,-0.415,0.872,-0.175,-0.641,-0.519,1.678,73.333,179.000,1.000
-38289.791,-35573.565,37592.221,55988.426,-138018.982,-50636.509,-46481.213,-34860.917,-0.417,0.871,-0.176,-0.641,-0.397,1.617,73.333,180.000,1.000
-38175.793,-35506.323,36446.171,54645.262,-138129.939,-50543.349,-46386.703,-34767.213,-0.417,0.870,-0.177,-0.702,-0.366,1.617,73.333,181.000,1.000
-38049.653,-35449.227,35298.183,53260.559,-138218.292,-50419.728,-46310.519,-34672.568,-0.417,0.869,-0.179,-0.610,-0.366,1.648,73.333,182.000,1.000
-37934.220,-35403.033,34147.744,51852.410,-138298.998,-50274.928,-46235.845,-34568.083,-0.416,0.871,-0.179,-0.519,-0.397,1.556,73.333,183.000,1.000
-37836.244,-35354.047,33006.106,50478.194,-138384.499,-50145.251,-46143.314,-34457.883,-0.416,0.869,-0.176,-0.488,-0.336,1.648,73.333,184.000,1.000
-37738.585,-35293.092,31880.766,49156.261,-138468.441,-50043.731,-46036.796,-34352.512,-0.416,0.868,-0.178,-0.366,-0.336,1.648,73.333,185.000,1.000
-37624.824,-35226.630,30765.986,47844.736,-138534.745,-49943.356,-45935.754,-34253.970,-0.417,0.867,-0.176,-0.305,-0.336,1.526,73.333,186.000,1.000
-37501.285,-35165.867,29651.235,46501.063,-138577.180,-49812.817,-45845.174,-34152.261,-0.417,0.869,-0.176,-0.244,-0.244,1.587,73.333,187.000,1.000
-37387.320,-35110.902,28535.125,45137.732,-138604.200,-49655.677,-45746.525,-34038.373,-0.417,0.870,-0.176,-0.183,-0.275,1.556,73.333,188.000,1.000
-37288.947,-35052.490,27426.171,43801.186,-138627.230,-49504.284,-45624.562,-33917.393,-0.417,0.869,-0.177,-0.214,-0.336,1.587,73.333,189.000,1.000
-37191.770,-34987.645,26330.476,42507.838,-138651.345,-49381.090,-45494.379,-33804.951,-0.417,0.869,-0.179,-0.214,-0.366,1.465,73.333,190.000,1.000
-37080.997,-34925.447,25243.678,41224.810,-138677.279,-49277.175,-45388.915,-33709.975,-0.418,0.868,-0.178,-0.214,-0.397,1.434,73.333,191.000,1.000
-36960.196,-34874.369,24157.421,39916.963,-138705.595,-49169.559,-45319.514,-33624.447,-0.417,0.868,-0.181,-0.061,-0.397,1.312,73.333,192.000,1.000
-36844.511,-34829.280,23070.694,38592.971,-138734.765,-49049.623,-45260.702,-33532.850,-0.417,0.870,-0.181,0.000,-0.427,1.312,73.333,193.000,1.000
-36739.741,-34776.524,21990.782,37290.331,-138757.683,-48926.925,-45179.389,-33428.909,-0.417,0.871,-0.175,-0.061,-0.397,1.251,73.333,194.000,1.000
-36636.063,-34710.435,20923.277,36024.223,-138765.179,-48809.702,-45071.152,-33319.507,-0.415,0.871,-0.179,-0.031,-0.458,1.190,73.333,195.000,1.000
-36522.985,-34639.469,19864.988,34770.022,-138754.356,-48692.003,-44958.899,-33213.309,-0.416,0.871,-0.179,-0.061,-0.458,1.129,73.333,196.000,1.000
-36403.467,-34574.748,18808.733,33498.979,-138731.427,-48563.655,-44860.169,-33110.382,-0.417,0.871,-0.178,-0.092,-0.488,1.099,73.333,197.000,1.000
-36288.685,-34516.894,17752.835,32215.621,-138705.095,-48426.584,-44767.729,-33005.045,-0.417,0.870,-0.179,-0.092,-0.580,1.190,73.333,198.000,1.000
-36182.620,-34457.695,16702.648,30948.329,-138677.899,-48293.683,-44664.939,-32895.466,-0.419,0.870,-0.178,-0.061,-0.641,1.129,73.333,199.000,1.000
-36077.790,-34392.346,15662.919,29710.195,-138645.310,-48172.098,-44550.398,-32786.241,-0.418,0.868,-0.178,-0.092,-0.702,1.068,73.333,200.000,1.000
-35966.263,-34325.100,14631.738,28483.830,-138602.498,-48054.019,-44438.342,-32681.464,-0.417,0.870,-0.177,-0.122,-0.671,0.854,73.333,201.000,1.000
-35849.818,-34262.228,13603.563,27246.922,-138550.094,-47927.329,-44338.009,-32579.171,-0.420,0.867,-0.177,-0.092,-0.732,0.916,73.333,202.000,1.000
-35736.271,-34203.257,12576.491,26001.086,-138492.480,-47791.176,-44242.019,-32474.655,-0.420,0.870,-0.177,0.000,-0.916,0.885,73.333,203.000,1.000
-35628.486,-34141.886,11554.187,24766.876,-138431.385,-47655.447,-44137.324,-32366.830,-0.422,0.872,-0.175,-0.092,-0.885,0.702,73.333,204.000,1.000
-35521.155,-34074.267,10540.727,23555.504,-138363.528,-47526.473,-44021.798,-32258.919,-0.421,0.873,-0.177,-0.061,-1.038,0.732,73.333,205.000,1.000
-35408.570,-34003.495,9535.560,22355.999,-138285.287,-47399.302,-43904.969,-32153.525,-0.419,0.873,-0.179,-0.122,-1.129,0.671,73.333,206.000,1.000
-35292.065,-33935.406,8534.745,21151.895,-138198.221,-47266.287,-43794.886,-32049.693,-0.420,0.874,-0.177,-0.153,-1.160,0.580,73.333,207.000,1.000
-35177.544,-33871.879,7536.138,19942.459,-138108.183,-47128.841,-43689.704,-31945.369,-0.418,0.874,-0.178,-0.244,-1.221,0.580,73.333,208.000,1.000
-35067.414,-33809.631,6541.670,18741.310,-138018.810,-46995.647,-43582.596,-31840.460,-0.421,0.873,-0.180,-0.214,-1.312,0.549,73.333,209.000,1.000
-34957.987,-33744.931,5554.314,17557.371,-137927.742,-46870.692,-43471.104,-31736.344,-0.420,0.874,-0.179,-0.244,-1.282,0.580,73.333,210.000,1.000
-34844.975,-33677.674,4574.277,16384.541,-137829.844,-46747.848,-43358.605,-31633.261,-0.419,0.874,-0.180,-0.305,-1.343,0.641,73.333,211.000,1.000
-34728.791,-33610.299,3599.244,15211.569,-137722.857,-46618.772,-43248.103,-31529.633,-0.420,0.873,-0.181,-0.458,-1.343,0.610,73.333,212.000,1.000
-34613.189,-33544.108,2627.618,14036.637,-137608.963,-46483.175,-43138.193,-31424.248,-0.418,0.873,-0.179,-0.336,-1.404,0.610,73.333,213.000,1.000
-34500.335,-33477.835,1660.290,12867.962,-137491.062,-46348.068,-43025.504,-31317.754,-0.419,0.872,-0.179,-0.397,-1.434,0.671,73.333,214.000,1.000
-34388.983,-33409.635,699.079,11712.101,-137369.007,-46217.965,-42908.995,-31211.477,-0.418,0.871,-0.178,-0.366,-1.556,0.641,73.333,215.000,1.000
-34277.071,-33339.487,-255.775,10566.220,-137240.525,-46089.420,-42790.515,-31105.600,-0.419,0.872,-0.179,-0.397,-1.526,0.763,73.333,216.000,1.000
-34164.371,-33269.130,-1205.888,9422.855,-137105.076,-45956.259,-42672.207,-30999.472,-0.421,0.874,-0.175,-0.427,-1.465,0.763,73.333,217.000,1.000
-34051.952,-33199.961,-2152.617,8279.393,-136965.108,-45817.676,-42554.776,-30893.196,-0.422,0.873,-0.177,-0.397,-1.526,0.916,73.333,218.000,1.000
-33940.185,-33131.629,-3095.345,7140.395,-136822.880,-45678.703,-42437.753,-30787.517,-0.422,0.873,-0.175,-0.549,-1.526,0.946,73.333,219.000,1.000
-33828.258,-33062.642,-4032.203,6011.379,-136677.217,-45543.439,-42320.282,-30682.263,-0.420,0.873,-0.177,-0.519,-1.587,0.946,73.333,220.000,1.000
-33715.343,-32991.927,-4962.134,4892.698,-136524.522,-45410.167,-42201.364,-30575.886,-0.420,0.873,-0.178,-0.580,-1.495,0.946,73.333,221.000,1.000
-33601.462,-32919.647,-5885.901,3780.142,-136362.975,-45274.214,-42080.356,-30467.062,-0.422,0.872,-0.176,-0.641,-1.556,0.946,73.333,222.000,1.000
-33487.177,-32846.615,-6805.075,2670.215,-136194.765,-45133.923,-41957.567,-30356.248,-0.422,0.872,-0.178,-0.641,-1.556,1.038,73.333,223.000,1.000
-33373.130,-32773.283,-7720.350,1563.587,-136023.620,-44991.966,-41833.673,-30245.099,-0.421,0.872,-0.179,-0.671,-1.648,0.916,73.333,224.000,1.000
-33260.079,-32699.794,-8631.170,463.489,-135851.268,-44851.850,-41708.934,-30135.049,-0.422,0.871,-0.175,-0.793,-1.678,0.977,73.333,225.000,1.000
-33148.770,-32626.810,-9536.913,-628.463,-135676.924,-44714.716,-41583.551,-30026.803,-0.421,0.870,-0.180,-0.641,-1.678,0.977,73.333,226.000,1.000
-33039.319,-32555.753,-10438.011,-1714.242,-135499.622,-44579.645,-41458.925,-29920.854,-0.420,0.870,-0.179,-0.641,-1.709,0.916,73.333,227.000,1.000
-32931.095,-32487.876,-11335.579,-2797.242,-135320.069,-44445.975,-41337.773,-29817.678,-0.420,0.871,-0.178,-0.610,-1.709,1.007,73.333,228.000,1.000
-32823.456,-32422.885,-12229.978,-3878.340,-135139.305,-44313.989,-41221.513,-29716.705,-0.420,0.869,-0.179,-0.488,-1.678,0.946,73.333,229.000,1.000
-32716.139,-32358.515,-13120.052,-4954.537,-134956.184,-44183.494,-41107.778,-29615.765,-0.417,0.870,-0.179,-0.427,-1.709,1.099,73.333,230.000,1.000
-32608.755,-32292.011,-14004.151,-6022.034,-134767.530,-44052.870,-40992.005,-29512.679,-0.416,0.869,-0.178,-0.275,-1.648,1.068,73.333,231.000,1.000
-32500.330,-32222.495,-14881.838,-7080.499,-134571.224,-43920.206,-40872.099,-29407.614,-0.417,0.868,-0.179,-0.275,-1.617,1.129,73.333,232.000,1.000
-32389.941,-32151.561,-15754.204,-8133.403,-134368.524,-43785.081,-40750.496,-29302.912,-0.417,0.867,-0.177,-0.244,-1.526,1.221,73.333,233.000,1.000
-32277.964,-32081.127,-16622.435,-9183.728,-134162.492,-43648.551,-40630.399,-29199.982,-0.418,0.867,-0.177,-0.183,-1.495,1.282,73.333,234.000,1.000
-32166.018,-32011.025,-17486.469,-10230.233,-133954.507,-43511.661,-40511.092,-29097.336,-0.419,0.867,-0.181,-0.122,-1.526,1.282,73.333,235.000,1.000
-32055.156,-31939.296,-18345.360,-11269.115,-133743.125,-43374.542,-40388.680,-28992.293,-0.420,0.868,-0.179,0.061,-1.526,1.282,73.333,236.000,1.000
-31944.660,-31865.036,-19198.802,-12299.202,-133526.685,-43237.055,-40261.565,-28884.325,-0.421,0.872,-0.179,0.031,-1.465,1.251,73.333,237.000,1.000
-31833.209,-31790.003,-20047.779,-13323.904,-133306.055,-43099.646,-40133.193,-28775.859,-0.420,0.872,-0.178,0.122,-1.495,1.190,73.333,238.000,1.000
-31720.798,-31716.536,-20893.385,-14347.014,-133083.544,-42962.864,-40007.796,-28669.259,-0.420,0.874,-0.178,0.031,-1.434,1.190,73.333,239.000,1.000
-31608.818,-31644.719,-21735.453,-15367.787,-132859.883,-42826.731,-39885.118,-28564.255,-0.420,0.873,-0.177,0.031,-1.434,1.190,73.333,240.000,1.000
-31498.303,-31572.715,-22572.836,-16381.913,-132633.528,-42690.893,-39761.409,-28459.089,-0.421,0.875,-0.178,0.000,-1.404,1.282,73.333,241.000,1.000
-31388.579,-31499.542,-23404.821,-17387.118,-132402.850,-42554.951,-39635.054,-28353.169,-0.421,0.876,-0.176,0.000,-1.495,1.282,73.333,242.000,1.000
-31278.088,-31426.375,-24231.809,-18385.977,-132168.180,-42418.470,-39509.028,-28247.472,-0.420,0.875,-0.177,-0.153,-1.465,1.221,73.333,243.000,1.000
-31166.396,-31354.632,-25054.548,-19382.259,-131931.060,-42280.766,-39386.560,-28142.516,-0.417,0.875,-0.176,-0.214,-1.434,1.190,73.333,244.000,1.000
-31054.719,-31283.578,-25873.054,-20375.741,-131692.067,-42141.301,-39266.100,-28037.248,-0.417,0.875,-0.178,-0.153,-1.373,1.251,73.333,245.000,1.000
-30944.325,-31210.930,-26686.625,-21362.468,-131450.151,-42000.536,-39142.778,-27930.476,-0.416,0.873,-0.180,-0.183,-1.404,1.404,73.333,246.000,1.000
-30834.979,-31135.746,-27494.940,-22340.203,-131204.137,-41859.911,-39014.602,-27822.780,-0.414,0.873,-0.177,-0.244,-1.251,1.434,73.333,247.000,1.000
-30725.435,-31059.677,-28298.755,-23311.711,-130954.298,-41720.639,-38885.062,-27716.187,-0.417,0.869,-0.178,-0.214,-1.190,1.465,73.333,248.000,1.000
-30615.283,-30984.974,-29099.168,-24281.335,-130701.995,-41582.762,-38758.597,-27611.833,-0.417,0.868,-0.177,-0.183,-1.099,1.343,73.333,249.000,1.000
-30505.585,-30911.933,-29896.354,-25249.397,-130448.213,-41445.639,-38635.245,-27508.811,-0.418,0.869,-0.178,-0.153,-1.160,1.373,73.333,250.000,1.000
-30397.291,-30838.798,-30689.365,-26211.889,-130192.626,-41308.655,-38511.120,-27405.410,-0.418,0.868,-0.180,-0.122,-1.068,1.434,73.333,251.000,1.000
-30289.555,-30764.019,-31477.236,-27165.769,-129934.061,-41171.150,-38383.612,-27301.085,-0.419,0.869,-0.179,0.000,-1.129,1.617,73.333,252.000,1.000
-30180.610,-30688.175,-32260.057,-28112.795,-129672.043,-41032.439,-38254.654,-27196.881,-0.418,0.870,-0.181,-0.061,-1.190,1.678,73.333,253.000,1.000
-30070.280,-30613.252,-33038.742,-29056.919,-129407.469,-40892.392,-38127.871,-27093.751,-0.419,0.870,-0.180,-0.031,-1.160,1.556,73.333,254.000,1.000
-29960.489,-30540.162,-33813.770,-29998.832,-129141.490,-40752.008,-38003.741,-26991.183,-0.419,0.867,-0.180,-0.061,-1.190,1.434,73.333,255.000,1.000
-29852.984,-30467.775,-34584.569,-30935.091,-128874.067,-40613.051,-37879.342,-26888.082,-0.421,0.868,-0.179,0.000,-1.190,1.373,73.333,256.000,1.000
-29747.311,-30394.684,-35350.426,-31862.977,-128604.283,-40476.808,-37752.812,-26784.612,-0.421,0.870,-0.178,0.061,-1.221,1.343,73.333,257.000,1.000
-29641.411,-30320.878,-36111.584,-32784.312,-128331.713,-40342.838,-37625.927,-26682.046,-0.422,0.872,-0.181,0.092,-1.282,1.434,73.333,258.000,1.000
-29533.852,-30246.998,-36868.945,-33703.023,-128056.639,-40208.948,-37500.996,-26580.668,-0.423,0.874,-0.180,0.214,-1.373,1.343,73.333,259.000,1.000
-29424.943,-30172.828,-37622.882,-34619.938,-127779.228,-40073.133,-37377.091,-26479.115,-0.426,0.876,-0.179,0.122,-1.434,1.221,73.333,260.000,1.000
-29315.729,-30097.496,-38372.782,-35531.847,-127498.972,-39935.494,-37251.025,-26376.057,-0.427,0.877,-0.178,0.122,-1.526,1.068,73.333,261.000,1.000
-29206.623,-30021.047,-39117.834,-36435.833,-127215.141,-39797.668,-37121.539,-26271.892,-0.427,0.879,-0.177,-0.061,-1.740,0.854,73.333,262.000,1.000
-29097.448,-29944.943,-39858.006,-37332.945,-126927.834,-39660.426,-36990.997,-26168.256,-0.425,0.877,-0.178,-0.183,-1.892,0.824,73.333,263.000,1.000
-28988.429,-29870.580,-40593.969,-38226.481,-126638.105,-39522.614,-36862.275,-26065.775,-0.426,0.878,-0.178,-0.336,-2.014,0.702,73.333,264.000,1.000
-28880.505,-29797.815,-41326.175,-39117.497,-126347.137,-39383.077,-36735.428,-25963.386,-0.423,0.878,-0.177,-0.366,-2.045,0.671,73.333,265.000,1.000
-28774.413,-29725.295,-42054.347,-40003.663,-126055.409,-39242.653,-36608.321,-25860.172,-0.422,0.879,-0.176,-0.488,-2.075,0.549,73.333,266.000,1.000
-28669.538,-29651.908,-42778.018,-40882.738,-125762.624,-39103.322,-36479.848,-25756.960,-0.422,0.878,-0.177,-0.671,-2.167,0.458,73.333,267.000,1.000
-28564.183,-29577.633,-43497.253,-41755.665,-125468.282,-38965.984,-36351.407,-25655.459,-0.421,0.877,-0.176,-0.671,-2.197,0.549,73.333,268.000,1.000
-28457.237,-29503.049,-44212.529,-42625.106,-125171.895,-38829.772,-36224.619,-25556.043,-0.418,0.876,-0.176,-0.671,-2.167,0.488,73.333,269.000,1.000
-28349.159,-29428.343,-44923.990,-43491.679,-124872.872,-38693.625,-36098.769,-25457.191,-0.419,0.875,-0.179,-0.732,-2.167,0.458,73.333,270.000,1.000
-28241.123,-29353.048,-45631.193,-44353.119,-124570.536,-38557.573,-35971.387,-25356.889,-0.417,0.877,-0.180,-0.732,-2.106,0.610,73.333,271.000,1.000
-28133.644,-29276.835,-46333.740,-45207.448,-124264.634,-38421.977,-35841.182,-25254.238,-0.415,0.875,-0.179,-0.702,-1.953,0.519,73.333,272.000,1.000
-28026.419,-29200.256,-47031.969,-46055.729,-123955.989,-38286.390,-35709.686,-25149.865,-0.416,0.874,-0.180,-0.732,-1.862,0.580,73.333,273.000,1.000
-27919.258,-29124.289,-47726.692,-46900.718,-123646.084,-38149.767,-35579.345,-25044.992,-0.417,0.873,-0.179,-0.671,-1.892,0.671,73.333,274.000,1.000
-27812.629,-29049.329,-48418.324,-47743.392,-123336.012,-38011.795,-35450.847,-24940.676,-0.418,0.872,-0.176,-0.641,-1.648,0.671,73.333,275.000,1.000
-27707.077,-28974.904,-49106.490,-48581.969,-123025.750,-37873.382,-35322.929,-24837.712,-0.416,0.871,-0.175,-0.580,-1.648,0.732,73.333,276.000,1.000
-27602.345,-28900.345,-49790.483,-49414.381,-122714.252,-37735.509,-35194.348,-24736.478,-0.416,0.870,-0.177,-0.549,-1.526,0.824,73.333,277.000,1.000
-27497.627,-28825.510,-50469.964,-50240.750,-122400.470,-37598.152,-35065.407,-24636.690,-0.417,0.870,-0.176,-0.549,-1.404,0.824,73.333,278.000,1.000
-27392.670,-28750.664,-51145.117,-51062.773,-122084.303,-37460.612,-34937.132,-24537.360,-0.416,0.871,-0.179,-0.397,-1.434,0.977,73.333,279.000,1.000
-27288.064,-28675.866,-51816.245,-51881.233,-121766.594,-37322.762,-34809.740,-24437.464,-0.417,0.871,-0.177,-0.427,-1.312,0.946,73.333,280.000,1.000
-27184.324,-28600.741,-52483.418,-52695.074,-121448.113,-37185.475,-34682.446,-24336.735,-0.418,0.871,-0.174,-0.427,-1.282,0.916,73.333,281.000,1.000
-27081.007,-28524.866,-53146.518,-53503.067,-121128.722,-37049.629,-34554.552,-24235.829,-0.419,0.871,-0.174,-0.427,-1.251,0.946,73.333,282.000,1.000
-26977.119,-28448.403,-53805.576,-54305.614,-120807.850,-36915.203,-34426.405,-24135.831,-0.418,0.871,-0.174,-0.519,-1.190,1.038,73.333,283.000,1.000
-26872.260,-28372.104,-54460.885,-55104.286,-120485.314,-36781.422,-34298.813,-24037.340,-0.419,0.871,-0.175,-0.549,-1.129,1.099,73.333,284.000,1.000
-26766.900,-28296.424,-55112.656,-55899.763,-120161.385,-36647.527,-34171.862,-23940.066,-0.420,0.870,-0.173,-0.488,-1.221,1.129,73.333,285.000,1.000
-26661.639,-28220.936,-55760.700,-56690.992,-119836.333,-36513.252,-34044.798,-23843.277,-0.419,0.871,-0.173,-0.549,-1.068,1.190,73.333,286.000,1.000
-26556.609,-28144.958,-56404.651,-57476.618,-119510.296,-36378.686,-33917.184,-23746.479,-0.419,0.868,-0.177,-0.549,-1.129,1.099,73.333,287.000,1.000
-26451.616,-28068.426,-57044.406,-58256.648,-119183.449,-36243.893,-33789.678,-23649.567,-0.419,0.867,-0.176,-0.549,-1.068,1.129,73.333,288.000,1.000
-26346.622,-27991.841,-57680.183,-59032.207,-118855.803,-36108.690,-33663.061,-23552.399,-0.419,0.867,-0.174,-0.519,-1.099,1.099,73.333,289.000,1.000
-26241.851,-27915.506,-58312.210,-59803.981,-118527.030,-35972.871,-33537.069,-23454.688,-0.418,0.866,-0.173,-0.549,-0.977,0.946,73.333,290.000,1.000
-26137.396,-27839.051,-58940.483,-60571.477,-118196.622,-35836.478,-33410.584,-23356.301,-0.418,0.867,-0.178,-0.488,-1.068,1.068,73.333,291.000,1.000
-26033.018,-27761.901,-59564.877,-61333.915,-117864.323,-35699.886,-33282.907,-23257.537,-0.419,0.867,-0.175,-0.427,-1.099,1.099,73.333,292.000,1.000
-25928.558,-27684.176,-60185.453,-62091.418,-117530.549,-35563.727,-33154.689,-23159.041,-0.419,0.870,-0.176,-0.427,-0.885,1.251,73.333,293.000,1.000
-25824.379,-27606.738,-60802.441,-62844.841,-117196.117,-35428.634,-33027.266,-23061.255,-0.421,0.869,-0.174,-0.427,-0.854,1.190,73.333,294.000,1.000
-25721.129,-27530.359,-61415.912,-63594.579,-116861.674,-35295.105,-32901.435,-22964.183,-0.420,0.869,-0.173,-0.488,-0.854,1.068,73.333,295.000,1.000
-25619.102,-27455.056,-62025.586,-64339.997,-116527.204,-35163.167,-32776.856,-22867.507,-0.421,0.870,-0.173,-0.397,-0.885,1.129,73.333,296.000,1.000
-25517.834,-27380.120,-62631.052,-65080.204,-116191.906,-35031.962,-32652.493,-22770.782,-0.419,0.870,-0.173,-0.397,-0.793,1.099,73.333,297.000,1.000
-25416.320,-27304.686,-63232.146,-65815.080,-115854.770,-34900.128,-32527.647,-22673.763,-0.420,0.869,-0.173,-0.458,-0.824,1.099,73.333,298.000,1.000
-25313.770,-27228.292,-63829.087,-66545.297,-115515.304,-34766.642,-32402.249,-22576.603,-0.420,0.871,-0.177,-0.366,-0.763,1.282,73.333,299.000,1.000
-25210.099,-27150.978,-64422.259,-67271.458,-115173.834,-34631.316,-32276.386,-22479.785,-0.421,0.872,-0.176,-0.336,-0.732,1.312,73.333,300.000,1.000
-25105.796,-27073.032,-65011.912,-67993.511,-114831.202,-34494.663,-32149.899,-22383.646,-0.418,0.871,-0.173,-0.305,-0.732,1.434,73.333,301.000,1.000
-25001.608,-26994.912,-65598.138,-68711.115,-114488.262,-34357.617,-32022.713,-22288.050,-0.422,0.872,-0.177,-0.397,-0.854,1.495,73.333,302.000,1.000
-24898.267,-26917.222,-66181.011,-69424.287,-114145.614,-34221.242,-31895.367,-22192.610,-0.423,0.873,-0.175,-0.458,-0.854,1.465,73.333,303.000,1.000
-24796.218,-26840.437,-66760.564,-70133.409,-113803.328,-34086.168,-31768.692,-22096.983,-0.423,0.873,-0.171,-0.488,-0.793,1.526,73.333,304.000,1.000
-24695.402,-26764.672,-67336.694,-70838.694,-113461.025,-33952.444,-31643.204,-22001.198,-0.423,0.875,-0.173,-0.549,-0.793,1.434,73.333,305.000,1.000
-24595.303,-26689.635,-67909.174,-71539.870,-113118.157,-33819.754,-31518.738,-21905.528,-0.425,0.875,-0.173,-0.458,-0.916,1.434,73.333,306.000,1.000
-24495.181,-26614.768,-68477.747,-72236.431,-112774.139,-33687.580,-31394.553,-21810.029,-0.424,0.874,-0.172,-0.488,-0.946,1.434,73.333,307.000,1.000
-24394.479,-26539.680,-69042.278,-72928.142,-112428.609,-33555.509,-31270.055,-21714.614,-0.424,0.875,-0.171,-0.549,-0.977,1.434,73.333,308.000,1.000
-24293.117,-26464.304,-69602.849,-73615.213,-112081.579,-33423.379,-31145.107,-21619.222,-0.426,0.876,-0.173,-0.519,-0.977,1.434,73.333,309.000,1.000
-24191.323,-26388.573,-70159.675,-74298.006,-111733.322,-33291.128,-31019.802,-21523.570,-0.426,0.875,-0.174,-0.549,-1.160,1.404,73.333,310.000,1.000
-24089.390,-26312.254,-70712.910,-74976.663,-111384.131,-33158.614,-30894.254,-21427.040,-0.425,0.875,-0.174,-0.641,-1.160,1.373,73.333,311.000,1.000
-23987.696,-26235.280,-71262.586,-75651.087,-111034.184,-33025.648,-30768.597,-21329.366,-0.424,0.873,-0.172,-0.580,-1.312,1.343,73.333,312.000,1.000
-23886.644,-26157.902,-71808.693,-76321.184,-110683.519,-32892.224,-30643.068,-21231.189,-0.421,0.873,-0.177,-0.763,-1.343,1.343,73.333,313.000,1.000
-23786.394,-26080.482,-72351.233,-76987.015,-110331.923,-32758.640,-30517.866,-21133.471,-0.419,0.872,-0.176,-0.854,-1.251,1.373,73.333,314.000,1.000
-23686.716,-26003.319,-72890.264,-77648.768,-109979.243,-32625.528,-30393.146,-21036.834,-0.421,0.870,-0.179,-0.854,-1.343,1.465,73.333,315.000,1.000
-23587.058,-25926.419,-73425.900,-78306.599,-109625.628,-32493.398,-30268.867,-20941.352,-0.420,0.869,-0.174,-0.671,-1.221,1.404,73.333,316.000,1.000
-23486.790,-25849.335,-73958.096,-78960.364,-109271.232,-32362.071,-30144.562,-20846.577,-0.421,0.870,-0.174,-0.732,-1.221,1.434,73.333,317.000,1.000
-23385.731,-25771.722,-74486.578,-79609.649,-108916.095,-32231.089,-30019.784,-20752.065,-0.425,0.870,-0.173,-0.549,-1.282,1.495,73.333,318.000,1.000
-23284.557,-25694.027,-75011.173,-80254.254,-108560.388,-32100.581,-29894.762,-20657.898,-0.424,0.868,-0.174,-0.458,-1.373,1.343,73.333,319.000,1.000
-23184.319,-25617.163,-75532.077,-80894.511,-108204.528,-31971.127,-29770.356,-20564.560,-0.422,0.867,-0.174,-0.458,-1.373,1.343,73.333,320.000,1.000
-23085.533,-25541.434,-76049.621,-81530.927,-107848.816,-31842.608,-29647.146,-20472.226,-0.418,0.866,-0.173,-0.488,-1.343,1.404,73.333,321.000,1.000
-22987.913,-25466.211,-76563.913,-82163.628,-107493.112,-31713.796,-29524.773,-20380.406,-0.419,0.865,-0.175,-0.244,-1.282,1.434,73.333,322.000,1.000
-22890.723,-25390.536,-77074.826,-82792.313,-107137.017,-31583.259,-29402.347,-20288.271,-0.419,0.866,-0.173,-0.092,-1.282,1.526,73.333,323.000,1.000
-22793.236,-25313.821,-77582.226,-83416.658,-106780.109,-31450.327,-29279.105,-20195.065,-0.421,0.866,-0.174,0.092,-1.251,1.495,73.333,324.000,1.000
-22695.081,-25236.176,-78086.120,-84036.683,-106422.170,-31315.475,-29154.854,-20100.537,-0.423,0.868,-0.177,0.183,-1.251,1.617,73.333,325.000,1.000
-22596.387,-25158.259,-78586.534,-84652.617,-106063.138,-31179.945,-29029.846,-20005.070,-0.423,0.870,-0.174,0.305,-1.160,1.434,73.333,326.000,1.000
-22497.562,-25080.763,-79083.375,-85264.522,-105702.980,-31045.029,-28904.328,-19909.348,-0.424,0.872,-0.172,0.366,-1.282,1.312,73.333,327.000,1.000
-22398.878,-25003.914,-79576.484,-85872.174,-105341.882,-30911.581,-28778.405,-19813.960,-0.424,0.873,-0.173,0.336,-1.282,1.343,73.333,328.000,1.000
-22300.367,-24927.448,-80065.847,-86475.378,-104980.383,-30779.838,-28652.170,-19719.171,-0.422,0.873,-0.171,0.336,-1.373,1.343,73.333,329.000,1.000
-22202.131,-24851.187,-80551.706,-87074.309,-104619.368,-30649.844,-28526.246,-19625.258,-0.422,0.874,-0.171,0.214,-1.434,1.160,73.333,330.000,1.000
-22104.521,-24775.368,-81034.400,-87669.403,-104259.547,-30521.774,-28401.757,-19532.606,-0.421,0.874,-0.172,0.153,-1.373,1.129,73.333,331.000,1.000
-22007.791,-24700.103,-81514.064,-88260.890,-103900.670,-30395.341,-28279.187,-19441.087,-0.423,0.875,-0.174,0.122,-1.465,1.007,73.333,332.000,1.000
-21911.699,-24624.802,-81990.557,-88848.601,-103541.591,-30269.250,-28157.664,-19349.791,-0.422,0.874,-0.173,0.000,-1.495,0.946,73.333,333.000,1.000
-21815.647,-24548.485,-82463.598,-89432.185,-103181.012,-30141.676,-28035.601,-19257.573,-0.422,0.875,-0.172,0.000,-1.465,0.977,73.333,334.000,1.000
-21719.069,-24470.655,-82932.938,-90011.431,-102818.232,-30011.550,-27912.059,-19163.925,-0.419,0.873,-0.172,0.031,-1.465,0.916,73.333,335.000,1.000
-21621.722,-24391.719,-83398.527,-90586.405,-102453.493,-29879.379,-27787.350,-19069.212,-0.419,0.874,-0.171,0.000,-1.312,0.793,73.333,336.000,1.000
-21523.821,-24312.652,-83860.590,-91157.384,-102087.806,-29746.805,-27662.525,-18974.194,-0.419,0.874,-0.173,-0.061,-1.343,0.793,73.333,337.000,1.000
-21425.762,-24234.144,-84319.464,-91724.593,-101722.272,-29615.281,-27538.490,-18879.499,-0.420,0.875,-0.176,-0.092,-1.343,0.732,73.333,338.000,1.000
-21327.680,-24156.045,-84775.315,-92288.041,-101357.173,-29485.009,-27415.265,-18785.322,-0.420,0.874,-0.176,-0.061,-1.343,0.732,73.333,339.000,1.000
-21229.502,-24077.858,-85228.059,-92847.630,-100991.979,-29355.348,-27292.275,-18691.729,-0.420,0.872,-0.174,0.031,-1.373,0.824,73.333,340.000,1.000
-21131.482,-23999.657,-85677.568,-93403.378,-100626.238,-29225.999,-27169.297,-18599.079,-0.420,0.870,-0.174,0.000,-1.343,0.793,73.333,341.000,1.000
-21034.445,-23922.306,-86123.832,-93955.388,-100260.189,-29097.628,-27046.911,-18507.926,-0.420,0.872,-0.177,0.031,-1.282,0.793,73.333,342.000,1.000
-20939.135,-23846.556,-86566.868,-94503.613,-99894.374,-28971.071,-26925.850,-18418.348,-0.419,0.872,-0.179,0.061,-1.221,0.793,73.333,343.000,1.000
-20845.306,-23771.947,-87006.576,-95047.811,-99528.718,-28845.843,-26805.820,-18329.236,-0.419,0.873,-0.175,0.000,-1.099,0.763,73.333,344.000,1.000
-20751.714,-23697.177,-87442.810,-95587.807,-99162.562,-28720.374,-26685.728,-18238.979,-0.418,0.873,-0.173,0.092,-0.977,0.793,73.333,345.000,1.000
-20657.158,-23621.534,-87875.555,-96123.699,-98795.445,-28593.814,-26564.967,-18146.978,-0.419,0.873,-0.172,0.092,-1.007,0.824,73.333,346.000,1.000
-20561.306,-23545.362,-88305.008,-96655.775,-98427.475,-28466.711,-26443.766,-18054.139,-0.420,0.873,-0.173,0.153,-0.824,0.763,73.333,347.000,1.000
-20464.616,-23469.294,-88731.457,-97184.294,-98059.160,-28339.991,-26322.485,-17961.930,-0.421,0.873,-0.173,0.214,-0.854,0.885,73.333,348.000,1.000
-20367.873,-23393.558,-89155.017,-97709.293,-97690.917,-28213.810,-26201.009,-17871.170,-0.422,0.873,-0.175,0.275,-0.793,0.854,73.333,349.000,1.000
-20271.760,-23317.933,-89575.494,-98230.595,-97322.812,-28087.573,-26079.104,-17781.849,-0.421,0.873,-0.175,0.214,-0.793,0.854,73.333,350.000,1.000
-20176.591,-23241.965,-89992.523,-98747.942,-96954.512,-27960.562,-25956.854,-17693.501,-0.421,0.874,-0.171,0.305,-0.793,0.885,73.333,351.000,1.000
-20082.272,-23165.226,-90405.819,-99261.098,-96585.327,-27832.379,-25834.429,-17605.504,-0.424,0.874,-0.174,0.275,-0.824,0.916,73.333,352.000,1.000
-19988.544,-23087.725,-90815.371,-99769.968,-96214.765,-27703.312,-25712.027,-17517.524,-0.423,0.874,-0.172,0.244,-0.824,0.946,73.333,353.000,1.000
-19895.339,-23010.148,-91221.483,-100274.740,-95843.187,-27574.378,-25590.101,-17429.683,-0.423,0.872,-0.170,0.214,-0.763,0.977,73.333,354.000,1.000
-19802.727,-22933.342,-91624.605,-100775.882,-95471.775,-27446.626,-25469.281,-17342.254,-0.422,0.871,-0.171,0.244,-0.793,0.916,73.333,355.000,1.000
-19710.560,-22857.387,-92025.065,-101273.845,-95101.591,-27320.133,-25349.698,-17255.114,-0.423,0.871,-0.170,0.244,-0.824,1.007,73.333,356.000,1.000
-19618.468,-22781.514,-92422.892,-101768.727,-94732.762,-27194.005,-25230.697,-17167.730,-0.423,0.872,-0.174,0.183,-0.885,0.946,73.333,357.000,1.000
-19526.119,-22704.957,-92817.836,-102260.176,-94364.609,-27067.480,-25111.519,-17079.864,-0.422,0.870,-0.174,0.122,-0.885,1.007,73.333,358.000,1.000
-19433.294,-22627.572,-93209.526,-102747.630,-93996.142,-26940.585,-24991.898,-16991.948,-0.423,0.871,-0.173,0.244,-0.946,0.946,73.333,359.000,1.000
-19339.840,-22549.693,-93597.730,-103230.772,-93626.627,-26813.748,-24872.117,-16904.753,-0.425,0.869,-0.170,0.244,-0.946,1.007,73.333,360.000,1.000
-19245.848,-22471.687,-93982.517,-103709.775,-93255.977,-26687.135,-24752.589,-16818.641,-0.425,0.870,-0.168,0.244,-0.916,1.007,73.333,361.000,1.000
-19151.752,-22393.810,-94364.092,-104185.018,-92884.654,-26560.697,-24633.468,-16733.115,-0.425,0.867,-0.173,0.275,-1.038,0.946,73.333,362.000,1.000
-19058.052,-22316.339,-94742.560,-104656.680,-92513.275,-26434.705,-24514.763,-16647.183,-0.425,0.866,-0.175,0.214,-1.099,0.916,73.333,363.000,1.000
-18965.051,-22239.598,-95117.932,-105124.732,-92142.228,-26309.563,-24396.414,-16560.081,-0.422,0.866,-0.173,0.305,-1.282,0.885,73.333,364.000,1.000
-18872.856,-22163.768,-95490.257,-105589.188,-91771.621,-26185.113,-24278.298,-16471.826,-0.423,0.866,-0.176,0.336,-1.282,0.824,73.333,365.000,1.000
-18781.513,-22088.736,-95859.606,-106050.153,-91401.322,-26060.538,-24160.220,-16383.036,-0.424,0.870,-0.176,0.458,-1.465,0.916,73.333,366.000,1.000
-18691.041,-22014.188,-96225.981,-106507.653,-91031.057,-25935.222,-24042.078,-16294.473,-0.426,0.869,-0.171,0.366,-1.465,0.885,73.333,367.000,1.000
-18601.289,-21939.717,-96589.297,-106961.524,-90660.715,-25809.507,-23924.103,-16206.851,-0.423,0.870,-0.173,0.458,-1.495,0.793,73.333,368.000,1.000
-18511.884,-21864.878,-96949.447,-107411.542,-90290.321,-25684.340,-23806.579,-16120.545,-0.424,0.870,-0.174,0.458,-1.495,0.824,73.333,369.000,1.000
-18422.369,-21789.493,-97306.446,-107857.704,-89919.917,-25560.631,-23689.633,-16035.461,-0.424,0.871,-0.175,0.519,-1.526,0.824,73.333,370.000,1.000
-18332.457,-21713.903,-97660.468,-108300.300,-89549.574,-25438.846,-23573.301,-15951.168,-0.424,0.871,-0.174,0.519,-1.587,0.732,73.333,371.000,1.000
-18242.131,-21638.741,-98011.754,-108739.702,-89179.436,-25318.656,-23457.484,-15867.116,-0.424,0.871,-0.173,0.488,-1.678,0.885,73.333,372.000,1.000
-18151.478,-21564.364,-98360.471,-109176.107,-88809.746,-25198.920,-23341.868,-15782.893,-0.424,0.871,-0.172,0.519,-1.678,0.854,73.333,373.000,1.000
-18060.563,-21490.483,-98706.571,-109609.403,-88440.563,-25078.313,-23225.916,-15698.234,-0.425,0.872,-0.170,0.458,-1.678,0.702,73.333,374.000,1.000
-17969.480,-21416.356,-99049.775,-110039.244,-88071.678,-24956.281,-23109.272,-15612.988,-0.424,0.871,-0.174,0.458,-1.709,0.824,73.333,375.000,1.000
-17878.319,-21341.180,-99389.760,-110465.288,-87702.749,-24833.031,-22991.873,-15526.997,-0.421,0.871,-0.176,0.458,-1.770,0.793,73.333,376.000,1.000
-17787.014,-21264.440,-99726.331,-110887.337,-87333.345,-24708.881,-22873.686,-15440.172,-0.422,0.870,-0.173,0.427,-1.770,0.824,73.333,377.000,1.000
-17695.440,-21186.228,-100059.456,-111305.328,-86963.209,-24584.293,-22754.937,-15352.858,-0.422,0.869,-0.171,0.366,-1.770,0.885,73.333,378.000,1.000
-17603.762,-21107.207,-100389.240,-111719.321,-86592.488,-24459.935,-22636.199,-15265.578,-0.422,0.870,-0.174,0.488,-1.648,0.946,73.333,379.000,1.000
-17512.480,-21028.145,-100715.894,-112129.533,-86221.670,-24336.217,-22518.069,-15178.544,-0.422,0.871,-0.176,0.366,-1.556,0.916,73.333,380.000,1.000
-17422.002,-20949.416,-101039.663,-112536.286,-85851.210,-24213.023,-22400.776,-15091.551,-0.421,0.870,-0.174,0.397,-1.678,0.977,73.333,381.000,1.000
-17332.312,-20870.983,-101360.724,-112939.846,-85481.219,-24090.067,-22284.140,-15004.310,-0.421,0.870,-0.176,0.488,-1.648,0.885,73.333,382.000,1.000
-17243.134,-20792.890,-101679.118,-113340.289,-85111.649,-23967.529,-22168.060,-14916.989,-0.423,0.870,-0.178,0.427,-1.648,0.824,73.333,383.000,1.000
-17154.245,-20715.502,-101994.751,-113737.502,-84742.462,-23846.039,-22052.672,-14830.197,-0.421,0.872,-0.176,0.488,-1.495,0.916,73.333,384.000,1.000
-17065.533,-20639.224,-102307.475,-114131.287,-84373.723,-23726.100,-21938.152,-14744.515,-0.420,0.873,-0.174,0.488,-1.556,0.946,73.333,385.000,1.000
-16976.963,-20564.091,-102617.190,-114521.494,-84005.544,-23607.523,-21824.436,-14659.985,-0.419,0.872,-0.175,0.427,-1.556,1.099,73.333,386.000,1.000
-16888.567,-20489.655,-102923.872,-114908.090,-83637.807,-23489.340,-21711.006,-14575.967,-0.421,0.872,-0.175,0.427,-1.526,1.129,73.333,387.000,1.000
-16800.472,-20415.286,-103227.554,-115291.159,-83270.086,-23370.478,-21597.148,-14491.634,-0.421,0.872,-0.172,0.305,-1.434,1.190,73.333,388.000,1.000
-16712.828,-20340.561,-103528.291,-115670.833,-82901.840,-23250.449,-21482.382,-14406.642,-0.421,0.873,-0.175,0.244,-1.434,1.221,73.333,389.000,1.000
-16625.546,-20265.447,-103826.133,-116047.172,-82532.782,-23129.486,-21366.778,-14321.487,-0.421,0.873,-0.174,0.183,-1.373,1.282,73.333,390.000,1.000
-16538.219,-20190.258,-104121.055,-116420.090,-82163.091,-23008.215,-21250.861,-14237.116,-0.420,0.873,-0.176,0.122,-1.343,1.282,73.333,391.000,1.000
-16450.500,-20115.463,-104413.037,-116789.518,-81793.387,-22887.405,-21135.353,-14154.156,-0.419,0.875,-0.177,0.061,-1.251,1.373,73.333,392.000,1.000
-16362.483,-20041.353,-104702.293,-117155.687,-81424.522,-22767.702,-21020.939,-14072.581,-0.422,0.875,-0.174,0.031,-1.343,1.373,73.333,393.000,1.000
-16274.660,-19967.873,-104989.195,-117519.022,-81056.968,-22649.135,-20907.781,-13991.824,-0.422,0.876,-0.175,-0.031,-1.160,1.373,73.333,394.000,1.000
-16187.532,-19894.777,-105273.901,-117879.687,-80690.484,-22531.224,-20795.438,-13911.271,-0.420,0.876,-0.173,-0.061,-1.160,1.434,73.333,395.000,1.000
-16101.304,-19821.727,-105556.208,-118237.382,-80324.406,-22413.568,-20683.229,-13830.578,-0.420,0.876,-0.176,-0.214,-1.160,1.373,73.333,396.000,1.000
-16015.834,-19748.334,-105835.723,-118591.643,-79958.104,-22296.102,-20570.542,-13749.596,-0.420,0.876,-0.177,-0.275,-1.038,1.526,73.333,397.000,1.000
-15930.664,-19674.263,-106112.109,-118942.194,-79591.303,-22178.901,-20457.106,-13668.255,-0.418,0.877,-0.176,-0.397,-1.068,1.465,73.333,398.000,1.000
-15845.111,-19599.289,-106385.198,-119289.016,-79224.074,-22061.808,-20342.956,-13586.354,-0.419,0.876,-0.173,-0.549,-1.038,1.648,73.333,399.000,1.000
-15758.694,-19523.494,-106655.033,-119632.192,-78856.918,-21944.651,-20228.588,-13503.772,-0.419,0.876,-0.175,-0.641,-0.977,1.740,73.333,400.000,1.000
-15671.633,-19447.406,-106921.795,-119971.808,-78490.616,-21827.611,-20114.955,-13420.901,-0.420,0.873,-0.176,-0.641,-0.977,1.709,73.333,401.000,1.000
-15584.567,-19371.510,-107185.719,-120308.000,-78125.486,-21710.801,-20002.685,-13338.520,-0.417,0.874,-0.178,-0.732,-0.977,1.801,73.333,402.000,1.000
-15497.808,-19295.763,-107447.079,-120641.065,-77761.011,-21593.848,-19891.534,-13257.140,-0.417,0.873,-0.174,-0.732,-0.793,1.801,73.333,403.000,1.000
-15411.303,-19219.941,-107706.106,-120971.332,-77396.320,-21476.385,-19780.811,-13176.560,-0.416,0.871,-0.172,-0.854,-0.824,1.740,73.333,404.000,1.000
-15325.006,-19144.131,-107962.819,-121298.859,-77030.915,-21358.625,-19670.130,-13096.319,-0.418,0.873,-0.172,-0.946,-0.824,1.709,73.333,405.000,1.000
-15238.831,-19068.386,-108216.954,-121623.331,-76664.758,-21240.876,-19559.335,-13016.137,-0.418,0.873,-0.172,-0.793,-0.763,1.862,73.333,406.000,1.000
-15152.497,-18992.318,-108468.105,-121944.281,-76297.873,-21122.814,-19448.062,-12935.837,-0.420,0.873,-0.172,-0.793,-0.702,1.740,73.333,407.000,1.000
-15065.815,-18915.531,-108715.965,-122261.402,-75930.344,-21003.923,-19336.105,-12855.398,-0.418,0.873,-0.169,-0.702,-0.641,1.740,73.333,408.000,1.000
-14979.121,-18838.306,-108960.550,-122574.741,-75562.694,-20884.447,-19223.908,-12775.117,-0.419,0.872,-0.172,-0.793,-0.580,1.740,73.333,409.000,1.000
-14893.082,-18761.535,-109202.263,-122884.707,-75196.043,-20765.466,-19112.326,-12695.494,-0.416,0.873,-0.173,-0.732,-0.580,1.770,73.333,410.000,1.000
-14808.003,-18685.986,-109441.644,-123191.811,-74831.393,-20647.898,-19001.752,-12616.735,-0.420,0.873,-0.170,-0.793,-0.580,1.770,73.333,411.000,1.000
-14723.719,-18611.913,-109679.015,-123496.332,-74468.756,-20531.768,-18891.799,-12538.570,-0.418,0.874,-0.173,-0.702,-0.549,1.801,73.333,412.000,1.000
-14640.115,-18539.165,-109914.364,-123798.258,-74107.314,-20416.506,-18781.946,-12460.670,-0.419,0.874,-0.177,-0.793,-0.549,1.740,73.333,413.000,1.000
-14557.317,-18467.221,-110147.435,-124097.386,-73746.018,-20301.464,-18671.918,-12382.878,-0.420,0.873,-0.174,-0.824,-0.549,1.740,73.333,414.000,1.000
-14475.317,-18395.320,-110377.845,-124393.391,-73384.126,-20186.455,-18561.714,-12305.225,-0.419,0.874,-0.172,-0.763,-0.488,1.648,73.333,415.000,1.000
-14393.681,-18322.763,-110605.275,-124685.975,-73021.497,-20071.872,-18451.522,-12227.730,-0.419,0.871,-0.171,-0.763,-0.458,1.526,73.333,416.000,1.000
-14311.642,-18249.060,-110829.627,-124975.031,-72658.465,-19958.066,-18341.476,-12150.163,-0.418,0.869,-0.170,-0.732,-0.427,1.465,73.333,417.000,1.000
-14228.529,-18174.049,-111050.987,-125260.619,-72295.585,-19844.955,-18231.699,-12072.329,-0.420,0.870,-0.171,-0.610,-0.366,1.526,73.333,418.000,1.000
-14144.303,-18098.090,-111269.524,-125542.869,-71933.350,-19732.280,-18122.448,-11994.433,-0.421,0.870,-0.173,-0.641,-0.336,1.556,73.333,419.000,1.000
-14059.592,-18021.992,-111485.487,-125822.023,-71572.093,-19619.880,-18014.120,-11916.935,-0.419,0.870,-0.174,-0.549,-0.366,1.526,73.333,420.000,1.000
-13975.233,-17946.561,-111699.121,-126098.365,-71211.951,-19507.627,-17906.953,-11839.892,-0.419,0.871,-0.171,-0.488,-0.336,1.495,73.333,421.000,1.000
-13891.812,-17872.224,-111910.523,-126372.025,-70852.883,-19395.408,-17800.788,-11762.679,-0.419,0.873,-0.172,-0.427,-0.305,1.495,73.333,422.000,1.000
-13809.385,-17798.866,-112119.640,-126642.946,-70494.844,-19283.098,-17695.131,-11684.510,-0.418,0.871,-0.170,-0.366,-0.366,1.556,73.333,423.000,1.000
-13727.468,-17725.804,-112326.373,-126910.983,-70137.678,-19170.217,-17589.137,-11604.965,-0.421,0.871,-0.170,-0.275,-0.397,1.495,73.333,424.000,1.000
-13645.473,-17652.266,-112530.647,-127176.019,-69781.061,-19056.283,-17482.102,-11524.382,-0.423,0.872,-0.170,-0.153,-0.488,1.373,73.333,425.000,1.000
-13563.312,-17578.116,-112732.434,-127438.020,-69424.720,-18941.707,-17374.194,-11443.905,-0.422,0.872,-0.171,-0.244,-0.427,1.343,73.333,426.000,1.000
-13481.334,-17503.821,-112931.747,-127697.024,-69068.510,-18827.682,-17266.163,-11364.777,-0.423,0.873,-0.172,-0.244,-0.427,1.221,73.333,427.000,1.000
-13399.615,-17429.648,-113128.536,-127953.017,-68712.231,-18714.970,-17158.465,-11287.449,-0.423,0.872,-0.171,-0.244,-0.580,1.251,73.333,428.000,1.000
-13317.719,-17355.295,-113322.614,-128205.837,-68355.466,-18603.127,-17050.923,-11211.304,-0.423,0.873,-0.170,-0.244,-0.580,1.221,73.333,429.000,1.000
-13235.162,-17280.370,-113513.760,-128455.273,-67997.820,-18491.039,-16943.270,-11135.296,-0.423,0.872,-0.170,-0.275,-0.732,1.190,73.333,430.000,1.000
-13151.914,-17204.931,-113701.890,-128701.234,-67639.262,-18378.034,-16835.661,-11058.826,-0.423,0.871,-0.169,-0.305,-0.732,1.129,73.333,431.000,1.000
-13068.561,-17129.670,-113887.171,-128943.885,-67280.379,-18264.628,-16728.753,-10982.263,-0.423,0.871,-0.171,-0.305,-0.824,0.916,73.333,432.000,1.000
-12985.952,-17055.598,-114069.979,-129183.617,-66922.355,-18152.237,-16623.405,-10906.626,-0.423,0.870,-0.171,-0.305,-0.793,1.007,73.333,433.000,1.000
-12904.523,-16983.219,-114250.622,-129420.763,-66566.124,-18041.789,-16519.825,-10832.344,-0.423,0.871,-0.171,-0.214,-0.854,0.977,73.333,434.000,1.000
-12823.906,-16912.006,-114429.046,-129655.268,-66211.509,-17932.739,-16417.074,-10758.636,-0.423,0.871,-0.170,-0.122,-1.007,0.946,73.333,435.000,1.000
-12743.301,-16840.829,-114604.894,-129886.752,-65857.372,-17823.513,-16313.610,-10684.179,-0.422,0.870,-0.171,-0.092,-1.038,0.885,73.333,436.000,1.000
-12662.355,-16768.948,-114777.987,-130114.982,-65502.797,-17712.961,-16208.561,-10608.353,-0.424,0.870,-0.170,-0.092,-1.129,0.824,73.333,437.000,1.000
-12581.572,-16696.555,-114948.577,-130340.156,-65148.096,-17601.426,-16102.544,-10531.875,-0.424,0.872,-0.169,-0.092,-1.282,0.824,73.333,438.000,1.000
-12501.822,-16624.405,-115117.064,-130562.669,-64794.291,-17490.247,-15996.894,-10456.056,-0.422,0.872,-0.169,-0.061,-1.190,0.793,73.333,439.000,1.000
-12423.501,-16553.096,-115283.652,-130782.786,-64442.060,-17380.567,-15892.487,-10381.718,-0.421,0.873,-0.170,-0.153,-1.251,0.793,73.333,440.000,1.000
-12346.221,-16482.623,-115448.246,-131000.498,-64091.323,-17272.570,-15789.323,-10308.737,-0.422,0.873,-0.170,-0.092,-1.373,0.793,73.333,441.000,1.000
-12269.161,-16412.461,-115610.522,-131215.509,-63741.487,-17165.512,-15686.830,-10236.293,-0.421,0.875,-0.172,-0.092,-1.404,0.885,73.333,442.000,1.000
-12191.610,-16342.014,-115770.150,-131427.449,-63391.934,-17058.340,-15584.427,-10163.537,-0.420,0.874,-0.171,-0.122,-1.495,0.854,73.333,443.000,1.000
-12113.301,-16270.931,-115927.029,-131636.156,-63042.204,-16950.229,-15481.715,-10089.969,-0.421,0.873,-0.170,-0.122,-1.465,0.824,73.333,444.000,1.000
-12034.420,-16199.210,-116081.343,-131841.801,-62692.166,-16841.014,-15378.687,-10015.610,-0.420,0.874,-0.171,-0.183,-1.587,0.885,73.333,445.000,1.000
-11955.440,-16127.096,-116233.375,-132044.716,-62342.116,-16731.262,-15275.754,-9940.974,-0.421,0.876,-0.169,-0.183,-1.556,0.946,73.333,446.000,1.000
-11876.863,-16054.909,-116383.252,-132245.086,-61992.480,-16621.877,-15173.324,-9866.815,-0.418,0.877,-0.169,-0.183,-1.526,1.068,73.333,447.000,1.000
-11798.952,-15982.930,-116530.860,-132442.793,-61643.427,-16513.549,-15071.521,-9793.832,-0.418,0.875,-0.170,-0.244,-1.495,1.099,73.333,448.000,1.000
-11721.700,-15911.293,-116675.965,-132637.535,-61294.675,-16406.261,-14970.072,-9722.293,-0.420,0.874,-0.170,-0.275,-1.526,1.221,73.333,449.000,1.000
-11645.027,-15839.996,-116818.423,-132829.125,-60945.831,-16299.433,-14868.576,-9652.021,-0.422,0.876,-0.170,-0.214,-1.587,1.190,73.333,450.000,1.000
-11568.842,-15768.955,-116958.314,-133017.669,-60596.753,-16192.469,-14766.853,-9582.502,-0.425,0.875,-0.170,-0.305,-1.526,1.251,73.333,451.000,1.000
-11492.847,-15697.964,-117095.801,-133203.409,-60247.408,-16084.934,-14664.857,-9512.878,-0.426,0.874,-0.166,-0.305,-1.587,1.221,73.333,452.000,1.000
-11416.515,-15626.618,-117230.895,-133386.393,-59897.719,-15976.478,-14562.509,-9442.246,-0.426,0.875,-0.166,-0.305,-1.587,1.160,73.333,453.000,1.000
-11339.367,-15554.336,-117363.433,-133566.416,-59547.580,-15866.757,-14459.557,-9370.074,-0.425,0.875,-0.169,-0.305,-1.709,1.221,73.333,454.000,1.000
-11261.199,-15480.623,-117493.317,-133743.312,-59197.031,-15755.605,-14355.759,-9296.460,-0.426,0.875,-0.166,-0.427,-1.862,1.190,73.333,455.000,1.000
-11182.173,-15405.479,-117620.610,-133917.114,-58846.300,-15643.155,-14251.074,-9221.906,-0.427,0.873,-0.168,-0.488,-1.892,1.129,73.333,456.000,1.000
-11102.926,-15329.714,-117745.476,-134087.988,-58495.796,-15530.000,-14145.848,-9147.063,-0.427,0.872,-0.163,-0.580,-1.984,1.160,73.333,457.000,1.000
-11024.464,-15254.852,-117868.222,-134256.223,-58146.365,-15417.551,-14041.193,-9072.880,-0.428,0.874,-0.164,-0.549,-2.075,0.977,73.333,458.000,1.000
-10947.675,-15182.453,-117989.260,-134422.218,-57799.157,-15307.816,-13938.704,-9000.388,-0.426,0.871,-0.167,-0.610,-2.167,0.916,73.333,459.000,1.000
-10872.858,-15113.323,-118108.879,-134586.308,-57455.106,-15202.526,-13839.687,-8930.291,-0.426,0.868,-0.167,-0.488,-2.228,0.885,73.333,460.000,1.000
-10799.700,-15047.034,-118227.079,-134748.598,-57114.376,-15101.994,-13744.362,-8862.700,-0.426,0.868,-0.168,-0.458,-2.319,0.854,73.333,461.000,1.000
-10727.413,-14981.983,-118343.626,-134908.895,-56776.021,-15004.445,-13651.345,-8797.053,-0.427,0.868,-0.165,-0.366,-2.380,0.916,73.333,462.000,1.000
-10654.895,-14916.233,-118458.191,-135066.778,-56438.373,-14906.966,-13558.342,-8732.457,-0.428,0.866,-0.168,-0.336,-2.472,0.793,73.333,463.000,1.000
-10581.288,-14848.735,-118570.461,-135221.810,-56099.899,-14807.600,-13463.620,-8668.166,-0.426,0.864,-0.167,-0.153,-2.502,0.885,73.333,464.000,1.000
-10506.534,-14779.836,-118680.180,-135373.730,-55759.951,-14706.484,-13366.995,-8603.873,-0.424,0.863,-0.168,-0.214,-2.380,0.854,73.333,465.000,1.000
-10431.186,-14710.412,-118787.139,-135522.458,-55418.860,-14604.787,-13269.362,-8539.482,-0.424,0.863,-0.167,0.031,-2.350,0.824,73.333,466.000,1.000
-10355.699,-14640.700,-118891.252,-135668.006,-55077.385,-14502.991,-13171.519,-8474.579,-0.424,0.862,-0.165,0.153,-2.411,0.763,73.333,467.000,1.000
-10280.046,-14570.150,-118992.660,-135810.451,-54736.138,-14400.512,-13073.609,-8408.388,-0.425,0.861,-0.167,0.305,-2.350,0.671,73.333,468.000,1.000
-10203.982,-14498.180,-119091.715,-135949.994,-54395.352,-14296.386,-12975.171,-8340.180,-0.426,0.864,-0.168,0.549,-2.197,0.641,73.333,469.000,1.000
-10127.522,-14424.950,-119188.829,-136087.005,-54055.204,-14190.334,-12875.862,-8269.957,-0.426,0.865,-0.168,0.671,-2.258,0.641,73.333,470.000,1.000
-10051.123,-14351.394,-119284.281,-136221.889,-53716.072,-14083.327,-12776.144,-8198.647,-0.425,0.868,-0.169,0.793,-2.228,0.488,73.333,471.000,1.000
-9975.387,-14278.555,-119378.112,-136354.845,-53378.256,-13976.920,-12677.016,-8127.453,-0.425,0.869,-0.168,0.916,-2.197,0.336,73.333,472.000,1.000
-9900.626,-14206.956,-119470.110,-136485.684,-53041.614,-13872.058,-12579.165,-8057.102,-0.425,0.871,-0.169,0.885,-2.136,0.244,73.333,473.000,1.000
-9826.802,-14136.475,-119559.848,-136613.888,-52705.460,-13768.536,-12482.334,-7987.594,-0.422,0.872,-0.170,0.854,-2.167,0.214,73.333,474.000,1.000
-9753.695,-14066.548,-119646.891,-136738.945,-52368.999,-13665.475,-12385.669,-7918.553,-0.421,0.872,-0.171,0.854,-2.014,0.244,73.333,475.000,1.000
-9680.991,-13996.526,-119731.086,-136860.727,-52031.833,-13562.069,-12288.583,-7849.515,-0.421,0.874,-0.172,0.793,-1.892,0.214,73.333,476.000,1.000
-9608.492,-13926.245,-119812.685,-136979.547,-51694.218,-13458.245,-12191.364,-7780.108,-0.420,0.873,-0.172,0.763,-1.770,0.244,73.333,477.000,1.000
-9536.169,-13856.132,-119892.185,-137095.930,-51356.951,-13354.885,-12095.021,-7710.396,-0.419,0.871,-0.174,0.854,-1.434,0.305,73.333,478.000,1.000
-9463.865,-13786.406,-119970.026,-137210.283,-51020.669,-13252.923,-12000.232,-7640.752,-0.420,0.870,-0.173,0.793,-1.373,0.397,73.333,479.000,1.000
-9391.249,-13716.735,-120046.401,-137322.749,-50685.586,-13152.543,-11906.844,-7571.660,-0.419,0.868,-0.173,0.793,-1.312,0.519,73.333,480.000,1.000
-9318.239,-13646.860,-120121.221,-137433.215,-50351.769,-13053.362,-11814.257,-7503.678,-0.421,0.866,-0.174,0.854,-1.068,0.580,73.333,481.000,1.000
-9245.037,-13576.893,-120194.155,-137541.353,-50019.017,-12954.809,-11721.690,-7437.156,-0.420,0.865,-0.170,0.916,-0.916,0.671,73.333,482.000,1.000
-9171.718,-13506.873,-120264.777,-137646.754,-49686.743,-12856.189,-11628.346,-7371.901,-0.421,0.866,-0.170,1.068,-0.763,0.854,73.333,483.000,1.000
-9098.137,-13436.580,-120332.778,-137749.108,-49354.355,-12756.716,-11533.620,-7307.158,-0.422,0.866,-0.170,1.160,-0.641,0.824,73.333,484.000,1.000
-9024.208,-13365.940,-120398.102,-137848.363,-49021.913,-12656.054,-11437.544,-7242.238,-0.424,0.868,-0.174,1.099,-0.458,0.793,73.333,485.000,1.000
-8950.089,-13295.346,-120461.017,-137944.796,-48690.228,-12554.912,-11341.014,-7177.014,-0.424,0.869,-0.174,1.068,-0.458,0.946,73.333,486.000,1.000
-8876.251,-13225.531,-120522.044,-138038.945,-48360.268,-12454.930,-11245.424,-7111.780,-0.424,0.869,-0.175,1.099,-0.397,1.099,73.333,487.000,1.000
-8803.383,-13157.161,-120581.650,-138131.310,-48032.591,-12357.783,-11152.035,-7046.889,-0.424,0.868,-0.176,1.068,-0.244,1.160,73.333,488.000,1.000
-8732.062,-13090.393,-120639.906,-138221.984,-47706.964,-12263.922,-11061.178,-6982.287,-0.424,0.868,-0.175,1.068,-0.122,1.160,73.333,489.000,1.000
-8662.387,-13024.830,-120696.460,-138310.610,-47382.488,-12172.216,-10972.126,-6917.565,-0.424,0.870,-0.178,1.160,-0.061,1.160,73.333,490.000,1.000
-8593.883,-12959.831,-120750.857,-138396.704,-47058.131,-12080.691,-10883.622,-6852.495,-0.425,0.871,-0.177,1.312,0.000,1.221,73.333,491.000,1.000
-8525.773,-12894.817,-120802.892,-138480.029,-46733.250,-11987.559,-10794.483,-6787.291,-0.426,0.875,-0.179,1.282,0.183,1.404,73.333,492.000,1.000
-8457.406,-12829.482,-120852.703,-138560.712,-46407.890,-11891.961,-10704.149,-6722.362,-0.428,0.878,-0.176,1.221,0.275,1.404,73.333,493.000,1.000
-8388.501,-12763.807,-120900.557,-138639.023,-46082.405,-11794.049,-10612.678,-6657.771,-0.430,0.878,-0.174,1.160,0.183,1.373,73.333,494.000,1.000
-8319.038,-12697.867,-120946.560,-138715.067,-45756.952,-11694.707,-10520.426,-6593.230,-0.431,0.884,-0.174,0.946,0.061,1.465,73.333,495.000,1.000
-8249.046,-12631.551,-120990.577,-138788.693,-45431.365,-11595.002,-10427.634,-6528.486,-0.431,0.887,-0.172,0.732,0.092,1.648,73.333,496.000,1.000
-8178.650,-12564.607,-121032.371,-138859.651,-45105.332,-11495.604,-10334.183,-6463.384,-0.428,0.886,-0.175,0.702,0.061,1.617,73.333,497.000,1.000
-8108.238,-12497.044,-121071.789,-138927.819,-44778.871,-11396.679,-10239.974,-6397.891,-0.428,0.888,-0.176,0.397,0.031,1.709,73.333,498.000,1.000
-8038.341,-12429.269,-121108.869,-138993.297,-44452.472,-11298.026,-10145.257,-6332.043,-0.429,0.888,-0.175,0.183,0.092,1.831,73.333,499.000,1.000
-7969.273,-12361.714,-121143.842,-139056.353,-44126.757,-11199.291,-10050.490,-6265.834,-0.426,0.887,-0.176,-0.092,0.092,1.892,73.333,500.000,1.000
-7900.964,-12294.460,-121176.975,-139117.236,-43802.036,-11100.248,-9956.012,-6199.145,-0.426,0.887,-0.178,-0.275,0.122,2.106,73.333,501.000,1.000
-7833.059,-12227.343,-121208.331,-139175.976,-43478.213,-11001.045,-9861.999,-6131.920,-0.423,0.886,-0.180,-0.427,0.153,2.228,73.333,502.000,1.000
-7765.080,-12160.251,-121237.687,-139232.341,-43155.044,-10902.154,-9768.692,-6064.435,-0.420,0.885,-0.176,-0.580,0.244,2.502,73.333,503.000,1.000
-7696.695,-12093.219,-121264.801,-139286.087,-42832.294,-10803.939,-9676.316,-5997.179,-0.419,0.884,-0.175,-0.824,0.305,2.747,73.333,504.000,1.000
-7627.878,-12026.382,-121289.758,-139337.285,-42509.864,-10706.447,-9584.954,-5930.783,-0.419,0.883,-0.174,-1.038,0.336,2.808,73.333,505.000,1.000
-7558.777,-11959.792,-121312.909,-139386.270,-42187.758,-10609.438,-9494.408,-5865.881,-0.419,0.883,-0.172,-1.221,0.488,3.052,73.333,506.000,1.000
-7489.531,-11893.258,-121334.469,-139433.264,-41865.862,-10512.541,-9404.135,-5802.717,-0.419,0.880,-0.177,-1.465,0.458,3.235,73.333,507.000,1.000
-7420.226,-11826.347,-121354.349,-139478.214,-41544.043,-10415.611,-9313.605,-5741.030,-0.418,0.878,-0.177,-1.526,0.519,3.418,73.333,508.000,1.000
-7350.935,-11758.539,-121372.321,-139520.930,-41222.259,-10318.743,-9222.575,-5680.092,-0.418,0.877,-0.174,-1.526,0.610,3.510,73.333,509.000,1.000
-7281.832,-11689.769,-121388.281,-139561.310,-40900.782,-10222.337,-9131.388,-5619.094,-0.416,0.877,-0.172,-1.556,0.671,3.540,73.333,510.000,1.000
-7213.285,-11620.774,-121402.355,-139599.441,-40580.361,-10127.149,-9040.992,-5557.631,-0.413,0.877,-0.172,-1.617,0.824,3.784,73.333,511.000,1.000
-7145.671,-11552.512,-121414.763,-139635.495,-40261.777,-10033.637,-8952.109,-5495.753,-0.412,0.877,-0.173,-1.587,0.854,3.967,73.333,512.000,1.000
-7078.985,-11485.277,-121425.630,-139669.586,-39945.314,-9941.300,-8864.542,-5433.789,-0.412,0.874,-0.171,-1.648,0.977,4.181,73.333,513.000,1.000
-7012.792,-11418.516,-121434.895,-139701.697,-39630.544,-9848.894,-8777.209,-5372.041,-0.411,0.874,-0.172,-1.556,1.129,4.272,73.333,514.000,1.000
-6946.515,-11351.425,-121442.387,-139731.697,-39316.567,-9755.265,-8688.872,-5310.574,-0.411,0.872,-0.172,-1.495,1.190,4.333,73.333,515.000,1.000
-6879.732,-11283.625,-121447.927,-139759.411,-39002.394,-9659.860,-8598.812,-5249.147,-0.410,0.873,-0.168,-1.526,1.343,4.272,73.333,516.000,1.000
-6812.289,-11215.405,-121451.331,-139784.632,-38687.213,-9562.790,-8507.021,-5187.377,-0.410,0.870,-0.170,-1.587,1.556,4.242,73.333,517.000,1.000
-6744.430,-11147.629,-121452.438,-139807.201,-38370.838,-9465.031,-8414.330,-5125.239,-0.408,0.868,-0.171,-1.556,1.709,4.303,73.333,518.000,1.000
-6676.848,-11081.295,-121451.297,-139827.194,-38053.947,-9368.386,-8322.200,-5063.203,-0.406,0.868,-0.172,-1.495,1.770,4.333,73.333,519.000,1.000
-6610.218,-11016.677,-121448.226,-139844.947,-37737.812,-9274.617,-8232.028,-5001.834,-0.405,0.865,-0.168,-1.404,1.862,4.272,73.333,520.000,1.000
-6544.592,-10952.815,-121443.550,-139860.769,-37423.545,-9184.172,-8144.282,-4941.241,-0.406,0.865,-0.172,-1.343,2.045,4.272,73.333,521.000,1.000
-6479.439,-10888.229,-121437.379,-139874.736,-37111.613,-9095.987,-8058.388,-4881.210,-0.406,0.865,-0.172,-1.221,2.197,4.303,73.333,522.000,1.000
-6414.211,-10822.141,-121429.692,-139886.794,-36802.122,-9008.654,-7973.635,-4821.909,-0.407,0.866,-0.168,-1.038,2.350,4.089,73.333,523.000,1.000
-6348.670,-10754.728,-121420.407,-139896.856,-36494.945,-8921.073,-7889.503,-4763.834,-0.409,0.865,-0.168,-0.916,2.441,3.906,73.333,524.000,1.000
-6282.799,-10686.603,-121409.334,-139904.758,-36189.572,-8832.316,-7805.409,-4707.185,-0.408,0.867,-0.169,-0.946,2.502,3.784,73.333,525.000,1.000
-6216.834,-10618.585,-121396.247,-139910.315,-35885.254,-8741.951,-7720.969,-4651.567,-0.411,0.868,-0.169,-0.946,2.625,3.693,73.333,526.000,1.000
-6151.422,-10551.728,-121381.106,-139913.522,-35581.398,-8650.735,-7636.536,-4596.157,-0.414,0.872,-0.166,-1.007,2.625,3.571,73.333,527.000,1.000
-6087.297,-10486.895,-121364.132,-139914.619,-35277.964,-8560.275,-7553.016,-4540.216,-0.414,0.875,-0.167,-1.007,2.502,3.265,73.333,528.000,1.000
-6024.744,-10424.199,-121345.628,-139913.893,-34975.332,-8471.777,-7470.990,-4483.434,-0.413,0.873,-0.170,-1.007,2.472,3.113,73.333,529.000,1.000
-5963.422,-10363.078,-121325.764,-139911.455,-34673.850,-8385.706,-7390.501,-4426.009,-0.412,0.870,-0.169,-1.007,2.533,3.052,73.333,530.000,1.000
-5902.502,-10302.581,-121304.531,-139907.217,-34373.534,-8302.028,-7311.228,-4368.276,-0.412,0.868,-0.173,-1.007,2.533,2.899,73.333,531.000,1.000
-5840.985,-10241.541,-121281.800,-139901.011,-34074.064,-8219.873,-7232.372,-4310.265,-0.413,0.866,-0.174,-1.068,2.533,2.838,73.333,532.000,1.000
-5778.152,-10178.888,-121257.357,-139892.649,-33775.097,-8137.490,-7152.903,-4251.859,-0.414,0.868,-0.171,-0.793,2.594,2.594,73.333,533.000,1.000
-5713.889,-10114.110,-121230.987,-139881.978,-33476.507,-8053.117,-7072.099,-4193.055,-0.414,0.865,-0.171,-0.763,2.472,2.502,73.333,534.000,1.000
-5648.627,-10047.554,-121202.594,-139868.948,-33178.389,-7965.998,-6989.937,-4133.953,-0.415,0.865,-0.169,-0.641,2.533,2.441,73.333,535.000,1.000
-5583.117,-9980.219,-121172.225,-139853.624,-32880.853,-7876.475,-6906.970,-4074.549,-0.416,0.870,-0.168,-0.488,2.594,2.380,73.333,536.000,1.000
-5518.233,-9913.269,-121140.065,-139836.208,-32584.033,-7785.585,-6824.023,-4014.805,-0.419,0.872,-0.172,-0.305,2.441,2.167,73.333,537.000,1.000
-5454.602,-9847.606,-121106.420,-139817.046,-32288.285,-7694.806,-6741.995,-3954.953,-0.420,0.873,-0.169,-0.305,2.350,2.045,73.333,538.000,1.000
-5392.231,-9783.536,-121071.568,-139796.452,-31993.773,-7605.398,-6661.180,-3895.314,-0.419,0.874,-0.167,-0.153,2.136,1.862,73.333,539.000,1.000
-5330.592,-9720.738,-121035.573,-139774.471,-31700.144,-7517.786,-6580.995,-3836.176,-0.422,0.875,-0.171,-0.092,1.953,1.892,73.333,540.000,1.000
-5269.094,-9658.615,-120998.245,-139750.840,-31407.008,-7431.739,-6500.686,-3777.939,-0.422,0.877,-0.172,-0.092,1.770,1.892,73.333,541.000,1.000
-5207.435,-9596.691,-120959.269,-139725.164,-31114.415,-7346.828,-6419.976,-3720.967,-0.424,0.876,-0.171,-0.061,1.678,1.740,73.333,542.000,1.000
-5145.527,-9534.628,-120918.330,-139697.117,-30822.630,-7262.581,-6339.074,-3665.247,-0.423,0.879,-0.173,0.000,1.526,1.678,73.333,543.000,1.000
-5083.348,-9472.059,-120875.214,-139666.550,-30531.536,-7178.334,-6258.207,-3610.299,-0.422,0.879,-0.175,0.000,1.343,1.526,73.333,544.000,1.000
-5020.976,-9408.619,-120829.931,-139633.529,-30240.645,-7093.315,-6177.424,-3555.530,-0.417,0.877,-0.172,0.061,1.099,1.556,73.333,545.000,1.000
-4958.587,-9344.098,-120782.656,-139598.223,-29949.442,-7007.004,-6096.592,-3500.456,-0.415,0.878,-0.172,0.092,1.068,1.648,73.333,546.000,1.000
-4896.392,-9278.730,-120733.601,-139560.805,-29657.626,-6919.739,-6015.651,-3444.764,-0.413,0.879,-0.174,0.153,0.977,1.556,73.333,547.000,1.000
-4834.650,-9213.302,-120683.036,-139521.517,-29365.495,-6833.022,-5935.159,-3388.563,-0.414,0.881,-0.174,0.244,0.916,1.770,73.333,548.000,1.000
-4773.603,-9148.764,-120631.287,-139480.684,-29073.905,-6748.519,-5856.001,-3332.232,-0.415,0.882,-0.175,0.336,0.854,1.862,73.333,549.000,1.000
-4713.281,-9085.718,-120578.552,-139438.529,-28783.800,-6666.702,-5778.626,-3276.120,-0.417,0.880,-0.175,0.336,0.732,1.953,73.333,550.000,1.000
-4653.318,-9024.023,-120524.717,-139394.966,-28495.548,-6586.244,-5702.447,-3220.330,-0.416,0.879,-0.175,0.275,0.671,1.923,73.333,551.000,1.000
-4593.027,-8962.737,-120469.337,-139349.565,-28208.465,-6504.533,-5625.857,-3164.536,-0.415,0.878,-0.175,0.427,0.610,1.892,73.333,552.000,1.000
-4532.020,-8900.950,-120411.923,-139301.831,-27921.452,-6419.691,-5547.606,-3108.469,-0.415,0.875,-0.176,0.519,0.549,1.923,73.333,553.000,1.000
-4470.757,-8838.688,-120352.317,-139251.580,-27634.025,-6332.336,-5468.096,-3052.475,-0.411,0.874,-0.180,0.702,0.427,2.106,73.333,554.000,1.000
-4410.074,-8776.607,-120290.751,-139199.021,-27346.572,-6244.912,-5388.878,-2997.322,-0.410,0.873,-0.178,0.854,0.488,2.258,73.333,555.000,1.000
-4350.248,-8714.922,-120227.620,-139144.549,-27059.675,-6159.351,-5311.016,-2943.378,-0.410,0.874,-0.177,1.007,0.549,2.319,73.333,556.000,1.000
-4290.776,-8653.095,-120163.225,-139088.494,-26773.393,-6075.747,-5234.259,-2890.162,-0.413,0.873,-0.177,1.129,0.427,2.319,73.333,557.000,1.000
-4230.878,-8590.491,-120097.611,-139030.936,-26487.324,-5993.033,-5157.695,-2836.813,-0.415,0.873,-0.173,1.190,0.397,2.289,73.333,558.000,1.000
-4170.125,-8526.986,-120030.593,-138971.709,-26201.118,-5910.138,-5080.532,-2782.715,-0.417,0.875,-0.172,1.251,0.275,2.350,73.333,559.000,1.000
-4108.843,-8463.072,-119961.991,-138910.644,-25915.053,-5826.742,-5002.583,-2727.918,-0.418,0.875,-0.174,1.160,0.153,2.258,73.333,560.000,1.000
-4048.038,-8399.628,-119891.778,-138847.708,-25630.022,-5743.488,-4924.449,-2673.108,-0.417,0.875,-0.171,1.068,-0.031,2.167,73.333,561.000,1.000
-3988.787,-8337.512,-119819.972,-138782.886,-25346.788,-5661.424,-4847.130,-2619.083,-0.416,0.875,-0.172,1.038,-0.153,2.075,73.333,562.000,1.000
-3931.504,-8277.113,-119746.530,-138716.092,-25065.452,-5581.052,-4771.328,-2566.223,-0.416,0.873,-0.168,1.007,-0.305,1.984,73.333,563.000,1.000
-3875.661,-8218.077,-119671.416,-138647.251,-24785.472,-5501.768,-4696.866,-2514.156,-0.419,0.873,-0.171,0.885,-0.488,1.892,73.333,564.000,1.000
-3820.044,-8159.425,-119594.662,-138576.389,-24506.016,-5422.295,-4622.838,-2461.983,-0.419,0.875,-0.172,0.793,-0.549,1.740,73.333,565.000,1.000
-3763.386,-8100.023,-119516.357,-138503.628,-24226.414,-5341.670,-4548.281,-2408.978,-0.417,0.876,-0.170,0.793,-0.671,1.648,73.333,566.000,1.000
-3705.091,-8039.239,-119436.651,-138429.169,-23946.599,-5260.040,-4472.827,-2355.178,-0.415,0.875,-0.168,0.732,-0.671,1.526,73.333,567.000,1.000
-3645.486,-7977.199,-119355.712,-138353.216,-23667.146,-5178.359,-4396.762,-2301.297,-0.415,0.876,-0.173,0.671,-0.885,1.434,73.333,568.000,1.000
-3585.416,-7914.359,-119273.546,-138275.782,-23388.483,-5097.077,-4320.250,-2247.818,-0.412,0.875,-0.173,0.610,-0.977,1.343,73.333,569.000,1.000
-3525.714,-7851.257,-119189.931,-138196.644,-23110.502,-5015.850,-4243.239,-2194.657,-0.411,0.875,-0.175,0.549,-1.007,1.160,73.333,570.000,1.000
-3466.936,-7788.587,-119104.627,-138115.555,-22833.018,-4934.280,-4165.990,-2141.570,-0.410,0.874,-0.174,0.549,-0.946,1.160,73.333,571.000,1.000
-3409.191,-7726.903,-119017.577,-138032.442,-22556.123,-4852.163,-4088.906,-2088.424,-0.408,0.873,-0.174,0.519,-0.885,1.068,73.333,572.000,1.000
-3352.127,-7666.241,-118928.916,-137947.414,-22280.222,-4769.586,-4012.244,-2035.271,-0.410,0.872,-0.172,0.458,-0.885,1.099,73.333,573.000,1.000
-3295.300,-7606.266,-118838.829,-137860.636,-22005.740,-4687.142,-3936.207,-1982.283,-0.408,0.871,-0.176,0.488,-0.885,1.007,73.333,574.000,1.000
-3238.578,-7546.751,-118747.452,-137772.236,-21732.858,-4605.793,-3861.141,-1929.731,-0.408,0.871,-0.175,0.519,-0.854,1.068,73.333,575.000,1.000
-3182.144,-7487.702,-118654.849,-137682.296,-21461.461,-4526.182,-3787.313,-1877.811,-0.410,0.871,-0.177,0.580,-0.824,1.007,73.333,576.000,1.000
-3126.177,-7429.081,-118561.024,-137590.867,-21191.108,-4448.077,-3714.422,-1826.313,-0.411,0.874,-0.173,0.702,-0.671,0.946,73.333,577.000,1.000
-3070.504,-7370.529,-118465.910,-137497.929,-20921.082,-4370.485,-3641.620,-1774.705,-0.409,0.875,-0.173,0.732,-0.580,0.977,73.333,578.000,1.000
-3014.600,-7311.473,-118369.305,-137403.288,-20650.580,-4292.152,-3567.921,-1722.445,-0.409,0.876,-0.174,0.793,-0.610,0.946,73.333,579.000,1.000
-2958.001,-7251.632,-118270.967,-137306.666,-20379.248,-4212.419,-3492.948,-1669.433,-0.411,0.876,-0.175,0.702,-0.458,0.916,73.333,580.000,1.000
-2900.867,-7191.424,-118170.898,-137208.008,-20107.530,-4131.849,-3417.443,-1616.297,-0.412,0.876,-0.175,0.610,-0.488,0.916,73.333,581.000,1.000
-2843.994,-7131.713,-118069.461,-137107.612,-19836.260,-4051.815,-3342.717,-1564.154,-0.412,0.878,-0.173,0.580,-0.519,0.885,73.333,582.000,1.000
-2788.047,-7073.056,-117967.059,-137005.841,-19566.001,-3973.408,-3269.523,-1513.920,-0.413,0.877,-0.171,0.488,-0.519,0.885,73.333,583.000,1.000
-2732.925,-7015.211,-117863.746,-136902.760,-19296.636,-3896.668,-3197.470,-1465.656,-0.414,0.879,-0.172,0.458,-0.580,0.824,73.333,584.000,1.000
-2677.893,-6957.413,-117759.208,-136798.116,-19027.660,-3820.813,-3125.585,-1418.696,-0.416,0.880,-0.173,0.488,-0.763,0.824,73.333,585.000,1.000
-2622.144,-6898.868,-117653.057,-136691.605,-18758.722,-3744.843,-3053.064,-1372.173,-0.418,0.879,-0.173,0.427,-0.793,0.824,73.333,586.000,1.000
-2565.342,-6839.182,-117545.078,-136583.078,-18489.918,-3668.112,-2979.648,-1325.425,-0.417,0.877,-0.172,0.214,-0.763,0.854,73.333,587.000,1.000
-2507.882,-6778.659,-117435.360,-136472.638,-18221.921,-3590.897,-2906.028,-1278.385,-0.420,0.877,-0.169,0.092,-0.824,0.793,73.333,588.000,1.000
-2450.679,-6718.126,-117324.271,-136360.601,-17955.588,-3514.248,-2833.541,-1231.531,-0.421,0.875,-0.169,0.031,-1.007,0.671,73.333,589.000,1.000
-2394.674,-6658.379,-117212.229,-136247.322,-17691.443,-3439.298,-2763.315,-1185.562,-0.418,0.874,-0.171,0.031,-1.221,0.732,73.333,590.000,1.000
-2340.393,-6599.691,-117099.367,-136132.918,-17429.455,-3366.440,-2695.527,-1140.887,-0.420,0.874,-0.171,-0.031,-1.282,0.549,73.333,591.000,1.000
-2287.681,-6541.610,-116985.429,-136017.150,-17168.932,-3294.581,-2629.043,-1096.990,-0.422,0.870,-0.168,-0.122,-1.434,0.580,73.333,592.000,1.000
-2235.702,-6483.201,-116870.008,-135899.625,-16908.794,-3221.468,-2561.952,-1052.528,-0.422,0.871,-0.168,-0.031,-1.495,0.549,73.333,593.000,1.000
-2183.411,-6423.626,-116752.883,-135780.125,-16648.131,-3145.125,-2492.622,-1006.162,-0.422,0.870,-0.171,-0.061,-1.587,0.458,73.333,594.000,1.000
-2130.212,-6362.816,-116634.137,-135658.730,-16386.739,-3065.457,-2420.823,-957.528,-0.421,0.870,-0.171,-0.031,-1.648,0.305,73.333,595.000,1.000
-2076.152,-6301.579,-116514.036,-135535.707,-16125.149,-2984.470,-2347.961,-907.464,-0.420,0.871,-0.172,0.000,-1.831,0.305,73.333,596.000,1.000
-2021.560,-6240.944,-116392.778,-135411.264,-15864.151,-2904.691,-2275.957,-857.317,-0.420,0.871,-0.173,0.031,-1.831,0.275,73.333,597.000,1.000
-1966.715,-6181.499,-116270.327,-135285.401,-15604.378,-2827.519,-2206.079,-808.066,-0.418,0.873,-0.172,0.031,-1.831,0.275,73.333,598.000,1.000
-1911.948,-6123.315,-116146.500,-135157.968,-15346.011,-2752.866,-2138.467,-759.793,-0.419,0.872,-0.172,0.061,-1.862,0.244,73.333,599.000,1.000
-1857.733,-6066.205,-116021.195,-135028.853,-15088.819,-2679.814,-2072.327,-711.857,-0.418,0.871,-0.173,0.092,-1.953,0.244,73.333,600.000,1.000
-1804.453,-6009.797,-115894.496,-134898.071,-14832.432,-2607.143,-2006.298,-663.406,-0.418,0.870,-0.172,0.122,-2.014,0.183,73.333,601.000,1.000
-1752.158,-5953.625,-115766.593,-134765.742,-14576.535,-2533.752,-1939.026,-613.852,-0.417,0.872,-0.172,0.275,-1.953,0.122,73.333,602.000,1.000
-1700.581,-5897.512,-115637.701,-134632.063,-14321.152,-2459.453,-1870.034,-563.274,-0.418,0.872,-0.172,0.275,-1.892,0.305,73.333,603.000,1.000
-1649.276,-5841.651,-115507.943,-134497.206,-14066.494,-2384.937,-1799.733,-512.242,-0.419,0.873,-0.175,0.305,-1.953,0.183,73.333,604.000,1.000
-1597.821,-5786.229,-115377.268,-134361.186,-13812.507,-2310.833,-1728.841,-461.479,-0.417,0.874,-0.176,0.305,-1.923,0.275,73.333,605.000,1.000
-1546.153,-5731.228,-115245.472,-134223.842,-13558.893,-2237.306,-1658.199,-411.871,-0.415,0.875,-0.173,0.397,-1.923,0.214,73.333,606.000,1.000
-1494.706,-5676.563,-115112.343,-134084.954,-13305.541,-2164.398,-1588.680,-364.416,-0.414,0.875,-0.176,0.336,-1.923,0.305,73.333,607.000,1.000
-1444.066,-5622.187,-114977.781,-133944.386,-13052.729,-2092.230,-1520.890,-319.734,-0.410,0.874,-0.176,0.244,-1.862,0.275,73.333,608.000,1.000
-1394.595,-5568.046,-114841.780,-133802.110,-12800.756,-2020.761,-1454.791,-277.415,-0.411,0.876,-0.177,0.336,-1.587,0.458,73.333,609.000,1.000
-1346.317,-5514.129,-114704.378,-133658.168,-12549.770,-1949.795,-1389.899,-236.204,-0.411,0.878,-0.176,0.427,-1.526,0.641,73.333,610.000,1.000
-1298.921,-5460.434,-114565.655,-133512.668,-12299.923,-1879.130,-1325.667,-194.763,-0.411,0.878,-0.174,0.336,-1.404,0.671,73.333,611.000,1.000
-1251.809,-5406.759,-114425.687,-133365.725,-12051.249,-1808.470,-1261.483,-152.088,-0.411,0.878,-0.176,0.366,-1.221,0.732,73.333,612.000,1.000
-1204.289,-5352.674,-114284.514,-133217.383,-11803.467,-1737.486,-1196.756,-107.742,-0.410,0.879,-0.175,0.244,-1.251,0.732,73.333,613.000,1.000
-1155.827,-5297.768,-114142.171,-133067.635,-11555.991,-1665.939,-1131.056,-61.850,-0.413,0.881,-0.173,0.153,-1.068,0.793,73.333,614.000,1.000
-1106.017,-5241.709,-113998.674,-132916.433,-11308.269,-1593.610,-1064.178,-14.889,-0.413,0.881,-0.176,0.031,-0.885,0.916,73.333,615.000,1.000
-1054.374,-5184.003,-113853.919,-132763.638,-11060.032,-1520.078,-995.943,32.602,-0.415,0.881,-0.175,-0.092,-0.793,0.977,73.333,616.000,1.000
-1000.549,-5124.253,-113707.719,-132609.083,-10811.277,-1445.013,-926.248,80.152,-0.414,0.879,-0.174,-0.153,-0.763,0.916,73.333,617.000,1.000
-944.887,-5062.819,-113559.988,-132452.744,-10562.318,-1369.155,-855.784,127.201,-0.414,0.878,-0.173,-0.275,-0.610,0.946,73.333,618.000,1.000
-888.474,-5000.741,-113410.819,-132294.768,-10313.581,-1294.175,-785.925,173.297,-0.414,0.879,-0.172,-0.458,-0.488,1.038,73.333,619.000,1.000
-832.547,-4939.020,-113260.434,-132135.386,-10065.467,-1221.308,-717.714,218.378,-0.414,0.879,-0.171,-0.549,-0.488,1.099,73.333,620.000,1.000
-777.950,-4878.230,-113109.055,-131974.788,-9818.250,-1150.547,-651.263,262.817,-0.414,0.879,-0.173,-0.641,-0.427,1.007,73.333,621.000,1.000
-725.043,-4818.597,-112956.776,-131813.031,-9571.810,-1080.930,-585.882,307.224,-0.413,0.877,-0.172,-0.671,-0.366,1.129,73.333,622.000,1.000
-673.917,-4760.168,-112803.579,-131650.071,-9325.853,-1011.207,-520.625,351.932,-0.412,0.877,-0.174,-0.671,-0.214,1.221,73.333,623.000,1.000
-624.587,-4702.804,-112649.408,-131485.844,-9080.299,-940.263,-454.680,396.905,-0.411,0.879,-0.171,-0.763,-0.031,1.221,73.333,624.000,1.000
-576.910,-4646.261,-112494.204,-131320.296,-8835.411,-867.745,-387.804,442.014,-0.410,0.877,-0.172,-0.763,0.061,1.312,73.333,625.000,1.000
-530.470,-4590.515,-112337.914,-131153.395,-8591.647,-794.556,-320.595,487.228,-0.413,0.875,-0.172,-0.793,0.183,1.373,73.333,626.000,1.000
-484.713,-4535.880,-112180.553,-130985.201,-8349.463,-722.282,-254.097,532.581,-0.412,0.874,-0.173,-0.763,0.397,1.373,73.333,627.000,1.000
-439.162,-4482.698,-112022.241,-130815.870,-8109.244,-652.127,-189.268,577.819,-0.411,0.873,-0.175,-0.763,0.549,1.495,73.333,628.000,1.000
-393.438,-4430.995,-111863.072,-130645.522,-7871.021,-584.322,-126.437,622.418,-0.412,0.872,-0.176,-0.702,0.610,1.617,73.333,629.000,1.000
-347.156,-4380.497,-111703.001,-130474.112,-7634.357,-518.327,-65.135,666.034,-0.412,0.872,-0.177,-0.549,0.671,1.678,73.333,630.000,1.000
-300.047,-4330.862,-111541.905,-130301.487,-7398.650,-453.388,-4.462,708.850,-0.412,0.871,-0.176,-0.580,0.824,1.709,73.333,631.000,1.000
-252.107,-4281.674,-111379.705,-130127.506,-7163.405,-388.734,56.503,751.467,-0.414,0.874,-0.174,-0.519,1.038,1.709,73.333,632.000,1.000
-203.443,-4232.266,-111216.382,-129952.081,-6928.469,-323.573,118.327,794.359,-0.413,0.876,-0.172,-0.488,1.129,1.709,73.333,633.000,1.000
-154.166,-4181.853,-111051.917,-129775.149,-6693.946,-257.214,181.105,837.553,-0.414,0.875,-0.173,-0.397,1.190,1.740,73.333,634.000,1.000
-104.598,-4130.056,-110886.243,-129596.667,-6459.973,-189.555,244.414,880.474,-0.416,0.875,-0.174,-0.336,1.282,1.740,73.333,635.000,1.000
-55.429,-4077.121,-110719.312,-129416.664,-6226.718,-121.456,307.410,922.049,-0.417,0.876,-0.174,-0.275,1.312,1.831,73.333,636.000,1.000
-7.424,-4023.529,-110551.165,-129235.252,-5994.297,-54.345,369.289,961.523,-0.415,0.875,-0.175,-0.214,1.373,1.923,73.333,637.000,1.000
39.028,-3969.638,-110381.911,-129052.570,-5762.740,10.594,429.632,999.198,-0.415,0.875,-0.177,-0.275,1.373,1.923,73.333,638.000,1.000
84.088,-3915.553,-110211.666,-128868.744,-5531.976,73.322,488.683,1036.456,-0.415,0.875,-0.175,-0.305,1.404,1.801,73.333,639.000,1.000
128.439,-3861.053,-110040.459,-128683.805,-5301.776,135.285,547.323,1075.022,-0.417,0.873,-0.173,-0.244,1.373,1.892,73.333,640.000,1.000
173.090,-3805.702,-109868.190,-128497.657,-5071.862,198.598,606.529,1116.021,-0.419,0.872,-0.174,-0.183,1.404,1.923,73.333,641.000,1.000
218.954,-3749.224,-109694.815,-128310.230,-4842.160,264.543,666.699,1159.484,-0.418,0.873,-0.175,-0.092,1.465,1.801,73.333,642.000,1.000
266.444,-3691.872,-109520.492,-128121.600,-4612.825,332.727,727.402,1204.385,-0.418,0.874,-0.173,-0.061,1.556,1.862,73.333,643.000,1.000
315.222,-3634.443,-109345.388,-127931.866,-4383.869,401.677,787.902,1249.214,-0.417,0.875,-0.172,-0.153,1.465,1.892,73.333,644.000,1.000
364.402,-3577.938,-109169.492,-127741.027,-4155.154,469.829,847.651,1292.633,-0.417,0.876,-0.173,-0.153,1.587,1.831,73.333,645.000,1.000
413.099,-3523.024,-108992.668,-127549.026,-3926.679,536.178,906.440,1334.043,-0.415,0.878,-0.175,-0.183,1.465,1.831,73.333,646.000,1.000
460.879,-3469.686,-108814.739,-127355.730,-3698.464,600.776,964.652,1373.894,-0.413,0.878,-0.175,-0.061,1.556,1.862,73.333,647.000,1.000
507.785,-3417.319,-108635.512,-127160.904,-3470.447,664.713,1023.204,1413.266,-0.413,0.878,-0.177,-0.122,1.556,1.862,73.333,648.000,1.000
554.097,-3365.119,-108454.882,-126964.359,-3242.570,729.370,1083.074,1453.209,-0.411,0.878,-0.177,-0.214,1.617,1.892,73.333,649.000,1.000
600.110,-3312.612,-108272.947,-126766.215,-3015.050,795.226,1144.493,1494.141,-0.412,0.879,-0.176,-0.153,1.740,1.892,73.333,650.000,1.000
645.815,-3259.978,-108089.999,-126566.912,-2788.522,861.357,1206.553,1535.590,-0.414,0.878,-0.178,-0.153,1.678,1.923,73.333,651.000,1.000
690.739,-3207.854,-107906.373,-126366.916,-2563.637,926.238,1267.835,1576.635,-0.414,0.876,-0.177,-0.153,1.709,2.014,73.333,652.000,1.000
734.339,-3156.777,-107722.243,-126166.354,-2340.579,988.934,1327.354,1616.734,-0.413,0.876,-0.178,-0.244,1.801,1.984,73.333,653.000,1.000
776.521,-3106.761,-107537.530,-125964.966,-2118.845,1049.758,1385.229,1656.291,-0.411,0.878,-0.177,-0.275,1.892,2.014,73.333,654.000,1.000
817.805,-3057.302,-107351.946,-125762.348,-1897.579,1110.048,1442.567,1696.224,-0.410,0.879,-0.178,-0.275,1.892,2.014,73.333,655.000,1.000
859.122,-3007.723,-107165.146,-125558.202,-1676.063,1171.432,1500.768,1737.180,-0.409,0.881,-0.177,-0.336,1.892,2.045,73.333,656.000,1.000
901.311,-2957.704,-106976.928,-125352.438,-1454.010,1234.853,1560.639,1779.148,-0.409,0.880,-0.177,-0.305,1.923,2.136,73.333,657.000,1.000
944.658,-2907.687,-106787.470,-125145.232,-1231.932,1299.526,1621.534,1821.235,-0.408,0.881,-0.176,-0.366,2.045,2.228,73.333,658.000,1.000
988.858,-2858.625,-106597.302,-124937.004,-1011.170,1363.141,1681.550,1861.957,-0.408,0.881,-0.176,-0.397,2.197,2.228,73.333,659.000,1.000
1033.297,-2811.221,-106406.873,-124728.163,-793.157,1423.494,1738.801,1900.129,-0.410,0.881,-0.176,-0.458,2.228,2.380,73.333,660.000,1.000
1077.288,-2765.391,-106216.146,-124518.808,-578.355,1480.065,1792.696,1935.745,-0.407,0.880,-0.176,-0.427,2.380,2.350,73.333,661.000,1.000
1120.310,-2720.246,-106024.759,-124308.728,-365.917,1534.433,1844.436,1970.145,-0.405,0.879,-0.176,-0.397,2.563,2.411,73.333,662.000,1.000
1162.278,-2674.456,-105832.550,-124097.649,-154.408,1589.316,1896.259,2005.125,-0.405,0.879,-0.175,-0.488,2.625,2.441,73.333,663.000,1.000
1203.537,-2626.805,-105639.642,-123885.343,57.431,1647.103,1950.191,2041.884,-0.401,0.880,-0.176,-0.549,2.747,2.411,73.333,664.000,1.000
1244.581,-2576.726,-105445.987,-123671.600,270.150,1708.621,2006.914,2080.476,-0.400,0.881,-0.176,-0.519,3.021,2.502,73.333,665.000,1.000
1285.864,-2524.487,-105251.163,-123456.318,483.444,1772.827,2065.432,2120.057,-0.398,0.881,-0.178,-0.488,3.143,2.472,73.333,666.000,1.000
1327.752,-2470.841,-105054.912,-123239.602,696.609,1837.733,2123.998,2159.626,-0.400,0.880,-0.179,-0.519,3.418,2.502,73.333,667.000,1.000
1370.475,-2416.563,-104858.024,-123021.705,908.922,1901.515,2181.245,2198.389,-0.398,0.878,-0.180,-0.488,3.632,2.533,73.333,668.000,1.000
1413.959,-2362.291,-104662.107,-122802.870,1119.864,1963.137,2236.761,2235.868,-0.397,0.878,-0.179,-0.427,3.967,2.533,73.333,669.000,1.000
1457.795,-2308.582,-104467.506,-122583.176,1329.372,2022.523,2290.935,2272.020,-0.396,0.877,-0.181,-0.305,4.333,2.533,73.333,670.000,1.000
1501.461,-2255.853,-104272.123,-122362.495,1537.865,2080.392,2344.477,2307.415,-0.394,0.875,-0.182,-0.305,4.608,2.441,73.333,671.000,1.000
1544.523,-2204.250,-104076.553,-122140.687,1745.986,2137.824,2398.064,2343.173,-0.396,0.875,-0.183,-0.214,4.913,2.411,73.333,672.000,1.000
1586.814,-2153.573,-103895.394,-121917.932,1954.249,2195.766,2452.138,2380.298,-0.393,0.876,-0.182,-0.092,5.280,2.350,73.333,673.000,1.000
1628.537,-2103.324,-103753.577,-121694.726,2162.872,2254.851,2506.974,2419.100,-0.393,0.876,-0.181,0.061,5.524,2.350,73.333,674.000,1.000
1670.163,-2052.959,-103651.829,-121471.188,2371.632,2315.237,2562.610,2459.070,-0.395,0.878,-0.181,0.122,5.951,2.319,73.333,675.000,1.000
1712.164,-2001.984,-103546.166,-121246.425,2580.167,2376.785,2619.057,2499.381,-0.394,0.880,-0.181,0.214,6.378,2.319,73.333,676.000,1.000
1754.785,-1949.947,-103392.076,-121019.251,2788.508,2439.504,2676.720,2539.625,-0.392,0.880,-0.185,0.244,6.683,2.350,73.333,677.000,1.000
1797.896,-1897.018,-103210.611,-120789.665,2996.579,2503.140,2735.722,2579.669,-0.391,0.882,-0.183,0.244,7.172,2.136,73.333,678.000,1.000
1840.905,-1844.505,-103080.051,-120559.102,3203.482,2566.474,2794.942,2619.123,-0.389,0.886,-0.187,0.214,7.599,2.319,73.333,679.000,1.000
1882.978,-1794.187,-103038.229,-120329.011,3407.973,2627.653,2852.338,2657.362,-0.389,0.886,-0.188,0.214,8.057,2.380,73.333,680.000,1.000
1923.452,-1747.145,-103019.494,-120099.610,3609.439,2685.291,2906.243,2693.960,-0.387,0.886,-0.186,0.000,8.423,2.411,73.333,681.000,1.000
1961.957,-1703.510,-102931.776,-119870.221,3808.007,2738.958,2955.997,2728.650,-0.385,0.885,-0.186,-0.061,8.881,2.502,73.333,682.000,1.000
1998.451,-1662.723,-102781.594,-119640.247,4004.102,2789.012,3001.729,2761.115,-0.385,0.887,-0.185,-0.031,9.369,2.563,73.333,683.000,1.000
2033.477,-1623.400,-102672.549,-119409.393,4198.544,2836.788,3044.549,2791.620,-0.386,0.888,-0.188,-0.031,9.827,2.686,73.333,684.000,1.000
2068.172,-1583.647,-102671.376,-119177.451,4392.335,2884.302,3086.418,2821.278,-0.388,0.889,-0.192,0.000,10.315,2.716,73.333,685.000,1.000
2103.663,-1542.095,-102720.705,-118944.310,4586.046,2933.200,3129.204,2851.220,-0.386,0.891,-0.191,-0.153,10.925,2.777,73.333,686.000,1.000
2140.558,-1498.436,-102716.282,-118709.828,4779.979,2984.313,3174.072,2881.958,-0.385,0.893,-0.190,-0.244,11.475,3.021,73.333,687.000,1.000
2179.060,-1452.997,-102639.864,-118473.518,4974.669,3037.871,3221.425,2913.554,-0.388,0.894,-0.190,-0.397,12.024,3.174,73.333,688.000,1.000
2219.138,-1406.152,-102570.327,-118234.785,5170.699,3093.562,3271.080,2946.085,-0.386,0.894,-0.190,-0.610,12.512,3.113,73.333,689.000,1.000
2260.422,-1358.213,-102570.887,-117993.721,5367.844,3150.315,3322.245,2979.591,-0.386,0.894,-0.191,-0.793,12.970,3.296,73.333,690.000,1.000
2302.210,-1309.482,-102611.394,-117751.316,5564.980,3206.751,3373.792,3013.930,-0.385,0.893,-0.194,-1.007,13.489,3.326,73.333,691.000,1.000
2343.744,-1260.252,-102619.576,-117508.640,5761.032,3262.068,3424.900,3049.027,-0.383,0.893,-0.193,-1.160,14.008,3.448,73.333,692.000,1.000
2384.484,-1210.894,-102576.637,-117265.993,5955.469,3316.130,3475.143,3084.805,-0.379,0.894,-0.191,-1.343,14.648,3.601,73.333,693.000,1.000
2424.134,-1161.865,-102529.552,-117022.923,6148.243,3369.117,3524.339,3120.956,-0.377,0.891,-0.191,-1.556,15.381,3.723,73.333,694.000,1.000
2462.475,-1113.636,-102520.432,-116778.849,6339.612,3421.284,3572.479,3156.905,-0.374,0.891,-0.192,-1.740,15.961,3.876,73.333,695.000,1.000
2499.383,-1066.585,-102536.913,-116533.630,6529.873,3472.808,3619.630,3191.980,-0.369,0.893,-0.191,-1.984,16.693,4.181,73.333,696.000,1.000
2535.109,-1020.867,-102539.215,-116287.617,6719.043,3523.627,3665.872,3225.693,-0.365,0.894,-0.190,-2.197,17.426,4.364,73.333,697.000,1.000
2570.318,-976.298,-102512.173,-116041.156,6906.936,3573.543,3711.340,3257.971,-0.360,0.898,-0.185,-2.380,18.219,4.639,73.333,698.000,1.000
2605.721,-932.242,-102473.729,-115794.091,7093.959,3622.911,3756.660,3289.464,-0.361,0.901,-0.190,-2.594,19.196,4.974,73.333,699.000,1.000
2641.761,-887.835,-102444.895,-115545.939,7281.279,3672.798,3802.840,3321.280,-0.362,0.906,-0.197,-2.625,19.989,5.066,73.333,700.000,1.000
2678.486,-842.638,-102428.810,-115296.523,7469.651,3724.059,3850.355,3354.174,-0.365,0.910,-0.195,-3.143,20.935,5.798,73.333,701.000,1.000
2715.532,-796.991,-102415.432,-115046.156,7658.581,3776.569,3898.714,3388.171,-0.370,0.907,-0.192,-3.998,21.851,6.256,73.333,702.000,1.000
2752.355,-751.655,-102392.923,-114795.216,7846.816,3829.373,3946.901,3422.713,-0.373,0.906,-0.194,-4.517,22.522,6.531,73.333,703.000,1.000
2788.576,-707.239,-102353.506,-114543.768,8033.458,3881.474,3994.270,3457.107,-0.370,0.904,-0.198,-4.974,23.315,6.714,73.333,704.000,1.000
2824.194,-663.915,-102299.791,-114291.470,8218.590,3932.566,4041.118,3490.973,-0.368,0.904,-0.201,-5.402,23.926,6.958,73.333,705.000,1.000
2859.646,-621.307,-102247.140,-114037.693,8403.313,3983.266,4088.508,3524.416,-0.367,0.903,-0.205,-5.615,24.719,7.111,73.333,706.000,1.000
2895.511,-578.706,-102209.102,-113782.014,8588.878,4034.325,4137.186,3557.657,-0.365,0.899,-0.206,-5.859,25.330,7.294,73.333,707.000,1.000
2932.035,-535.552,-102177.070,-113524.760,8775.342,4085.593,4186.540,3590.457,-0.362,0.898,-0.209,-6.104,26.184,7.599,73.333,708.000,1.000
2968.923,-491.712,-102124.896,-113266.826,8961.471,4136.232,4235.147,3622.333,-0.354,0.899,-0.211,-6.317,26.886,7.843,73.333,709.000,1.000
3005.573,-447.508,-102043.322,-113008.899,9145.518,4185.411,4281.905,3652.965,-0.351,0.895,-0.213,-6.470,27.618,8.179,73.333,710.000,1.000
3041.462,-403.561,-101960.034,-112751.026,9326.124,4232.652,4326.569,3682.313,-0.344,0.893,-0.215,-6.592,28.534,8.392,73.333,711.000,1.000
3076.437,-360.410,-101908.758,-112493.260,9503.313,4278.243,4369.874,3710.767,-0.336,0.891,-0.215,-6.744,29.572,8.606,73.333,712.000,1.000
3110.798,-318.121,-101882.571,-112237.234,9678.506,4323.330,4412.994,3739.070,-0.329,0.895,-0.217,-6.744,30.640,8.759,73.333,713.000,1.000
3145.092,-276.160,-101837.512,-111985.631,9853.375,4369.396,4456.809,3768.101,-0.325,0.899,-0.219,-6.683,31.921,8.881,73.333,714.000,1.000
3179.732,-233.711,-101749.094,-111737.694,10028.612,4417.335,4501.496,3798.495,-0.320,0.904,-0.219,-6.805,33.295,9.277,73.333,715.000,1.000
3214.741,-190.158,-101647.019,-111487.359,10203.918,4467.030,4546.834,3830.323,-0.320,0.909,-0.217,-7.019,34.729,9.338,73.333,716.000,1.000
3249.789,-145.434,-101576.555,-111230.708,10379.010,4517.778,4592.890,3863.179,-0.319,0.917,-0.221,-7.568,36.255,9.460,73.333,717.000,1.000
3284.406,-100.206,-101536.214,-110976.464,10554.021,4568.675,4639.895,3896.357,-0.319,0.921,-0.224,-7.996,37.689,9.491,73.333,718.000,1.000
3318.237,-55.581,-101477.011,-110741.056,10729.417,4619.041,4687.867,3929.319,-0.320,0.927,-0.224,-8.545,39.124,9.583,73.333,719.000,1.000
3351.320,-12.309,-101366.441,-110524.768,10906.187,4669.014,4736.788,3962.176,-0.317,0.933,-0.226,-9.064,40.497,9.552,73.333,720.000,1.000
3384.148,29.736,-101231.004,-110302.410,11085.585,4719.445,4786.845,3995.486,-0.313,0.939,-0.229,-9.827,41.931,9.613,73.333,721.000,1.000
3417.355,71.175,-101119.294,-110051.119,11267.677,4770.747,4837.898,4029.469,-0.310,0.941,-0.230,-10.498,43.396,9.857,73.333,722.000,1.000
3451.430,112.467,-101036.778,-109783.729,11450.212,4821.965,4888.726,4063.506,-0.307,0.943,-0.229,-11.383,45.013,9.827,73.333,723.000,1.000
3486.617,153.970,-100940.878,-109539.346,11630.208,4871.691,4937.984,4096.868,-0.307,0.943,-0.229,-12.268,46.661,9.796,73.333,724.000,1.000
3522.895,196.350,-100801.692,-109332.297,11806.989,4919.820,4986.084,4129.839,-0.303,0.941,-0.230,-13.214,48.218,9.979,73.333,725.000,1.000
3559.978,240.405,-100643.773,-109127.584,11982.987,4967.918,5035.310,4163.725,-0.299,0.942,-0.234,-14.160,49.866,10.010,73.333,726.000,1.000
3597.342,286.323,-100511.917,-108884.236,12161.239,5017.655,5087.704,4199.511,-0.295,0.943,-0.236,-15.045,51.544,9.918,73.333,727.000,1.000
3634.212,333.094,-100410.273,-108611.535,12342.140,5068.837,5142.860,4236.498,-0.291,0.944,-0.237,-15.839,53.345,9.888,73.333,728.000,1.000
3669.614,378.726,-100299.111,-108361.243,12522.795,5119.283,5198.088,4272.672,-0.280,0.948,-0.240,-16.754,55.267,9.857,73.333,729.000,1.000
3702.947,421.375,-100152.317,-108158.934,12699.302,5166.669,5250.571,4306.355,-0.271,0.951,-0.240,-17.639,57.251,9.766,73.333,730.000,1.000
3734.762,460.775,-99994.644,-107966.849,12869.779,5210.570,5299.477,4337.475,-0.266,0.953,-0.243,-18.768,59.387,9.857,73.333,731.000,1.000
3766.634,498.614,-99866.939,-107734.043,13035.841,5252.948,5346.488,4367.486,-0.262,0.954,-0.242,-19.836,61.737,9.796,73.333,732.000,1.000
3800.056,537.282,-99768.597,-107465.980,13201.244,5296.648,5394.230,4398.084,-0.257,0.956,-0.244,-21.027,64.087,9.827,73.333,733.000,1.000
3835.410,578.238,-99656.474,-107218.951,13369.035,5343.465,5444.391,4430.246,-0.250,0.956,-0.247,-22.125,66.528,9.674,73.333,734.000,1.000
3871.889,621.473,-99500.796,-107023.350,13539.986,5393.469,5497.266,4464.278,-0.249,0.956,-0.253,-23.315,69.092,9.521,73.333,735.000,1.000
3908.117,665.978,-99321.686,-106840.417,13713.248,5445.644,5552.453,4500.194,-0.247,0.955,-0.254,-24.536,71.747,9.247,73.333,736.000,1.000
3942.879,710.356,-99159.151,-106615.101,13887.478,5498.702,5609.276,4537.691,-0.246,0.958,-0.258,-25.604,74.371,8.911,73.333,737.000,1.000
3975.748,753.545,-99019.950,-106351.308,14061.663,5551.606,5666.873,4576.012,-0.246,0.962,-0.261,-26.581,77.057,8.606,73.333,738.000,1.000
4007.348,795.513,-98871.878,-106106.784,14236.215,5604.197,5724.984,4614.422,-0.246,0.963,-0.261,-27.222,78.339,8.362,73.333,739.000,1.000
4038.967,837.098,-98689.739,-105914.593,14412.868,5657.040,5784.270,4652.488,-0.244,0.966,-0.266,-28.412,80.841,7.843,73.333,740.000,1.000
4071.743,879.221,-98488.515,-105738.742,14592.970,5710.550,5845.548,4689.890,-0.240,0.968,-0.269,-29.724,83.435,7.294,73.333,741.000,1.000
4105.959,922.293,-98300.366,-105525.068,14776.205,5764.548,5909.021,4726.446,-0.233,0.968,-0.271,-31.067,86.060,6.836,73.333,742.000,1.000
4140.897,965.940,-98131.111,-105275.132,14960.448,5818.186,5973.764,4762.170,-0.226,0.967,-0.272,-32.410,88.684,6.348,73.333,743.000,1.000
4175.329,1009.261,-97956.071,-105042.850,15142.591,5870.286,6038.059,4797.368,-0.219,0.966,-0.276,-33.661,91.492,5.737,73.333,744.000,1.000
4208.291,1051.562,-97757.819,-104862.732,15319.898,5920.086,6100.550,4832.660,-0.213,0.968,-0.279,-35.522,94.147,5.554,73.333,745.000,1.000
4239.571,1092.806,-97551.460,-104708.500,15491.223,5967.865,6161.234,4868.832,-0.201,0.961,-0.280,-37.323,96.985,5.066,73.333,746.000,1.000
4269.579,1133.242,-97363.340,-104532.518,15657.554,6014.825,6221.375,4906.645,-0.189,0.954,-0.283,-38.269,100.464,4.486,73.333,747.000,1.000
4298.933,1172.889,-97194.627,-104325.710,15821.692,6062.341,6282.504,4946.569,-0.186,0.953,-0.283,-39.001,104.034,3.387,73.333,748.000,1.000
4328.094,1211.699,-97019.161,-104119.977,15987.434,6111.597,6345.943,4988.797,-0.185,0.954,-0.287,-39.825,107.422,2.380,73.333,749.000,1.000
4357.247,1249.956,-96816.934,-103941.271,16157.999,6163.364,6412.754,5033.295,-0.183,0.955,-0.292,-40.680,110.687,1.251,73.333,750.000,1.000
4386.413,1288.357,-96597.516,-103780.858,16334.621,6217.569,6483.495,5079.748,-0.186,0.956,-0.295,-41.779,113.892,0.305,73.333,751.000,1.000
4415.667,1327.711,-96384.249,-103614.163,16516.431,6273.072,6557.874,5127.489,-0.185,0.956,-0.298,-43.060,117.065,-0.488,73.333,752.000,1.000
4445.269,1368.392,-96184.253,-103432.216,16700.802,6327.688,6634.165,5175.283,-0.190,0.951,-0.300,-44.861,121.765,-1.770,73.333,753.000,1.000
4475.425,1410.053,-95984.103,-103246.140,16884.058,6378.927,6709.610,5221.644,-0.193,0.949,-0.298,-46.051,124.603,-2.747,73.333,754.000,1.000
4505.734,1451.734,-95772.899,-103068.920,17063.054,6425.395,6782.094,5265.630,-0.193,0.944,-0.300,-47.180,127.502,-3.723,73.333,755.000,1.000
4535.080,1492.257,-95558.415,-102902.803,17236.850,6467.769,6851.580,5307.312,-0.199,0.941,-0.301,-48.157,130.218,-4.944,73.333,756.000,1.000
4562.478,1530.833,-95355.095,-102741.662,17407.235,6508.510,6919.907,5347.594,-0.204,0.939,-0.301,-49.133,132.904,-6.073,73.333,757.000,1.000
4588.150,1567.731,-95162.767,-102577.028,17577.917,6550.583,6989.170,5387.521,-0.208,0.932,-0.299,-50.049,135.498,-7.050,73.333,758.000,1.000
4613.482,1604.378,-94965.307,-102402.005,17753.333,6596.454,7060.733,5427.745,-0.218,0.932,-0.298,-50.934,138.062,-8.057,73.333,759.000,1.000
4639.793,1642.335,-94750.484,-102217.162,17936.833,6647.432,7135.181,5468.193,-0.233,0.929,-0.298,-51.727,140.289,-9.094,73.333,760.000,1.000
4667.379,1682.106,-94524.383,-102033.511,18128.497,6703.101,7212.247,5508.071,-0.247,0.921,-0.303,-52.490,142.090,-10.132,73.333,761.000,1.000
4695.720,1722.961,-94302.325,-101861.962,18324.726,6761.356,7290.620,5546.421,-0.258,0.917,-0.302,-53.284,143.646,-11.261,73.333,762.000,1.000
4724.237,1763.628,-94090.374,-101697.784,18520.153,6819.221,7367.981,5582.550,-0.266,0.911,-0.304,-53.864,144.836,-12.238,73.333,763.000,1.000
4752.684,1803.202,-93881.616,-101523.647,18710.350,6874.347,7442.190,5616.373,-0.274,0.907,-0.303,-54.382,145.782,-13.153,73.333,764.000,1.000
4781.113,1841.760,-93669.040,-101333.475,18893.890,6926.421,7513.057,5648.736,-0.277,0.903,-0.303,-54.993,146.698,-13.977,73.333,765.000,1.000
4809.668,1880.291,-93454.819,-101144.865,19073.588,6977.556,7582.951,5681.210,-0.277,0.901,-0.299,-55.145,147.827,-14.862,73.333,766.000,1.000
4838.502,1919.923,-93244.245,-100977.100,19255.692,7030.903,7655.188,5715.260,-0.277,0.900,-0.293,-55.176,148.712,-15.778,73.333,767.000,1.000
4867.778,1961.136,-93035.787,-100821.269,19446.197,7088.212,7731.364,5751.457,-0.278,0.900,-0.291,-55.267,149.322,-16.571,73.333,768.000,1.000
4897.400,2003.564,-92822.221,-100647.102,19646.849,7148.523,7810.383,5789.320,-0.277,0.899,-0.290,-55.420,149.994,-17.303,73.333,769.000,1.000
4926.583,2045.853,-92601.956,-100444.721,19853.472,7208.320,7889.329,5827.356,-0.272,0.897,-0.291,-55.542,150.604,-17.883,73.333,770.000,1.000
4953.980,2085.826,-92385.001,-100245.175,20058.001,7263.017,7965.089,5863.744,-0.269,0.893,-0.290,-55.725,151.367,-18.311,73.333,771.000,1.000
4978.691,2121.799,-92184.307,-100084.769,20253.700,7309.863,8036.178,5897.743,-0.270,0.890,-0.289,-55.725,152.191,-18.433,73.333,772.000,1.000
5001.229,2154.144,-92002.986,-99956.611,20439.607,7350.154,8103.418,5930.240,-0.273,0.885,-0.287,-56.000,153.107,-18.463,73.333,773.000,1.000
5023.208,2185.265,-91832.378,-99816.388,20620.839,7388.642,8169.200,5962.837,-0.282,0.878,-0.283,-55.695,154.022,-18.341,73.333,774.000,1.000
5046.119,2217.906,-91661.444,-99639.194,20805.032,7430.598,8235.977,5996.402,-0.298,0.875,-0.281,-55.511,154.480,-18.341,73.333,775.000,1.000
5070.607,2253.560,-91485.511,-99451.714,20997.574,7478.982,8304.783,6030.440,-0.314,0.869,-0.280,-55.145,154.694,-18.250,73.333,776.000,1.000
5096.607,2291.970,-91306.696,-99294.417,21198.083,7533.162,8374.283,6063.514,-0.329,0.867,-0.278,-54.749,154.327,-18.127,73.333,777.000,1.000
5123.744,2331.533,-91129.205,-99164.867,21400.246,7589.479,8440.823,6094.008,-0.345,0.859,-0.279,-54.260,153.900,-18.127,73.333,778.000,1.000
5151.640,2370.509,-90955.378,-99020.213,21596.185,7643.823,8500.568,6121.144,-0.361,0.854,-0.275,-53.558,153.107,-18.219,73.333,779.000,1.000
5180.087,2408.368,-90785.336,-98836.576,21781.975,7694.421,8552.211,6145.581,-0.376,0.851,-0.271,-52.734,151.947,-18.372,73.333,780.000,1.000
5208.913,2446.029,-90618.659,-98643.085,21959.279,7742.547,8597.622,6168.866,-0.387,0.847,-0.269,-52.002,150.513,-18.280,73.333,781.000,1.000
5237.603,2484.469,-90455.432,-98481.930,22132.111,7790.641,8639.848,6192.157,-0.394,0.846,-0.265,-51.117,148.743,-18.463,73.333,782.000,1.000
5265.321,2523.193,-90296.344,-98349.495,22302.329,7839.549,8680.314,6215.330,-0.402,0.847,-0.261,-50.171,146.851,-18.524,73.333,783.000,1.000
5291.422,2560.587,-90142.131,-98200.617,22468.607,7887.937,8718.427,6237.397,-0.411,0.847,-0.258,-49.286,144.775,-18.890,73.333,784.000,1.000
5315.919,2595.621,-89993.140,-98011.149,22628.845,7933.960,8753.369,6257.379,-0.413,0.846,-0.252,-48.126,142.639,-19.257,73.333,785.000,1.000
5339.365,2628.722,-89849.607,-97812.528,22782.291,7976.750,8785.299,6274.815,-0.412,0.850,-0.248,-47.058,140.411,-19.287,73.333,786.000,1.000
5362.343,2661.079,-89711.837,-97649.885,22929.674,8016.596,8815.055,6290.095,-0.414,0.858,-0.242,-46.204,138.092,-19.287,73.333,787.000,1.000
5385.179,2693.440,-89579.894,-97521.496,23072.135,8054.185,8843.130,6304.316,-0.420,0.865,-0.235,-45.502,135.529,-19.287,73.333,788.000,1.000
5407.967,2725.549,-89454.321,-97383.879,23210.128,8089.736,8868.942,6318.419,-0.420,0.867,-0.233,-45.044,132.935,-19.470,73.333,789.000,1.000
5430.639,2756.335,-89339.394,-97216.814,23342.604,8122.389,8890.300,6331.868,-0.424,0.866,-0.227,-44.373,130.249,-19.409,73.333,790.000,1.000
5453.129,2784.712,-89244.735,-97057.753,23467.151,8150.443,8903.907,6342.568,-0.425,0.868,-0.222,-43.884,127.472,-19.348,73.333,791.000,1.000
5475.512,2810.539,-89179.691,-96955.124,23581.727,8172.903,8907.865,6349.140,-0.425,0.865,-0.220,-43.457,124.725,-19.073,73.333,792.000,1.000
5497.873,2834.779,-89145.115,-96903.050,23686.467,8190.746,8903.687,6352.914,-0.429,0.861,-0.217,-42.847,121.796,-18.860,73.333,793.000,1.000
5520.134,2858.856,-89131.932,-96845.721,23784.053,8206.523,8895.507,6357.001,-0.429,0.855,-0.216,-41.992,119.049,-18.646,73.333,794.000,1.000
5542.272,2884.064,-89127.019,-96743.402,23878.621,8222.833,8887.437,6363.601,-0.433,0.854,-0.209,-40.955,116.028,-18.280,73.333,795.000,1.000
5564.645,2911.452,-89120.053,-96612.064,23973.980,8241.114,8881.621,6372.579,-0.435,0.856,-0.206,-40.161,112.793,-18.036,73.333,796.000,1.000
5587.761,2941.661,-89107.560,-96490.449,24071.993,8261.333,8878.035,6382.205,-0.435,0.860,-0.203,-39.246,109.314,-17.426,73.333,797.000,1.000
5611.590,2974.309,-89091.732,-96385.880,24171.490,8282.154,8875.044,6390.436,-0.436,0.862,-0.201,-38.361,106.140,-16.937,73.333,798.000,1.000
5635.245,3007.720,-89071.109,-96271.237,24268.481,8301.541,8870.142,6395.658,-0.435,0.863,-0.194,-37.292,102.936,-16.510,73.333,799.000,1.000
5657.734,3039.839,-89030.672,-96129.647,24358.212,8317.871,8861.072,6397.194,-0.437,0.867,-0.188,-36.407,99.762,-15.930,73.333,800.000,1.000
5679.124,3069.879,-88948.202,-95979.512,24438.610,8331.505,8847.655,6396.112,-0.438,0.872,-0.184,-35.614,96.558,-15.442,73.333,801.000,1.000
5700.569,3099.012,-88815.163,-95845.929,24512.639,8345.410,8833.079,6395.538,-0.437,0.878,-0.177,-34.943,93.323,-14.893,73.333,802.000,1.000
5723.120,3129.326,-88644.148,-95720.432,24587.045,8363.631,8822.724,6399.358,-0.439,0.882,-0.172,-34.363,89.996,-14.374,73.333,803.000,1.000
5746.992,3162.620,-88449.762,-95563.938,24668.914,8389.487,8821.860,6410.420,-0.435,0.884,-0.169,-33.722,86.578,-13.855,73.333,804.000,1.000
5771.984,3199.970,-88227.780,-95347.944,24762.787,8424.953,8833.922,6429.607,-0.436,0.881,-0.171,-32.806,83.282,-13.245,73.333,805.000,1.000
5797.926,3241.376,-87959.883,-95081.761,24869.201,8470.188,8859.195,6455.708,-0.435,0.884,-0.165,-32.135,79.926,-12.726,73.333,806.000,1.000
5824.457,3285.275,-87639.416,-94797.444,24984.265,8522.487,8893.807,6485.482,-0.428,0.884,-0.169,-31.372,76.294,-12.054,73.333,807.000,1.000
5850.774,3328.717,-87287.885,-94518.268,25100.352,8575.902,8929.901,6514.067,-0.425,0.888,-0.159,-30.365,73.151,-11.261,73.333,808.000,1.000
5875.989,3368.934,-86941.538,-94248.674,25209.353,8623.697,8958.932,6537.040,-0.425,0.898,-0.158,-30.334,69.702,-10.376,73.333,809.000,1.000
5899.832,3405.185,-86622.914,-93987.721,25307.344,8662.388,8976.521,6553.176,-0.418,0.901,-0.157,-30.304,66.498,-9.613,73.333,810.000,1.000
5922.745,3438.941,-86326.451,-93739.773,25396.331,8693.213,8984.288,6564.865,-0.412,0.901,-0.155,-29.938,63.416,-8.667,73.333,811.000,1.000
5945.198,3472.261,-86029.783,-93508.577,25481.307,8719.806,8987.251,6575.743,-0.406,0.903,-0.155,-29.572,60.425,-7.935,73.333,812.000,1.000
5967.248,3506.173,-85717.273,-93287.729,25565.698,8744.938,8989.768,6588.226,-0.403,0.907,-0.151,-28.748,57.434,-7.019,73.333,813.000,1.000
5988.903,3540.581,-85391.774,-93064.151,25649.605,8769.549,8993.820,6603.057,-0.397,0.913,-0.155,-28.534,54.260,-6.470,73.333,814.000,1.000
6010.453,3574.961,-85066.295,-92830.918,25731.495,8793.807,8999.605,6619.802,-0.391,0.917,-0.152,-28.320,51.270,-5.615,73.333,815.000,1.000
