EEG 1,EEG 2,EEG 3,EEG 4,EEG 5,EEG 6,EEG 7,EEG 8,Accelerometer X,Accelerometer Y,Accelerometer Z,Gyroscope X,Gyroscope Y,Gyroscope Z,Battery Level,Counter,Validation Indicator
-34.927,-2.477,-22.214,-4.425,-9.452,2.270,5.206,-5.690,0.009,0.982,-0.133,-0.031,-1.007,1.312,73.333,71001.000,1.000
-31.781,-1.017,-19.593,-3.470,-8.206,2.816,5.882,-4.657,0.006,0.981,-0.132,-0.061,-0.977,1.312,73.333,71002.000,1.000
-28.497,0.705,-16.858,-2.364,-6.588,4.232,6.927,-3.402,0.006,0.980,-0.131,-0.122,-0.916,1.343,73.333,71003.000,1.000
-25.653,2.432,-14.535,-1.184,-4.991,5.925,7.924,-2.275,0.007,0.981,-0.130,-0.183,-0.885,1.282,73.333,71004.000,1.000
-23.351,4.171,-12.713,0.043,-3.542,7.395,8.922,-1.342,0.008,0.979,-0.129,-0.183,-0.793,1.282,73.333,71005.000,1.000
-21.142,6.177,-10.989,1.453,-1.966,8.655,10.289,-0.249,0.007,0.980,-0.131,-0.183,-0.732,1.221,73.333,71006.000,1.000
-18.593,8.480,-8.959,3.184,-0.051,9.744,11.856,1.200,0.008,0.980,-0.131,-0.305,-0.702,1.190,73.333,71007.000,1.000
-15.909,10.587,-6.820,4.931,1.779,10.319,12.629,2.343,0.009,0.979,-0.130,-0.305,-0.763,1.282,73.333,71008.000,1.000
-13.864,11.715,-5.333,5.911,2.686,9.900,11.549,2.029,0.008,0.975,-0.135,-0.305,-0.671,1.343,73.333,71009.000,1.000
-13.161,11.418,-5.210,5.445,2.145,8.300,8.715,-0.163,0.008,0.975,-0.131,-0.275,-0.671,1.404,73.333,71010.000,1.000
-13.936,9.779,-6.630,3.509,0.310,5.666,5.310,-3.471,0.009,0.978,-0.132,-0.305,-0.732,1.373,73.333,71011.000,1.000
-15.679,7.249,-9.137,0.758,-2.180,2.390,2.603,-6.512,0.010,0.977,-0.131,-0.214,-0.549,1.373,73.333,71012.000,1.000
-17.610,4.441,-11.937,-1.920,-4.666,-1.036,1.261,-8.268,0.009,0.978,-0.133,-0.275,-0.458,1.282,73.333,71013.000,1.000
-19.078,1.892,-14.317,-3.876,-6.784,-4.201,0.766,-8.874,0.010,0.977,-0.131,-0.214,-0.427,1.221,73.333,71014.000,1.000
-19.836,-0.065,-15.960,-5.003,-8.529,-6.656,-0.143,-9.424,0.009,0.977,-0.130,-0.061,-0.305,1.221,73.333,71015.000,1.000
-19.966,-1.274,-16.890,-5.513,-9.869,-7.695,-1.832,-10.609,0.009,0.977,-0.130,-0.031,-0.397,1.221,73.333,71016.000,1.000
-19.527,-1.524,-17.107,-5.412,-10.386,-6.703,-3.077,-11.738,0.009,0.979,-0.130,0.000,-0.397,1.282,73.333,71017.000,1.000
-18.701,-0.836,-16.759,-4.733,-9.917,-4.150,-2.800,-11.853,0.008,0.981,-0.129,0.183,-0.305,1.312,73.333,71018.000,1.000
-18.052,0.112,-16.412,-4.039,-9.131,-1.712,-1.706,-11.292,0.009,0.980,-0.131,0.122,-0.214,1.221,73.333,71019.000,1.000
-18.257,0.457,-16.678,-4.121,-9.082,-1.025,-1.307,-11.319,0.007,0.981,-0.133,0.183,-0.244,1.221,73.333,71020.000,1.000
-19.578,-0.158,-17.725,-5.283,-10.378,-2.697,-2.483,-12.774,0.007,0.981,-0.132,0.183,-0.183,1.221,73.333,71021.000,1.000
-21.635,-1.379,-19.159,-7.083,-12.755,-6.054,-5.049,-15.423,0.009,0.981,-0.133,0.122,-0.275,1.282,73.333,71022.000,1.000
-23.735,-2.613,-20.449,-8.790,-15.389,-9.624,-7.826,-18.257,0.007,0.980,-0.133,0.153,-0.183,1.190,73.333,71023.000,1.000
-25.342,-3.584,-21.314,-9.920,-17.425,-12.072,-9.361,-20.131,0.007,0.982,-0.130,0.244,-0.214,1.160,73.333,71024.000,1.000
-26.292,-4.165,-21.673,-10.356,-18.335,-12.713,-8.802,-20.345,0.008,0.980,-0.128,0.275,-0.244,1.160,73.333,71025.000,1.000
-26.724,-4.152,-21.475,-10.239,-18.000,-11.521,-6.449,-19.078,0.008,0.980,-0.132,0.275,-0.275,1.221,73.333,71026.000,1.000
-26.707,-3.202,-20.510,-9.719,-16.433,-8.866,-3.296,-17.099,0.008,0.980,-0.131,0.214,-0.214,1.190,73.333,71027.000,1.000
-26.057,-0.966,-18.459,-8.791,-13.618,-5.273,-0.110,-15.042,0.006,0.980,-0.131,0.214,-0.275,1.190,73.333,71028.000,1.000
-24.584,2.427,-15.238,-7.350,-9.683,-1.317,2.847,-13.046,0.005,0.980,-0.131,0.275,-0.275,1.160,73.333,71029.000,1.000
-22.559,6.154,-11.383,-5.458,-5.297,2.250,5.605,-11.060,0.007,0.979,-0.132,0.397,-0.397,1.129,73.333,71030.000,1.000
-20.864,8.903,-8.076,-3.606,-1.748,4.257,7.624,-9.508,0.005,0.981,-0.134,0.336,-0.397,1.160,73.333,71031.000,1.000
-20.477,9.637,-6.515,-2.508,-0.274,3.688,7.616,-9.237,0.005,0.980,-0.132,0.397,-0.427,1.251,73.333,71032.000,1.000
-21.761,8.358,-7.150,-2.612,-1.158,0.713,4.846,-10.652,0.005,0.979,-0.132,0.336,-0.549,1.190,73.333,71033.000,1.000
-24.095,6.161,-9.297,-3.675,-3.348,-3.123,0.186,-13.052,0.004,0.981,-0.130,0.488,-0.610,1.160,73.333,71034.000,1.000
-26.289,4.637,-11.577,-4.899,-5.082,-5.678,-3.949,-14.898,0.006,0.980,-0.130,0.427,-0.732,1.221,73.333,71035.000,1.000
-27.555,4.760,-12.966,-5.611,-5.134,-5.397,-4.960,-14.906,0.006,0.982,-0.131,0.488,-0.763,1.221,73.333,71036.000,1.000
-28.018,6.284,-13.394,-5.736,-3.550,-2.221,-1.809,-12.885,0.006,0.984,-0.133,0.549,-0.763,1.129,73.333,71037.000,1.000
-28.499,8.009,-13.562,-5.748,-1.520,2.172,4.098,-9.840,0.004,0.979,-0.132,0.488,-0.763,1.251,73.333,71038.000,1.000
-29.865,8.478,-14.298,-6.210,-0.529,5.178,9.560,-7.395,0.006,0.980,-0.133,0.488,-0.763,1.251,73.333,71039.000,1.000
-32.420,6.893,-15.924,-7.321,-1.402,4.956,11.818,-6.764,0.006,0.979,-0.131,0.519,-0.824,1.160,73.333,71040.000,1.000
-35.728,3.515,-18.146,-8.870,-3.936,1.461,10.210,-8.093,0.004,0.976,-0.129,0.580,-0.946,1.251,73.333,71041.000,1.000
-38.938,-0.601,-20.381,-10.453,-7.216,-3.908,6.075,-10.540,0.005,0.977,-0.132,0.580,-0.916,1.068,73.333,71042.000,1.000
-41.381,-4.253,-22.224,-11.775,-10.317,-9.406,1.592,-12.939,0.007,0.975,-0.132,0.610,-1.007,1.221,73.333,71043.000,1.000
-42.795,-6.658,-23.587,-12.729,-12.691,-13.757,-1.576,-14.516,0.006,0.975,-0.135,0.671,-1.099,1.221,73.333,71044.000,1.000
-43.124,-7.467,-24.419,-13.224,-14.109,-16.211,-2.753,-15.108,0.008,0.977,-0.131,0.732,-1.160,1.434,73.333,71045.000,1.000
-42.374,-6.693,-24.538,-13.102,-14.507,-16.512,-2.217,-15.057,0.008,0.980,-0.133,0.793,-1.160,1.434,73.333,71046.000,1.000
-40.724,-4.748,-23.805,-12.358,-14.000,-15.001,-0.898,-14.994,0.008,0.981,-0.130,0.763,-1.099,1.373,73.333,71047.000,1.000
-38.720,-2.406,-22.429,-11.342,-12.932,-12.519,0.373,-15.437,0.008,0.981,-0.131,0.763,-1.099,1.526,73.333,71048.000,1.000
-37.044,-0.468,-20.831,-10.412,-11.585,-9.920,1.444,-16.196,0.006,0.980,-0.127,0.641,-1.129,1.495,73.333,71049.000,1.000
-36.136,0.669,-19.404,-9.623,-10.024,-7.728,2.746,-16.489,0.006,0.979,-0.129,0.702,-1.068,1.526,73.333,71050.000,1.000
-36.166,0.863,-18.611,-9.055,-8.453,-6.398,4.360,-16.047,0.004,0.978,-0.131,0.671,-1.068,1.434,73.333,71051.000,1.000
-37.052,0.132,-18.891,-9.071,-7.290,-6.270,5.639,-15.552,0.006,0.979,-0.132,0.580,-1.099,1.404,73.333,71052.000,1.000
-38.378,-1.119,-20.265,-9.978,-6.831,-7.060,5.936,-15.816,0.008,0.978,-0.132,0.549,-1.129,1.312,73.333,71053.000,1.000
-39.403,-2.213,-22.161,-11.553,-7.016,-7.969,5.061,-17.044,0.009,0.980,-0.129,0.549,-1.160,1.221,73.333,71054.000,1.000
-39.436,-2.667,-23.831,-13.217,-7.740,-8.553,3.179,-19.040,0.010,0.981,-0.131,0.580,-1.068,1.312,73.333,71055.000,1.000
-38.333,-2.644,-24.943,-14.584,-9.097,-9.190,0.523,-21.573,0.012,0.982,-0.131,0.549,-0.946,1.129,73.333,71056.000,1.000
-36.454,-2.608,-25.486,-15.504,-10.970,-10.313,-2.532,-24.095,0.013,0.982,-0.131,0.427,-1.038,1.282,73.333,71057.000,1.000
-34.291,-2.584,-25.388,-15.739,-12.743,-11.564,-5.271,-25.664,0.014,0.978,-0.130,0.366,-0.946,1.434,73.333,71058.000,1.000
-32.163,-2.114,-24.456,-14.940,-13.612,-12.073,-6.950,-25.556,0.013,0.973,-0.132,0.458,-0.946,1.434,73.333,71059.000,1.000
-30.184,-0.753,-22.621,-13.047,-13.161,-11.266,-7.058,-23.749,0.014,0.969,-0.136,0.488,-0.763,1.526,73.333,71060.000,1.000
-28.300,1.469,-20.080,-10.462,-11.551,-9.224,-5.508,-20.846,0.014,0.967,-0.136,0.519,-0.519,1.495,73.333,71061.000,1.000
-26.302,4.129,-17.189,-7.716,-9.270,-6.507,-2.719,-17.644,0.014,0.969,-0.137,0.732,-0.427,1.556,73.333,71062.000,1.000
-24.132,6.629,-14.469,-5.290,-7.026,-4.079,0.464,-14.975,0.013,0.974,-0.139,0.854,-0.336,1.587,73.333,71063.000,1.000
-22.056,8.414,-12.417,-3.521,-5.467,-2.959,2.962,-13.559,0.013,0.977,-0.138,1.007,-0.336,1.587,73.333,71064.000,1.000
-20.469,9.386,-11.150,-2.436,-4.656,-3.269,4.208,-13.515,0.012,0.980,-0.135,1.068,-0.214,1.587,73.333,71065.000,1.000
-19.658,9.841,-10.450,-1.802,-4.047,-4.017,4.615,-14.141,0.013,0.983,-0.135,1.038,-0.092,1.434,73.333,71066.000,1.000
-19.692,10.088,-10.083,-1.341,-3.015,-3.959,5.198,-14.393,0.013,0.984,-0.138,0.977,-0.092,1.556,73.333,71067.000,1.000
-20.499,10.251,-9.973,-0.959,-1.418,-2.500,6.850,-13.847,0.011,0.984,-0.132,0.916,-0.061,1.617,73.333,71068.000,1.000
-21.863,10.317,-10.040,-0.743,0.466,0.115,9.730,-13.035,0.011,0.985,-0.130,0.916,-0.092,1.526,73.333,71069.000,1.000
-23.401,10.364,-10.061,-0.762,2.223,3.086,13.070,-12.813,0.009,0.986,-0.130,0.763,-0.061,1.373,73.333,71070.000,1.000
-24.734,10.413,-9.888,-0.976,3.342,5.338,15.291,-13.776,0.008,0.987,-0.133,0.641,-0.122,1.160,73.333,71071.000,1.000
-25.632,10.317,-9.589,-1.266,3.373,6.090,15.105,-15.964,0.003,0.989,-0.132,0.458,-0.153,1.038,73.333,71072.000,1.000
-26.062,9.901,-9.421,-1.561,2.138,5.271,12.746,-18.761,0.001,0.990,-0.134,0.275,-0.305,0.977,73.333,71073.000,1.000
-26.111,9.169,-9.664,-1.829,-0.096,3.353,9.526,-21.149,0.001,0.990,-0.133,0.092,-0.458,0.549,73.333,71074.000,1.000
-25.963,8.401,-10.458,-2.077,-2.692,1.023,6.708,-22.297,0.000,0.987,-0.132,0.000,-0.641,0.397,73.333,71075.000,1.000
-25.979,7.832,-11.813,-2.491,-4.963,-1.143,5.012,-22.136,0.000,0.986,-0.135,-0.214,-0.732,0.336,73.333,71076.000,1.000
-26.455,7.522,-13.481,-3.270,-6.361,-2.722,4.809,-21.203,0.002,0.983,-0.130,-0.336,-0.977,0.122,73.333,71077.000,1.000
-27.404,7.436,-15.023,-4.425,-6.721,-3.413,6.074,-20.177,0.003,0.983,-0.132,-0.305,-1.068,0.244,73.333,71078.000,1.000
-28.668,7.333,-16.221,-5.896,-6.477,-3.285,7.794,-19.724,0.005,0.983,-0.135,-0.397,-1.221,0.244,73.333,71079.000,1.000
-30.140,6.961,-17.251,-7.656,-6.458,-2.810,8.444,-20.390,0.006,0.981,-0.133,-0.397,-1.312,0.244,73.333,71080.000,1.000
-31.704,6.357,-18.317,-9.525,-7.201,-2.464,7.221,-22.259,0.006,0.981,-0.133,-0.336,-1.343,0.214,73.333,71081.000,1.000
-32.955,5.916,-19.199,-10.979,-8.440,-2.354,4.700,-24.620,0.006,0.981,-0.133,-0.336,-1.434,0.244,73.333,71082.000,1.000
-33.440,6.014,-19.507,-11.538,-9.495,-2.365,2.357,-26.324,0.004,0.979,-0.131,-0.397,-1.495,0.366,73.333,71083.000,1.000
-33.094,6.605,-19.137,-11.210,-9.873,-2.420,1.368,-26.616,0.005,0.980,-0.127,-0.366,-1.556,0.580,73.333,71084.000,1.000
-32.231,7.418,-18.293,-10.393,-9.456,-2.391,1.993,-25.566,0.003,0.981,-0.130,-0.305,-1.648,0.732,73.333,71085.000,1.000
-31.312,8.160,-17.335,-9.513,-8.419,-2.143,3.732,-23.854,0.002,0.979,-0.127,-0.214,-1.678,0.885,73.333,71086.000,1.000
-30.685,8.596,-16.560,-8.758,-7.068,-1.741,5.787,-22.232,0.003,0.979,-0.124,-0.305,-1.709,0.977,73.333,71087.000,1.000
-30.455,8.604,-16.092,-8.139,-5.814,-1.618,7.429,-21.330,0.003,0.980,-0.124,-0.244,-1.740,1.038,73.333,71088.000,1.000
-30.471,8.241,-15.862,-7.601,-4.967,-2.263,8.155,-21.540,0.002,0.979,-0.126,-0.275,-1.740,1.129,73.333,71089.000,1.000
-30.418,7.876,-15.601,-6.988,-4.458,-3.497,8.005,-22.564,0.005,0.978,-0.128,-0.183,-1.770,1.251,73.333,71090.000,1.000
-29.998,7.915,-15.008,-6.080,-3.962,-4.507,7.324,-23.599,0.005,0.979,-0.128,-0.214,-1.831,1.434,73.333,71091.000,1.000
-28.984,8.528,-13.853,-4.661,-3.198,-4.542,6.285,-24.127,0.006,0.978,-0.129,-0.183,-1.862,1.465,73.333,71092.000,1.000
-27.358,9.610,-12.129,-2.713,-2.145,-3.483,5.013,-24.183,0.005,0.977,-0.130,-0.153,-1.770,1.404,73.333,71093.000,1.000
-25.455,10.685,-10.220,-0.618,-1.053,-1.918,3.806,-23.934,0.006,0.979,-0.127,-0.122,-1.770,1.404,73.333,71094.000,1.000
-23.951,10.959,-8.894,0.829,-0.451,-0.922,3.015,-23.510,0.007,0.979,-0.130,-0.153,-1.862,1.495,73.333,71095.000,1.000
-23.574,9.661,-8.922,0.824,-0.992,-1.640,2.555,-23.263,0.007,0.979,-0.127,-0.092,-1.831,1.373,73.333,71096.000,1.000
-24.548,6.766,-10.395,-0.735,-2.866,-4.429,1.919,-23.511,0.008,0.979,-0.130,0.061,-1.831,1.404,73.333,71097.000,1.000
-26.466,3.140,-12.672,-3.171,-5.604,-8.394,0.705,-24.209,0.010,0.976,-0.131,0.092,-1.740,1.343,73.333,71098.000,1.000
-28.631,-0.221,-14.960,-5.609,-8.496,-12.050,-1.169,-25.174,0.012,0.974,-0.129,0.183,-1.587,1.251,73.333,71099.000,1.000
-30.446,-2.680,-16.761,-7.402,-11.023,-14.246,-3.260,-26.262,0.014,0.976,-0.130,0.244,-1.465,1.190,73.333,71100.000,1.000
-31.697,-4.016,-17.974,-8.226,-12.974,-14.645,-4.830,-27.298,0.014,0.975,-0.129,0.427,-1.434,1.251,73.333,71101.000,1.000
-32.539,-4.354,-18.778,-8.089,-14.345,-13.670,-5.437,-28.086,0.013,0.973,-0.128,0.610,-1.312,1.099,73.333,71102.000,1.000
-33.306,-4.172,-19.514,-7.396,-15.342,-12.271,-5.159,-28.596,0.012,0.972,-0.131,0.641,-1.160,1.129,73.333,71103.000,1.000
-34.155,-4.161,-20.427,-6.651,-16.170,-11.503,-4.368,-28.829,0.012,0.972,-0.132,0.702,-0.977,1.129,73.333,71104.000,1.000
-34.945,-4.727,-21.418,-6.153,-16.847,-11.982,-3.347,-28.675,0.014,0.974,-0.134,0.854,-0.946,1.160,73.333,71105.000,1.000
-35.594,-5.887,-22.302,-6.200,-17.483,-13.739,-2.600,-28.478,0.013,0.976,-0.131,1.068,-0.824,1.099,73.333,71106.000,1.000
-36.185,-7.292,-23.003,-7.148,-18.340,-16.244,-2.998,-29.113,0.013,0.975,-0.132,1.007,-0.671,1.099,73.333,71107.000,1.000
-36.733,-8.191,-23.427,-8.990,-19.437,-18.456,-4.896,-31.001,0.014,0.978,-0.133,1.160,-0.458,1.099,73.333,71108.000,1.000
-37.001,-7.780,-23.332,-11.060,-20.268,-19.242,-7.598,-33.499,0.013,0.978,-0.132,1.282,-0.305,1.099,73.333,71109.000,1.000
-36.682,-5.722,-22.449,-12.386,-20.129,-18.027,-9.747,-35.429,0.014,0.979,-0.132,1.373,-0.336,1.129,73.333,71110.000,1.000
-35.740,-2.545,-20.812,-12.401,-18.662,-15.215,-10.028,-35.862,0.013,0.980,-0.131,1.373,-0.214,1.221,73.333,71111.000,1.000
-34.476,0.603,-18.821,-11.294,-16.028,-11.811,-7.798,-34.482,0.012,0.981,-0.134,1.312,-0.061,1.099,73.333,71112.000,1.000
-33.429,2.610,-17.131,-9.896,-13.019,-8.806,-3.855,-32.030,0.010,0.983,-0.133,1.312,0.153,1.190,73.333,71113.000,1.000
-33.101,2.973,-16.342,-9.106,-10.756,-6.851,-0.379,-30.175,0.010,0.983,-0.133,1.251,0.305,1.190,73.333,71114.000,1.000
-33.641,2.034,-16.652,-9.305,-10.008,-6.077,0.816,-30.271,0.009,0.984,-0.135,1.160,0.305,1.221,73.333,71115.000,1.000
-34.794,0.509,-17.866,-10.328,-10.892,-6.258,-0.561,-32.531,0.006,0.985,-0.132,1.068,0.336,1.282,73.333,71116.000,1.000
-35.995,-0.989,-19.539,-11.697,-12.982,-7.000,-3.678,-36.189,0.005,0.983,-0.127,0.977,0.214,1.282,73.333,71117.000,1.000
-36.729,-2.115,-21.178,-12.913,-15.580,-7.914,-7.307,-40.015,0.005,0.981,-0.130,0.824,0.122,1.282,73.333,71118.000,1.000
-36.786,-2.835,-22.363,-13.626,-17.875,-8.766,-10.393,-42.832,0.005,0.979,-0.132,0.702,0.153,1.160,73.333,71119.000,1.000
-36.114,-3.158,-22.739,-13.635,-19.148,-9.360,-12.181,-43.948,0.005,0.981,-0.132,0.702,0.122,1.221,73.333,71120.000,1.000
-34.715,-3.053,-22.152,-12.931,-19.094,-9.584,-12.388,-43.423,0.007,0.982,-0.136,0.763,0.122,1.312,73.333,71121.000,1.000
-32.772,-2.522,-20.785,-11.705,-17.890,-9.482,-11.207,-41.770,0.008,0.984,-0.135,0.824,0.061,1.312,73.333,71122.000,1.000
-30.806,-1.667,-19.173,-10.310,-16.032,-9.114,-8.825,-39.454,0.010,0.989,-0.135,0.671,0.061,1.404,73.333,71123.000,1.000
-29.437,-0.696,-17.938,-9.107,-14.086,-8.365,-5.531,-36.882,0.008,0.989,-0.134,0.549,0.031,1.465,73.333,71124.000,1.000
-28.941,0.332,-17.390,-8.347,-12.572,-7.048,-2.226,-34.685,0.007,0.986,-0.135,0.427,-0.061,1.465,73.333,71125.000,1.000
-29.127,1.499,-17.457,-8.151,-11.930,-5.330,-0.330,-33.614,0.009,0.983,-0.135,0.336,0.000,1.495,73.333,71126.000,1.000
-29.469,2.852,-17.798,-8.389,-12.229,-3.745,-0.783,-33.929,0.013,0.980,-0.135,0.244,0.092,1.617,73.333,71127.000,1.000
-29.522,4.243,-18.086,-8.774,-13.095,-2.760,-3.198,-35.237,0.013,0.980,-0.135,0.366,-0.092,1.648,73.333,71128.000,1.000
-29.283,5.252,-18.264,-9.143,-13.992,-2.560,-6.243,-36.896,0.008,0.983,-0.133,0.397,-0.153,1.801,73.333,71129.000,1.000
-29.151,5.463,-18.544,-9.626,-14.591,-3.108,-8.552,-38.376,0.007,0.985,-0.134,0.305,-0.153,1.740,73.333,71130.000,1.000
-29.585,4.684,-19.261,-10.572,-14.907,-4.172,-9.282,-39.450,0.003,0.987,-0.131,0.244,-0.183,1.709,73.333,71131.000,1.000
-30.679,3.165,-20.522,-12.117,-15.029,-5.231,-8.189,-39.980,0.002,0.985,-0.132,0.244,-0.336,1.617,73.333,71132.000,1.000
-32.050,1.584,-21.995,-13.883,-14.988,-5.831,-5.832,-39.866,0.001,0.981,-0.133,0.122,-0.336,1.526,73.333,71133.000,1.000
-33.071,0.612,-23.031,-15.166,-14.798,-5.985,-3.602,-39.355,0.002,0.979,-0.135,0.031,-0.549,1.434,73.333,71134.000,1.000
-33.319,0.563,-23.052,-15.481,-14.458,-5.832,-2.587,-38.948,0.004,0.976,-0.134,0.122,-0.641,1.251,73.333,71135.000,1.000
-32.908,1.268,-21.958,-14.846,-13.931,-5.342,-2.808,-38.908,0.005,0.976,-0.135,0.275,-0.793,1.129,73.333,71136.000,1.000
-32.243,2.342,-20.069,-13.543,-13.123,-4.478,-3.626,-39.009,0.007,0.976,-0.133,0.427,-0.885,1.099,73.333,71137.000,1.000
-31.677,3.430,-17.909,-11.950,-12.082,-3.504,-4.256,-38.837,0.008,0.978,-0.135,0.427,-0.916,1.007,73.333,71138.000,1.000
-31.421,4.087,-16.081,-10.576,-11.121,-2.966,-4.345,-38.240,0.008,0.979,-0.131,0.366,-0.854,0.916,73.333,71139.000,1.000
-31.593,3.880,-15.085,-9.915,-10.604,-3.243,-4.136,-37.368,0.007,0.983,-0.135,0.458,-0.885,0.885,73.333,71140.000,1.000
-32.212,2.614,-15.104,-10.110,-10.650,-4.280,-4.062,-36.404,0.007,0.983,-0.134,0.305,-0.916,1.007,73.333,71141.000,1.000
-32.983,0.588,-15.783,-10.795,-11.004,-5.657,-4.347,-35.410,0.010,0.984,-0.134,0.275,-0.854,0.824,73.333,71142.000,1.000
-33.409,-1.493,-16.470,-11.414,-11.387,-6.894,-4.934,-34.523,0.010,0.980,-0.135,0.244,-0.916,0.854,73.333,71143.000,1.000
-33.132,-2.987,-16.662,-11.585,-11.724,-7.796,-5.667,-33.930,0.010,0.979,-0.135,0.214,-0.916,1.038,73.333,71144.000,1.000
-32.102,-3.558,-16.219,-11.177,-12.018,-8.426,-6.228,-33.489,0.010,0.979,-0.135,0.214,-0.946,1.038,73.333,71145.000,1.000
-30.572,-3.268,-15.384,-10.361,-12.281,-8.926,-6.318,-32.903,0.010,0.979,-0.133,0.214,-0.885,1.221,73.333,71146.000,1.000
-28.880,-2.431,-14.528,-9.481,-12.511,-9.390,-6.054,-32.251,0.010,0.981,-0.131,0.305,-0.916,1.160,73.333,71147.000,1.000
-27.363,-1.426,-13.943,-8.904,-12.730,-9.902,-5.939,-32.135,0.007,0.982,-0.131,0.122,-0.885,1.404,73.333,71148.000,1.000
-26.258,-0.561,-13.723,-8.783,-12.842,-10.439,-6.236,-32.995,0.007,0.983,-0.132,0.061,-0.763,1.343,73.333,71149.000,1.000
-25.500,0.141,-13.670,-8.872,-12.569,-10.641,-6.375,-34.438,0.007,0.982,-0.134,0.061,-0.763,1.343,73.333,71150.000,1.000
-24.884,0.623,-13.642,-8.891,-11.946,-10.218,-5.870,-35.834,0.008,0.979,-0.131,0.122,-0.824,1.373,73.333,71151.000,1.000
-24.349,0.583,-13.795,-8.908,-11.524,-9.289,-5.366,-37.119,0.009,0.981,-0.131,0.092,-0.854,1.434,73.333,71152.000,1.000
-24.061,-0.141,-14.379,-9.223,-11.832,-8.113,-5.806,-38.575,0.008,0.980,-0.132,0.000,-0.824,1.373,73.333,71153.000,1.000
-24.193,-1.363,-15.455,-10.009,-12.892,-7.103,-7.371,-40.175,0.008,0.980,-0.131,0.031,-0.793,1.373,73.333,71154.000,1.000
-24.702,-2.665,-16.827,-11.171,-14.416,-7.011,-9.548,-41.460,0.009,0.979,-0.132,-0.031,-0.824,1.312,73.333,71155.000,1.000
-25.367,-3.645,-18.126,-12.420,-16.102,-8.429,-11.591,-41.993,0.008,0.979,-0.130,0.092,-0.854,1.221,73.333,71156.000,1.000
-25.923,-3.980,-18.857,-13.331,-17.525,-11.007,-12.616,-41.549,0.008,0.979,-0.134,0.061,-0.854,1.282,73.333,71157.000,1.000
-26.245,-3.560,-18.702,-13.662,-18.329,-13.790,-12.054,-40.216,0.009,0.979,-0.133,0.122,-0.885,1.221,73.333,71158.000,1.000
-26.250,-2.565,-17.732,-13.492,-18.562,-16.069,-10.608,-38.689,0.008,0.979,-0.132,0.183,-0.977,1.221,73.333,71159.000,1.000
-25.729,-1.179,-16.171,-12.917,-18.485,-17.369,-9.720,-37.922,0.009,0.979,-0.133,0.214,-0.946,1.129,73.333,71160.000,1.000
-24.696,0.465,-14.318,-11.971,-18.222,-17.234,-10.059,-38.282,0.011,0.979,-0.130,0.244,-0.946,1.129,73.333,71161.000,1.000
-23.763,2.091,-12.700,-10.878,-17.791,-15.605,-11.145,-39.251,0.012,0.979,-0.132,0.275,-0.854,1.160,73.333,71162.000,1.000
-24.013,3.154,-12.165,-10.292,-17.472,-13.256,-12.116,-40.033,0.010,0.979,-0.131,0.397,-0.763,1.129,73.333,71163.000,1.000
-26.232,3.055,-13.459,-10.991,-17.728,-11.426,-12.559,-40.202,0.012,0.978,-0.131,0.427,-0.793,1.190,73.333,71164.000,1.000
-30.067,1.818,-16.442,-13.080,-18.682,-10.825,-12.616,-39.852,0.013,0.977,-0.133,0.458,-0.732,1.190,73.333,71165.000,1.000
-34.061,0.144,-19.939,-15.636,-19.911,-11.233,-12.646,-39.391,0.012,0.978,-0.133,0.519,-0.641,1.068,73.333,71166.000,1.000
-36.541,-1.149,-22.413,-17.275,-20.717,-11.815,-12.655,-39.062,0.010,0.979,-0.131,0.610,-0.671,1.038,73.333,71167.000,1.000
-36.724,-1.710,-23.013,-17.229,-20.710,-11.731,-11.977,-38.783,0.008,0.979,-0.132,0.610,-0.671,1.007,73.333,71168.000,1.000
-35.186,-1.925,-22.133,-15.909,-20.153,-10.812,-9.926,-38.414,0.010,0.979,-0.129,0.671,-0.671,1.038,73.333,71169.000,1.000
-33.313,-2.543,-21.039,-14.584,-19.829,-9.831,-6.686,-38.011,0.010,0.978,-0.128,0.641,-0.610,1.160,73.333,71170.000,1.000
-32.257,-4.097,-20.983,-14.470,-20.598,-10.141,-3.732,-38.045,0.008,0.979,-0.131,0.580,-0.610,1.160,73.333,71171.000,1.000
-32.189,-6.499,-22.362,-15.838,-22.797,-12.735,-3.244,-39.252,0.009,0.980,-0.130,0.519,-0.641,0.946,73.333,71172.000,1.000
-32.597,-9.225,-24.700,-18.082,-26.025,-17.441,-6.468,-42.046,0.010,0.978,-0.132,0.488,-0.671,0.977,73.333,71173.000,1.000
-32.961,-11.756,-27.176,-20.389,-29.293,-22.739,-12.455,-45.964,0.008,0.979,-0.134,0.549,-0.610,0.916,73.333,71174.000,1.000
-32.878,-13.510,-28.940,-22.085,-31.355,-26.363,-18.417,-49.681,0.008,0.981,-0.133,0.580,-0.580,0.946,73.333,71175.000,1.000
-32.009,-13.914,-29.316,-22.626,-31.299,-26.819,-21.744,-51.840,0.009,0.981,-0.135,0.519,-0.580,0.854,73.333,71176.000,1.000
-30.180,-12.725,-27.975,-21.570,-28.947,-24.397,-21.629,-51.812,0.008,0.980,-0.131,0.488,-0.610,0.824,73.333,71177.000,1.000
-27.592,-10.196,-25.057,-18.813,-24.892,-20.679,-18.908,-49.825,0.007,0.982,-0.131,0.488,-0.702,0.763,73.333,71178.000,1.000
-24.786,-7.016,-21.117,-14.749,-20.150,-17.304,-15.038,-46.591,0.005,0.981,-0.132,0.519,-0.671,0.763,73.333,71179.000,1.000
-22.363,-3.987,-16.896,-10.171,-15.721,-15.141,-11.148,-42.854,0.005,0.982,-0.133,0.427,-0.763,0.824,73.333,71180.000,1.000
-20.809,-1.819,-13.228,-6.169,-12.470,-14.382,-8.091,-39.556,0.006,0.983,-0.130,0.305,-0.732,0.824,73.333,71181.000,1.000
-20.256,-0.851,-10.748,-3.786,-10.984,-14.832,-6.740,-37.815,0.007,0.981,-0.131,0.183,-0.824,0.824,73.333,71182.000,1.000
-20.353,-0.856,-9.571,-3.453,-11.306,-16.025,-7.370,-38.111,0.004,0.980,-0.132,0.153,-0.824,0.854,73.333,71183.000,1.000
-20.404,-1.202,-9.235,-4.661,-12.825,-17.371,-9.340,-39.855,0.003,0.979,-0.134,0.000,-0.885,0.916,73.333,71184.000,1.000
-19.766,-1.157,-8.991,-6.327,-14.571,-18.299,-11.530,-41.961,0.004,0.981,-0.131,0.000,-0.977,0.977,73.333,71185.000,1.000
-18.312,-0.335,-8.333,-7.542,-15.735,-18.377,-12.836,-43.561,0.006,0.983,-0.131,-0.031,-1.007,0.885,73.333,71186.000,1.000
-16.345,1.213,-7.158,-7.887,-15.883,-17.270,-12.502,-44.140,0.005,0.979,-0.129,-0.092,-1.038,0.793,73.333,71187.000,1.000
-14.254,3.239,-5.673,-7.402,-15.119,-14.955,-10.508,-43.708,0.003,0.980,-0.130,-0.092,-1.007,0.854,73.333,71188.000,1.000
-12.360,5.381,-4.227,-6.458,-14.061,-12.179,-7.865,-42.925,0.006,0.979,-0.132,-0.122,-1.038,0.916,73.333,71189.000,1.000
-10.978,7.304,-3.075,-5.480,-13.402,-10.141,-5.916,-42.555,0.006,0.978,-0.130,-0.092,-1.099,0.977,73.333,71190.000,1.000
-10.470,8.790,-2.325,-4.780,-13.439,-9.585,-5.451,-42.871,0.006,0.977,-0.130,-0.153,-1.190,0.977,73.333,71191.000,1.000
-11.032,9.828,-1.990,-4.504,-13.974,-10.351,-6.588,-43.706,0.007,0.980,-0.131,-0.122,-1.221,1.160,73.333,71192.000,1.000
-12.525,10.523,-2.103,-4.667,-14.672,-11.722,-8.949,-44.899,0.006,0.979,-0.130,-0.061,-1.221,1.251,73.333,71193.000,1.000
-14.521,10.862,-2.707,-5.118,-15.356,-12.996,-11.959,-46.446,0.007,0.979,-0.129,-0.092,-1.251,1.251,73.333,71194.000,1.000
-16.548,10.731,-3.775,-5.615,-16.047,-13.840,-15.069,-48.322,0.007,0.978,-0.130,0.000,-1.190,1.160,73.333,71195.000,1.000
-18.463,10.005,-5.295,-6.083,-16.822,-14.370,-17.689,-50.349,0.006,0.979,-0.133,0.000,-1.221,1.251,73.333,71196.000,1.000
-20.290,8.858,-7.079,-6.510,-17.398,-14.678,-18.809,-51.877,0.009,0.981,-0.130,0.031,-1.282,1.251,73.333,71197.000,1.000
-21.811,7.952,-8.554,-6.677,-17.074,-14.388,-17.201,-51.902,0.010,0.979,-0.129,0.061,-1.129,1.373,73.333,71198.000,1.000
-22.532,8.012,-9.048,-6.261,-15.361,-13.007,-12.852,-50.015,0.010,0.977,-0.130,0.031,-1.038,1.404,73.333,71199.000,1.000
-22.144,9.298,-8.347,-5.257,-12.615,-10.670,-7.822,-47.139,0.010,0.979,-0.130,0.000,-1.129,1.465,73.333,71200.000,1.000
-20.952,11.319,-6.984,-4.150,-9.890,-8.330,-4.970,-44.918,0.009,0.980,-0.132,0.031,-1.068,1.404,73.333,71201.000,1.000
-19.667,13.157,-5.815,-3.457,-8.028,-7.035,-5.636,-44.255,0.011,0.978,-0.134,0.031,-1.038,1.404,73.333,71202.000,1.000
-18.936,14.060,-5.428,-3.304,-7.161,-7.242,-8.823,-44.805,0.008,0.980,-0.130,0.092,-1.038,1.495,73.333,71203.000,1.000
-19.005,13.781,-5.843,-3.341,-6.840,-8.546,-12.450,-45.627,0.012,0.980,-0.131,0.061,-0.916,1.373,73.333,71204.000,1.000
-19.844,12.488,-6.796,-3.189,-6.614,-9.951,-14.784,-46.073,0.011,0.979,-0.130,0.122,-0.885,1.343,73.333,71205.000,1.000
-21.638,10.025,-8.514,-3.237,-6.861,-11.100,-15.493,-46.484,0.011,0.981,-0.129,0.061,-0.763,1.282,73.333,71206.000,1.000
-24.541,5.927,-11.502,-4.402,-8.518,-12.744,-15.671,-47.768,0.011,0.981,-0.131,0.092,-0.702,1.312,73.333,71207.000,1.000
-27.997,0.478,-15.451,-6.871,-11.754,-15.484,-16.379,-50.160,0.011,0.981,-0.130,0.031,-0.732,1.343,73.333,71208.000,1.000
-30.851,-4.950,-19.052,-9.626,-15.409,-18.715,-17.466,-52.801,0.010,0.980,-0.132,0.061,-0.702,1.404,73.333,71209.000,1.000
-32.235,-8.768,-21.049,-11.427,-17.921,-21.139,-17.847,-54.457,0.007,0.981,-0.132,-0.031,-0.732,1.404,73.333,71210.000,1.000
-32.226,-10.290,-21.201,-11.877,-18.564,-21.918,-16.729,-54.426,0.009,0.981,-0.132,-0.031,-0.610,1.282,73.333,71211.000,1.000
-31.594,-9.999,-20.215,-11.457,-17.799,-21.146,-14.546,-52.913,0.012,0.981,-0.133,0.061,-0.580,1.282,73.333,71212.000,1.000
-31.297,-9.160,-19.334,-11.177,-17.123,-19.865,-12.966,-51.251,0.011,0.980,-0.128,0.031,-0.519,1.160,73.333,71213.000,1.000
-32.048,-9.196,-19.804,-12.102,-18.259,-19.619,-13.933,-51.371,0.012,0.982,-0.130,-0.031,-0.397,1.129,73.333,71214.000,1.000
-33.893,-10.643,-22.000,-14.544,-21.746,-21.239,-17.812,-54.075,0.012,0.982,-0.129,-0.061,-0.488,1.190,73.333,71215.000,1.000
-36.149,-12.674,-25.047,-17.642,-26.381,-24.031,-22.621,-58.093,0.011,0.982,-0.131,0.061,-0.458,1.190,73.333,71216.000,1.000
-37.841,-13.901,-27.449,-19.932,-30.158,-26.367,-25.528,-61.153,0.012,0.980,-0.129,-0.061,-0.397,1.160,73.333,71217.000,1.000
-38.481,-13.751,-28.329,-20.491,-31.803,-27.137,-24.941,-61.750,0.011,0.979,-0.129,-0.061,-0.366,1.099,73.333,71218.000,1.000
-38.438,-12.932,-28.013,-19.501,-31.348,-26.461,-21.372,-59.850,0.009,0.980,-0.131,-0.031,-0.336,1.068,73.333,71219.000,1.000
-38.546,-12.623,-27.530,-17.887,-29.713,-25.207,-16.832,-56.520,0.008,0.981,-0.129,-0.031,-0.183,1.099,73.333,71220.000,1.000
-39.474,-13.665,-27.839,-16.757,-28.148,-24.426,-13.763,-53.386,0.008,0.981,-0.128,-0.031,-0.244,1.190,73.333,71221.000,1.000
-41.245,-16.072,-29.230,-16.889,-27.639,-24.809,-13.712,-51.843,0.009,0.980,-0.132,0.000,-0.183,1.190,73.333,71222.000,1.000
-43.368,-19.049,-31.349,-18.507,-28.600,-26.308,-16.515,-52.463,0.009,0.979,-0.129,0.031,-0.153,1.282,73.333,71223.000,1.000
-45.250,-21.656,-33.637,-21.282,-30.870,-28.390,-20.904,-54.890,0.009,0.977,-0.130,0.122,-0.183,1.251,73.333,71224.000,1.000
-46.363,-23.281,-35.540,-24.406,-33.695,-30.417,-25.162,-57.854,0.010,0.978,-0.132,0.122,-0.214,1.251,73.333,71225.000,1.000
-46.420,-23.739,-36.587,-26.923,-35.929,-31.724,-27.455,-59.718,0.009,0.980,-0.130,0.214,-0.214,1.251,73.333,71226.000,1.000
-45.575,-23.192,-36.574,-28.253,-36.642,-31.847,-26.801,-59.581,0.008,0.979,-0.131,0.275,-0.214,1.221,73.333,71227.000,1.000
-44.469,-22.050,-35.827,-28.574,-35.836,-31.014,-23.924,-57.974,0.007,0.977,-0.134,0.275,-0.305,1.129,73.333,71228.000,1.000
-43.705,-20.710,-34.856,-28.418,-34.213,-29.762,-20.474,-55.987,0.008,0.979,-0.133,0.275,-0.397,1.251,73.333,71229.000,1.000
-43.216,-19.245,-33.691,-27.896,-32.373,-28.132,-17.560,-53.986,0.009,0.979,-0.134,0.244,-0.397,1.343,73.333,71230.000,1.000
-42.488,-17.690,-32.029,-26.753,-30.704,-26.079,-15.772,-51.873,0.008,0.980,-0.130,0.397,-0.336,1.251,73.333,71231.000,1.000
-41.152,-16.169,-29.743,-24.828,-29.386,-23.914,-15.348,-49.710,0.008,0.981,-0.131,0.427,-0.366,1.312,73.333,71232.000,1.000
-39.393,-14.755,-27.156,-22.380,-28.369,-22.010,-15.739,-47.637,0.009,0.981,-0.135,0.427,-0.488,1.251,73.333,71233.000,1.000
-37.862,-13.645,-24.991,-20.151,-27.716,-20.810,-16.515,-45.988,0.010,0.980,-0.130,0.488,-0.519,1.343,73.333,71234.000,1.000
-36.996,-12.980,-23.795,-18.914,-27.636,-20.797,-18.122,-45.373,0.009,0.982,-0.132,0.488,-0.549,1.251,73.333,71235.000,1.000
-36.477,-12.424,-23.339,-18.757,-27.895,-21.827,-20.631,-45.940,0.009,0.981,-0.129,0.488,-0.580,1.343,73.333,71236.000,1.000
-35.413,-11.197,-22.665,-18.883,-27.579,-22.789,-22.827,-46.740,0.007,0.981,-0.131,0.519,-0.427,1.343,73.333,71237.000,1.000
-33.227,-8.742,-20.963,-18.398,-25.978,-22.524,-23.442,-46.551,0.007,0.980,-0.134,0.580,-0.549,1.373,73.333,71238.000,1.000
-30.271,-5.349,-18.337,-17.145,-23.388,-20.846,-22.509,-45.134,0.007,0.980,-0.133,0.580,-0.641,1.312,73.333,71239.000,1.000
-27.512,-1.960,-15.620,-15.682,-20.807,-18.429,-20.850,-43.311,0.009,0.979,-0.130,0.580,-0.671,1.221,73.333,71240.000,1.000
-25.731,0.489,-13.639,-14.691,-19.101,-16.166,-19.176,-42.155,0.008,0.982,-0.129,0.580,-0.671,1.282,73.333,71241.000,1.000
-24.848,1.790,-12.511,-14.339,-18.365,-14.566,-17.846,-41.984,0.008,0.981,-0.130,0.641,-0.671,1.312,73.333,71242.000,1.000
-24.074,2.589,-11.680,-14.183,-18.041,-13.543,-16.755,-42.141,0.009,0.980,-0.130,0.610,-0.702,1.312,73.333,71243.000,1.000
-22.600,3.705,-10.430,-13.542,-17.463,-12.783,-15.614,-41.846,0.009,0.980,-0.132,0.580,-0.732,1.312,73.333,71244.000,1.000
-20.015,5.632,-8.206,-11.831,-16.182,-12.113,-14.247,-40.875,0.010,0.980,-0.134,0.671,-0.793,1.343,73.333,71245.000,1.000
-16.373,8.437,-4.839,-8.764,-13.962,-11.292,-12.489,-39.345,0.010,0.980,-0.134,0.641,-0.854,1.312,73.333,71246.000,1.000
-12.024,11.933,-0.560,-4.404,-10.628,-9.558,-9.904,-37.124,0.011,0.981,-0.135,0.671,-0.732,1.129,73.333,71247.000,1.000
-7.586,15.772,4.070,0.749,-6.274,-6.137,-5.888,-33.818,0.008,0.981,-0.133,0.671,-0.702,1.190,73.333,71248.000,1.000
-3.865,19.368,8.317,5.781,-1.481,-1.264,-0.338,-29.292,0.009,0.981,-0.132,0.671,-0.824,1.251,73.333,71249.000,1.000
-1.547,22.014,11.476,9.588,2.761,3.653,5.877,-24.201,0.009,0.981,-0.134,0.641,-0.732,1.221,73.333,71250.000,1.000
-0.965,23.026,12.924,11.183,5.243,6.673,10.779,-20.268,0.010,0.980,-0.132,0.610,-0.763,1.251,73.333,71251.000,1.000
-1.851,22.238,12.484,10.323,5.213,6.586,12.077,-19.318,0.008,0.979,-0.131,0.519,-0.793,1.312,73.333,71252.000,1.000
-3.371,20.369,10.714,7.858,2.990,3.892,8.944,-21.743,0.009,0.978,-0.130,0.549,-0.763,1.251,73.333,71253.000,1.000
-4.631,18.491,8.558,5.188,-0.279,0.319,2.713,-26.284,0.009,0.980,-0.131,0.641,-0.732,1.251,73.333,71254.000,1.000
-5.280,17.285,6.724,3.346,-3.413,-2.489,-4.161,-31.070,0.010,0.980,-0.131,0.519,-0.763,1.129,73.333,71255.000,1.000
-5.641,16.752,5.390,2.551,-5.760,-3.842,-9.573,-34.644,0.010,0.980,-0.135,0.580,-0.671,1.221,73.333,71256.000,1.000
-6.042,16.653,4.603,2.615,-6.968,-3.812,-12.331,-36.196,0.013,0.981,-0.133,0.580,-0.763,1.282,73.333,71257.000,1.000
-6.361,16.938,4.551,3.362,-6.764,-2.789,-12.106,-35.631,0.010,0.981,-0.133,0.488,-0.763,1.343,73.333,71258.000,1.000
-6.378,17.559,5.257,4.582,-5.226,-1.390,-9.642,-33.690,0.012,0.982,-0.132,0.397,-0.702,1.343,73.333,71259.000,1.000
-6.165,18.347,6.367,6.010,-2.924,-0.123,-6.174,-31.312,0.009,0.984,-0.132,0.336,-0.702,1.343,73.333,71260.000,1.000
-6.043,19.081,7.342,7.411,-0.613,0.947,-2.521,-28.917,0.007,0.983,-0.131,0.244,-0.763,1.251,73.333,71261.000,1.000
-6.360,19.513,7.763,8.500,1.048,1.787,0.548,-26.774,0.006,0.981,-0.133,0.092,-0.732,1.343,73.333,71262.000,1.000
-7.558,19.234,7.291,8.731,1.439,1.764,1.817,-25.590,0.007,0.980,-0.134,0.092,-0.732,1.190,73.333,71263.000,1.000
-10.027,17.811,5.695,7.624,0.265,0.106,0.429,-25.874,0.007,0.977,-0.136,0.122,-0.702,1.282,73.333,71264.000,1.000
-13.637,15.317,3.140,5.355,-2.046,-3.041,-3.179,-27.125,0.009,0.976,-0.136,0.183,-0.763,1.251,73.333,71265.000,1.000
-17.679,12.355,0.195,2.768,-4.634,-6.730,-7.662,-28.326,0.010,0.981,-0.134,0.336,-0.732,1.160,73.333,71266.000,1.000
-21.191,9.722,-2.358,0.938,-6.655,-9.949,-11.505,-28.627,0.013,0.981,-0.133,0.275,-0.702,1.190,73.333,71267.000,1.000
-23.496,8.056,-3.916,0.511,-7.646,-11.937,-13.302,-27.589,0.013,0.982,-0.132,0.214,-0.641,1.282,73.333,71268.000,1.000
-24.474,7.557,-4.332,1.327,-7.633,-12.250,-12.417,-25.403,0.014,0.980,-0.134,0.275,-0.549,1.312,73.333,71269.000,1.000
-24.386,8.035,-3.837,2.674,-6.979,-11.003,-9.524,-22.858,0.015,0.976,-0.134,0.214,-0.488,1.312,73.333,71270.000,1.000
-23.733,8.955,-2.946,3.714,-6.303,-9.144,-6.227,-20.921,0.014,0.973,-0.134,0.336,-0.427,1.495,73.333,71271.000,1.000
-23.144,9.664,-2.233,3.844,-6.277,-7.969,-4.147,-20.305,0.015,0.969,-0.136,0.488,-0.305,1.495,73.333,71272.000,1.000
-23.265,9.708,-2.143,2.788,-7.387,-8.306,-4.275,-21.515,0.015,0.970,-0.139,0.610,-0.305,1.434,73.333,71273.000,1.000
-24.497,8.992,-2.846,0.693,-9.581,-10.064,-6.655,-24.563,0.015,0.972,-0.138,0.793,-0.092,1.495,73.333,71274.000,1.000
-26.763,7.867,-4.174,-1.836,-12.108,-12.284,-10.159,-28.378,0.016,0.975,-0.137,0.885,-0.061,1.526,73.333,71275.000,1.000
-29.812,6.688,-5.965,-4.192,-14.119,-13.856,-13.116,-31.341,0.015,0.979,-0.135,0.946,0.031,1.587,73.333,71276.000,1.000
-33.336,5.545,-8.147,-6.093,-15.228,-14.047,-14.256,-32.312,0.012,0.982,-0.133,1.007,0.183,1.556,73.333,71277.000,1.000
-36.743,4.457,-10.497,-7.514,-15.521,-12.609,-13.131,-31.119,0.013,0.984,-0.132,1.007,0.153,1.495,73.333,71278.000,1.000
-39.231,3.398,-12.653,-8.549,-15.374,-10.090,-10.509,-28.600,0.014,0.985,-0.136,0.885,0.244,1.404,73.333,71279.000,1.000
-40.301,2.314,-14.355,-9.332,-15.229,-7.744,-7.980,-26.025,0.014,0.987,-0.136,0.732,0.336,1.373,73.333,71280.000,1.000
-40.150,1.221,-15.594,-9.970,-15.378,-6.656,-6.698,-24.249,0.012,0.986,-0.134,0.641,0.366,1.495,73.333,71281.000,1.000
-39.422,0.199,-16.496,-10.467,-15.878,-7.241,-6.844,-23.390,0.010,0.986,-0.137,0.580,0.458,1.282,73.333,71282.000,1.000
-38.812,-0.741,-17.247,-10.813,-16.676,-9.339,-7.891,-23.183,0.009,0.988,-0.138,0.519,0.397,1.129,73.333,71283.000,1.000
-38.630,-1.464,-17.829,-10.949,-17.472,-11.764,-8.724,-23.257,0.006,0.989,-0.137,0.366,0.336,0.946,73.333,71284.000,1.000
-38.472,-1.388,-17.780,-10.674,-17.673,-12.249,-7.948,-23.309,0.005,0.989,-0.136,0.183,0.305,0.854,73.333,71285.000,1.000
-37.550,0.008,-16.641,-9.860,-16.928,-9.249,-4.846,-23.235,0.003,0.988,-0.139,-0.031,0.183,0.702,73.333,71286.000,1.000
-35.329,2.505,-14.455,-8.543,-15.371,-3.550,0.078,-22.816,0.003,0.985,-0.135,-0.031,0.000,0.488,73.333,71287.000,1.000
-32.091,5.054,-11.890,-7.007,-13.604,1.910,5.293,-21.941,0.005,0.982,-0.135,-0.183,-0.061,0.244,73.333,71288.000,1.000
-28.809,6.345,-9.869,-5.724,-12.430,3.810,8.700,-21.007,0.006,0.980,-0.135,-0.214,-0.092,0.183,73.333,71289.000,1.000
-26.329,5.845,-8.898,-4.966,-12.328,0.850,8.644,-20.487,0.009,0.978,-0.135,-0.183,-0.061,0.122,73.333,71290.000,1.000
-24.898,4.026,-8.922,-4.702,-13.364,-5.559,4.786,-20.723,0.009,0.977,-0.137,-0.214,-0.122,0.214,73.333,71291.000,1.000
-24.208,1.827,-9.508,-4.683,-15.278,-12.740,-1.763,-21.973,0.010,0.973,-0.133,-0.275,-0.122,0.275,73.333,71292.000,1.000
-23.700,0.194,-10.075,-4.580,-17.538,-18.387,-8.967,-24.133,0.009,0.974,-0.134,-0.153,-0.061,0.336,73.333,71293.000,1.000
-22.779,-0.180,-10.085,-4.093,-19.394,-21.213,-14.748,-26.511,0.009,0.973,-0.133,0.031,-0.153,0.427,73.333,71294.000,1.000
-20.996,1.007,-9.170,-3.035,-20.065,-20.968,-17.466,-28.041,0.010,0.972,-0.132,0.153,-0.153,0.488,73.333,71295.000,1.000
-18.296,3.490,-7.301,-1.538,-19.238,-18.397,-16.667,-28.155,0.009,0.976,-0.131,0.214,-0.092,0.549,73.333,71296.000,1.000
-14.918,6.586,-4.793,-0.124,-17.398,-14.822,-13.766,-27.482,0.008,0.979,-0.128,0.275,-0.122,0.580,73.333,71297.000,1.000
-11.191,9.509,-2.274,0.514,-15.621,-11.495,-11.025,-27.349,0.008,0.979,-0.128,0.336,-0.153,0.732,73.333,71298.000,1.000
-7.451,11.592,-0.453,0.002,-14.810,-9.122,-9.700,-28.526,0.008,0.978,-0.129,0.305,-0.031,0.885,73.333,71299.000,1.000
-3.998,12.623,0.393,-1.333,-15.023,-7.785,-9.453,-30.569,0.010,0.978,-0.128,0.244,-0.031,0.916,73.333,71300.000,1.000
-1.170,12.828,0.472,-2.723,-15.685,-7.417,-9.545,-32.400,0.010,0.980,-0.126,0.305,0.031,1.068,73.333,71301.000,1.000
0.752,12.550,0.136,-3.430,-16.177,-8.006,-9.910,-33.109,0.011,0.981,-0.125,0.244,0.000,1.251,73.333,71302.000,1.000
1.712,12.029,-0.386,-3.046,-16.171,-9.265,-10.724,-32.336,0.011,0.982,-0.124,0.336,0.061,1.312,73.333,71303.000,1.000
2.020,11.435,-0.843,-1.517,-15.539,-10.565,-11.704,-30.271,0.010,0.982,-0.123,0.427,0.061,1.343,73.333,71304.000,1.000
2.384,11.099,-0.737,1.014,-14.174,-11.280,-12.021,-27.418,0.011,0.981,-0.125,0.397,0.092,1.312,73.333,71305.000,1.000
3.527,11.439,0.420,4.255,-12.067,-11.029,-10.700,-24.367,0.010,0.981,-0.123,0.427,0.122,1.495,73.333,71306.000,1.000
5.855,12.826,2.798,7.852,-9.271,-9.496,-7.082,-21.399,0.011,0.982,-0.126,0.366,0.183,1.526,73.333,71307.000,1.000
9.283,15.371,6.105,11.379,-5.958,-6.489,-1.265,-18.331,0.008,0.981,-0.129,0.366,0.183,1.526,73.333,71308.000,1.000
13.194,18.519,9.584,14.246,-2.670,-2.553,5.243,-15.198,0.007,0.979,-0.126,0.305,0.244,1.404,73.333,71309.000,1.000
16.541,21.098,12.189,15.779,-0.364,0.838,9.842,-12.941,0.010,0.979,-0.125,0.305,0.275,1.343,73.333,71310.000,1.000
18.212,21.938,13.008,15.468,0.084,2.259,10.682,-12.936,0.010,0.977,-0.127,0.275,0.244,1.373,73.333,71311.000,1.000
17.880,20.832,12.028,13.520,-1.163,1.779,8.290,-15.438,0.009,0.974,-0.128,0.397,0.275,1.343,73.333,71312.000,1.000
16.334,18.693,10.219,10.969,-2.912,0.481,4.846,-19.075,0.010,0.975,-0.133,0.488,0.397,1.373,73.333,71313.000,1.000
14.905,16.655,8.744,9.091,-3.977,-1.281,1.909,-22.014,0.012,0.973,-0.131,0.702,0.397,1.312,73.333,71314.000,1.000
14.811,15.484,8.426,8.865,-3.775,-3.742,-0.118,-23.069,0.011,0.974,-0.131,0.854,0.366,1.312,73.333,71315.000,1.000
16.561,15.401,9.477,10.578,-2.339,-6.474,-0.953,-22.027,0.012,0.974,-0.132,0.946,0.305,1.343,73.333,71316.000,1.000
19.722,16.185,11.508,13.738,-0.127,-8.214,-0.211,-19.481,0.010,0.976,-0.127,1.099,0.366,1.282,73.333,71317.000,1.000
23.305,17.587,13.830,17.350,2.171,-7.882,1.854,-16.681,0.010,0.976,-0.131,1.129,0.397,1.312,73.333,71318.000,1.000
26.525,19.555,15.906,20.434,3.956,-5.512,3.980,-15.149,0.014,0.976,-0.133,1.129,0.458,1.373,73.333,71319.000,1.000
29.231,22.163,17.604,22.484,5.048,-2.156,4.757,-15.674,0.015,0.976,-0.129,1.221,0.641,1.312,73.333,71320.000,1.000
31.539,25.157,18.907,23.417,5.457,0.748,3.542,-17.851,0.012,0.976,-0.132,1.343,0.641,1.343,73.333,71321.000,1.000
33.394,27.791,19.685,23.382,5.113,2.110,0.653,-20.594,0.012,0.974,-0.134,1.404,0.641,1.526,73.333,71322.000,1.000
34.500,29.171,19.771,22.659,3.951,1.728,-2.754,-22.823,0.010,0.975,-0.136,1.495,0.671,1.587,73.333,71323.000,1.000
34.758,28.939,19.330,21.766,2.296,0.346,-5.187,-23.666,0.011,0.977,-0.134,1.709,0.702,1.526,73.333,71324.000,1.000
34.774,27.873,19.119,21.509,1.028,-0.785,-5.460,-22.403,0.012,0.980,-0.134,1.801,0.763,1.465,73.333,71325.000,1.000
35.469,27.235,19.856,22.379,0.854,-1.042,-3.536,-19.201,0.011,0.987,-0.133,1.862,0.885,1.465,73.333,71326.000,1.000
37.410,27.619,21.636,24.143,1.687,-1.072,-0.923,-15.560,0.009,0.990,-0.133,1.740,0.885,1.495,73.333,71327.000,1.000
40.694,28.789,24.190,26.334,2.956,-1.990,0.414,-13.209,0.008,0.989,-0.132,1.465,0.763,1.556,73.333,71328.000,1.000
45.065,30.192,27.216,28.728,4.175,-4.138,-0.537,-12.880,0.010,0.986,-0.131,1.221,0.793,1.587,73.333,71329.000,1.000
49.862,31.378,30.249,31.076,5.004,-6.736,-3.324,-14.370,0.007,0.982,-0.132,1.007,0.763,1.465,73.333,71330.000,1.000
54.163,32.136,32.630,32.852,5.164,-8.651,-6.538,-16.983,0.010,0.979,-0.130,1.007,0.732,1.495,73.333,71331.000,1.000
57.408,32.620,34.078,33.739,4.766,-9.246,-8.901,-19.494,0.010,0.981,-0.133,1.007,0.641,1.495,73.333,71332.000,1.000
59.569,33.220,34.860,33.897,4.351,-8.556,-9.814,-20.547,0.012,0.983,-0.135,1.068,0.732,1.434,73.333,71333.000,1.000
60.717,34.051,35.306,33.643,4.447,-7.041,-9.207,-19.522,0.011,0.986,-0.131,1.038,0.671,1.526,73.333,71334.000,1.000
60.759,34.750,35.447,33.175,5.076,-5.516,-7.388,-16.927,0.010,0.989,-0.128,1.038,0.702,1.526,73.333,71335.000,1.000
59.539,34.784,35.058,32.547,5.704,-4.937,-4.990,-14.023,0.011,0.990,-0.132,0.763,0.671,1.495,73.333,71336.000,1.000
57.365,34.175,34.212,32.009,5.987,-5.427,-2.544,-11.888,0.013,0.990,-0.131,0.519,0.702,1.587,73.333,71337.000,1.000
55.137,33.668,33.450,31.944,6.118,-5.998,-0.289,-11.070,0.013,0.987,-0.131,0.336,0.580,1.709,73.333,71338.000,1.000
53.808,34.018,33.311,32.413,6.351,-5.660,1.364,-11.822,0.013,0.986,-0.132,0.244,0.671,1.740,73.333,71339.000,1.000
53.932,35.565,34.054,33.135,6.783,-4.166,2.105,-13.806,0.014,0.985,-0.133,0.092,0.641,1.923,73.333,71340.000,1.000
55.575,38.233,35.639,33.868,7.498,-1.808,2.307,-15.986,0.010,0.985,-0.133,0.092,0.610,1.801,73.333,71341.000,1.000
58.453,41.641,37.834,34.664,8.727,1.239,2.854,-17.298,0.009,0.986,-0.133,0.000,0.519,1.678,73.333,71342.000,1.000
61.965,45.191,40.249,35.725,10.679,5.235,4.716,-17.236,0.006,0.986,-0.131,-0.183,0.488,1.556,73.333,71343.000,1.000
65.324,48.120,42.487,37.196,13.229,9.984,8.113,-15.868,0.006,0.985,-0.128,-0.427,0.427,1.587,73.333,71344.000,1.000
67.842,49.667,44.321,39.059,15.726,13.746,11.735,-13.745,0.005,0.982,-0.129,-0.488,0.275,1.465,73.333,71345.000,1.000
68.980,49.254,45.558,40.930,17.153,14.011,13.373,-11.879,0.007,0.979,-0.127,-0.549,0.275,1.556,73.333,71346.000,1.000
68.492,46.918,46.086,42.186,16.798,9.733,11.519,-11.396,0.007,0.976,-0.134,-0.580,0.153,1.465,73.333,71347.000,1.000
66.604,43.542,45.990,42.299,14.637,2.406,6.370,-13.140,0.008,0.977,-0.132,-0.488,0.122,1.434,73.333,71348.000,1.000
64.036,40.487,45.603,41.205,11.302,-4.838,-0.295,-17.116,0.009,0.975,-0.131,-0.427,-0.092,1.434,73.333,71349.000,1.000
61.772,38.944,45.397,39.371,7.762,-9.136,-6.122,-22.222,0.009,0.975,-0.133,-0.366,-0.183,1.404,73.333,71350.000,1.000
60.507,39.191,45.530,37.344,4.610,-9.711,-9.869,-27.211,0.007,0.974,-0.134,-0.336,-0.153,1.373,73.333,71351.000,1.000
60.345,40.456,45.729,35.503,1.885,-8.066,-12.024,-31.390,0.009,0.976,-0.130,-0.244,-0.244,1.343,73.333,71352.000,1.000
60.625,41.334,45.418,33.975,-0.622,-6.660,-13.593,-34.415,0.008,0.979,-0.132,-0.183,-0.427,1.373,73.333,71353.000,1.000
60.230,40.546,44.080,32.651,-2.955,-7.155,-14.931,-36.187,0.010,0.982,-0.133,-0.214,-0.458,1.343,73.333,71354.000,1.000
58.555,37.987,41.958,31.551,-4.587,-9.253,-15.571,-36.720,0.010,0.981,-0.130,-0.214,-0.549,1.404,73.333,71355.000,1.000
55.900,34.677,40.006,30.936,-4.728,-11.518,-15.014,-36.016,0.011,0.980,-0.131,-0.214,-0.671,1.434,73.333,71356.000,1.000
53.150,31.826,39.231,31.150,-2.982,-13.024,-13.559,-34.044,0.010,0.981,-0.130,-0.214,-0.641,1.465,73.333,71357.000,1.000
51.191,30.216,40.109,32.413,0.385,-13.553,-11.731,-30.839,0.011,0.985,-0.128,-0.275,-0.824,1.404,73.333,71358.000,1.000
50.465,30.048,42.352,34.632,4.664,-12.687,-9.309,-26.608,0.008,0.984,-0.130,-0.244,-0.793,1.404,73.333,71359.000,1.000
50.840,30.921,45.036,37.371,8.975,-9.867,-5.626,-21.811,0.012,0.981,-0.129,-0.397,-0.732,1.495,73.333,71360.000,1.000
51.545,31.737,46.799,39.813,12.151,-5.852,-0.993,-17.415,0.011,0.982,-0.129,-0.458,-0.854,1.587,73.333,71361.000,1.000
51.464,31.207,46.385,40.935,12.958,-3.011,2.763,-14.674,0.012,0.979,-0.130,-0.458,-0.885,1.617,73.333,71362.000,1.000
49.767,28.875,43.351,39.965,10.811,-3.492,3.865,-14.254,0.010,0.979,-0.131,-0.427,-0.916,1.678,73.333,71363.000,1.000
46.521,25.552,38.462,37.006,6.406,-7.349,2.185,-15.684,0.012,0.979,-0.133,-0.458,-0.916,1.648,73.333,71364.000,1.000
42.699,22.784,33.357,33.095,1.440,-12.457,-1.077,-18.036,0.011,0.979,-0.131,-0.488,-0.916,1.648,73.333,71365.000,1.000
39.352,21.635,29.453,29.382,-2.566,-16.194,-4.737,-20.906,0.011,0.980,-0.130,-0.580,-0.946,1.648,73.333,71366.000,1.000
37.000,22.069,27.348,26.584,-4.892,-17.184,-8.067,-24.040,0.013,0.980,-0.130,-0.519,-0.946,1.617,73.333,71367.000,1.000
35.695,23.401,27.010,24.992,-5.524,-15.767,-10.378,-26.821,0.010,0.981,-0.128,-0.458,-0.854,1.678,73.333,71368.000,1.000
35.486,25.089,28.255,24.682,-4.783,-13.131,-10.976,-28.668,0.012,0.982,-0.127,-0.458,-0.916,1.587,73.333,71369.000,1.000
36.569,27.032,30.914,25.604,-3.050,-10.377,-9.626,-29.439,0.013,0.981,-0.129,-0.519,-0.946,1.526,73.333,71370.000,1.000
38.765,29.106,34.403,27.296,-0.894,-8.333,-7.107,-29.591,0.012,0.979,-0.130,-0.519,-0.885,1.434,73.333,71371.000,1.000
41.454,31.103,37.728,28.975,1.122,-7.273,-4.950,-29.888,0.012,0.980,-0.128,-0.580,-1.007,1.465,73.333,71372.000,1.000
43.843,32.925,39.893,29.955,2.691,-6.820,-4.257,-30.837,0.011,0.981,-0.130,-0.549,-0.946,1.434,73.333,71373.000,1.000
45.148,34.342,40.208,29.953,3.760,-6.538,-5.097,-32.281,0.013,0.980,-0.131,-0.458,-1.068,1.404,73.333,71374.000,1.000
44.914,35.080,38.676,29.251,4.658,-6.081,-6.515,-33.230,0.014,0.979,-0.129,-0.458,-0.946,1.343,73.333,71375.000,1.000
43.085,35.151,36.061,28.544,6.046,-4.900,-6.902,-32.362,0.013,0.982,-0.131,-0.427,-0.946,1.282,73.333,71376.000,1.000
40.027,35.003,33.640,28.791,8.638,-2.344,-5.042,-28.830,0.012,0.982,-0.129,-0.427,-0.946,1.160,73.333,71377.000,1.000
36.460,35.190,32.574,30.769,12.650,1.570,-1.121,-22.848,0.013,0.981,-0.132,-0.397,-0.916,1.099,73.333,71378.000,1.000
32.994,35.790,33.147,34.303,17.367,5.742,3.280,-15.760,0.013,0.980,-0.131,-0.458,-0.885,0.977,73.333,71379.000,1.000
29.735,36.429,34.660,38.111,21.431,8.877,6.566,-9.364,0.011,0.980,-0.130,-0.458,-0.793,0.854,73.333,71380.000,1.000
26.277,36.413,35.800,40.418,23.437,10.165,8.226,-5.132,0.012,0.981,-0.130,-0.366,-0.763,0.854,73.333,71381.000,1.000
22.320,34.944,35.362,39.993,22.627,9.137,8.583,-3.726,0.015,0.981,-0.131,-0.305,-0.793,0.824,73.333,71382.000,1.000
18.437,31.889,33.127,36.990,19.421,5.927,8.228,-4.875,0.014,0.983,-0.129,-0.366,-0.854,0.793,73.333,71383.000,1.000
15.811,27.952,29.847,32.715,15.055,1.467,7.144,-7.849,0.016,0.983,-0.128,-0.336,-0.732,0.793,73.333,71384.000,1.000
14.867,23.776,26.152,28.348,10.328,-3.339,4.404,-12.091,0.014,0.982,-0.127,-0.275,-0.824,0.793,73.333,71385.000,1.000
14.697,19.421,21.927,24.121,5.122,-8.078,-0.346,-17.211,0.014,0.982,-0.130,-0.366,-0.793,0.793,73.333,71386.000,1.000
14.367,15.068,17.182,19.948,-0.714,-12.321,-5.882,-22.634,0.011,0.979,-0.129,-0.397,-0.671,0.824,73.333,71387.000,1.000
13.899,11.351,12.605,15.955,-7.057,-15.930,-11.021,-28.183,0.010,0.979,-0.127,-0.488,-0.732,0.854,73.333,71388.000,1.000
13.593,8.638,8.843,12.161,-14.052,-19.753,-16.293,-34.695,0.009,0.980,-0.130,-0.397,-0.702,0.916,73.333,71389.000,1.000
13.278,6.856,6.044,8.495,-21.796,-24.669,-22.652,-42.915,0.010,0.981,-0.126,-0.397,-0.732,0.946,73.333,71390.000,1.000
12.611,6.056,4.276,5.354,-29.461,-30.082,-29.541,-52.090,0.010,0.983,-0.129,-0.458,-0.732,0.977,73.333,71391.000,1.000
11.418,6.370,3.688,3.512,-35.467,-34.388,-35.371,-60.212,0.011,0.982,-0.128,-0.427,-0.854,0.885,73.333,71392.000,1.000
9.220,7.284,3.847,3.145,-38.750,-36.820,-38.841,-65.291,0.010,0.982,-0.128,-0.549,-0.885,0.946,73.333,71393.000,1.000
5.259,7.665,3.626,3.474,-39.344,-37.921,-39.460,-66.255,0.008,0.983,-0.128,-0.580,-0.885,0.946,73.333,71394.000,1.000
-0.705,6.585,1.979,3.357,-38.079,-38.574,-37.877,-63.489,0.009,0.981,-0.130,-0.610,-0.946,1.038,73.333,71395.000,1.000
-7.925,3.939,-1.313,2.086,-36.000,-39.102,-35.582,-58.583,0.010,0.981,-0.130,-0.549,-0.977,1.007,73.333,71396.000,1.000
-14.936,0.600,-5.373,-0.079,-33.601,-38.862,-33.522,-52.942,0.009,0.981,-0.128,-0.519,-0.946,1.190,73.333,71397.000,1.000
-20.736,-2.492,-9.155,-2.480,-31.045,-37.098,-31.568,-47.239,0.010,0.980,-0.127,-0.488,-0.946,1.282,73.333,71398.000,1.000
-25.316,-5.238,-12.280,-4.671,-28.647,-34.043,-29.349,-41.814,0.009,0.980,-0.128,-0.397,-0.946,1.038,73.333,71399.000,1.000
-28.782,-7.804,-14.535,-6.074,-26.428,-30.630,-26.569,-36.570,0.010,0.978,-0.126,-0.488,-1.007,1.129,73.333,71400.000,1.000
-31.256,-10.209,-15.791,-6.223,-24.225,-28.018,-23.258,-31.409,0.010,0.977,-0.128,-0.397,-0.977,1.160,73.333,71401.000,1.000
-33.670,-12.806,-16.652,-5.671,-22.490,-27.430,-20.330,-27.165,0.012,0.979,-0.130,-0.397,-1.099,1.221,73.333,71402.000,1.000
-37.677,-16.318,-18.380,-5.999,-22.331,-29.596,-18.997,-25.377,0.010,0.979,-0.129,-0.275,-1.007,1.251,73.333,71403.000,1.000
-44.520,-21.211,-21.974,-8.784,-24.631,-34.315,-19.711,-27.110,0.011,0.978,-0.131,-0.244,-0.977,1.312,73.333,71404.000,1.000
-54.037,-27.082,-27.349,-14.478,-29.249,-40.515,-21.883,-32.130,0.012,0.979,-0.130,-0.183,-1.068,1.373,73.333,71405.000,1.000
-64.441,-32.619,-33.222,-21.928,-34.968,-46.602,-24.475,-38.997,0.011,0.979,-0.128,-0.183,-1.099,1.282,73.333,71406.000,1.000
-73.012,-36.264,-37.714,-28.854,-40.161,-51.169,-27.063,-45.979,0.010,0.980,-0.128,-0.214,-1.038,1.312,73.333,71407.000,1.000
-77.849,-37.362,-39.711,-33.447,-43.983,-53.995,-29.988,-52.246,0.013,0.978,-0.129,-0.183,-1.129,1.434,73.333,71408.000,1.000
-79.054,-36.665,-39.615,-35.419,-46.786,-56.022,-33.476,-57.934,0.014,0.979,-0.128,-0.214,-1.038,1.373,73.333,71409.000,1.000
-78.204,-35.584,-38.742,-35.664,-49.453,-58.250,-37.348,-63.380,0.012,0.978,-0.125,-0.153,-0.946,1.343,73.333,71410.000,1.000
-77.157,-35.267,-38.467,-35.572,-52.787,-61.080,-41.468,-68.930,0.013,0.979,-0.129,-0.214,-0.946,1.343,73.333,71411.000,1.000
-76.985,-35.917,-39.439,-36.246,-56.937,-64.032,-45.534,-74.690,0.012,0.981,-0.128,-0.092,-0.824,1.343,73.333,71412.000,1.000
-77.756,-36.788,-41.291,-37.974,-61.258,-65.928,-48.712,-80.248,0.012,0.981,-0.125,-0.153,-0.854,1.556,73.333,71413.000,1.000
-78.975,-36.969,-43.028,-40.232,-64.730,-65.837,-50.433,-84.934,0.011,0.981,-0.126,-0.122,-0.854,1.556,73.333,71414.000,1.000
-79.973,-36.025,-43.592,-42.037,-66.378,-63.712,-51.044,-88.040,0.011,0.979,-0.126,-0.122,-0.854,1.587,73.333,71415.000,1.000
-80.376,-34.236,-42.537,-42.611,-65.688,-60.239,-51.267,-89.000,0.012,0.979,-0.128,-0.122,-0.946,1.587,73.333,71416.000,1.000
-80.312,-32.240,-40.212,-41.786,-62.699,-56.130,-51.297,-87.502,0.013,0.979,-0.126,-0.122,-0.793,1.465,73.333,71417.000,1.000
-80.262,-30.633,-37.522,-39.977,-58.000,-51.827,-50.586,-83.591,0.014,0.977,-0.130,-0.092,-0.732,1.465,73.333,71418.000,1.000
-80.641,-29.811,-35.405,-37.754,-52.497,-47.721,-48.562,-77.686,0.014,0.980,-0.130,0.031,-0.671,1.373,73.333,71419.000,1.000
-81.430,-29.666,-34.234,-35.353,-46.870,-43.952,-45.039,-70.469,0.013,0.981,-0.130,0.031,-0.610,1.465,73.333,71420.000,1.000
-82.663,-29.879,-34.013,-32.979,-41.658,-40.442,-40.228,-62.992,0.015,0.979,-0.129,0.061,-0.580,1.495,73.333,71421.000,1.000
-84.664,-30.397,-34.655,-31.132,-37.461,-37.371,-34.941,-56.439,0.012,0.980,-0.127,0.031,-0.549,1.526,73.333,71422.000,1.000
-87.442,-31.107,-35.765,-30.214,-34.559,-35.107,-30.275,-51.424,0.012,0.982,-0.129,0.122,-0.488,1.526,73.333,71423.000,1.000
-90.210,-31.482,-36.553,-29.991,-32.491,-33.652,-26.756,-47.500,0.013,0.984,-0.125,0.122,-0.671,1.526,73.333,71424.000,1.000
-91.908,-31.130,-36.432,-29.872,-30.590,-32.853,-24.253,-43.755,0.012,0.985,-0.127,0.092,-0.488,1.740,73.333,71425.000,1.000
-92.348,-30.749,-35.877,-29.890,-29.120,-33.421,-22.817,-40.184,0.013,0.984,-0.126,0.092,-0.549,1.678,73.333,71426.000,1.000
-92.281,-31.670,-35.985,-30.641,-28.916,-36.488,-22.606,-37.638,0.015,0.984,-0.126,-0.031,-0.549,1.770,73.333,71427.000,1.000
-92.529,-34.451,-37.264,-32.330,-30.144,-41.982,-23.109,-36.737,0.015,0.985,-0.128,-0.031,-0.580,1.709,73.333,71428.000,1.000
-93.285,-38.359,-39.137,-34.393,-32.003,-48.288,-23.738,-37.631,0.014,0.985,-0.125,0.031,-0.549,1.740,73.333,71429.000,1.000
-93.925,-41.785,-40.277,-35.811,-33.236,-53.347,-24.390,-40.042,0.016,0.984,-0.127,0.000,-0.549,1.709,73.333,71430.000,1.000
-93.594,-43.187,-39.572,-35.863,-32.974,-56.009,-24.970,-43.389,0.013,0.982,-0.129,-0.061,-0.519,1.678,73.333,71431.000,1.000
-91.894,-41.937,-36.867,-34.655,-31.313,-56.492,-25.659,-47.520,0.013,0.980,-0.128,-0.061,-0.488,1.648,73.333,71432.000,1.000
-89.116,-38.537,-32.960,-33.013,-29.235,-55.722,-27.523,-53.106,0.014,0.981,-0.127,-0.122,-0.397,1.465,73.333,71433.000,1.000
-86.098,-34.203,-29.088,-31.889,-27.803,-54.381,-31.617,-60.576,0.015,0.979,-0.126,-0.092,-0.488,1.434,73.333,71434.000,1.000
-83.837,-30.090,-26.283,-31.788,-27.389,-52.584,-37.382,-68.869,0.016,0.979,-0.128,0.092,-0.397,1.373,73.333,71435.000,1.000
-83.004,-26.813,-24.991,-32.600,-27.675,-50.184,-42.600,-75.803,0.016,0.978,-0.125,0.122,-0.336,1.373,73.333,71436.000,1.000
-83.358,-24.203,-24.773,-33.530,-27.818,-46.556,-44.638,-79.110,0.015,0.978,-0.126,0.183,-0.244,1.343,73.333,71437.000,1.000
-83.848,-21.479,-24.619,-33.535,-26.832,-40.509,-41.556,-77.239,0.016,0.980,-0.123,0.244,-0.244,1.343,73.333,71438.000,1.000
-83.635,-18.238,-23.950,-32.276,-24.456,-31.718,-33.432,-70.302,0.016,0.979,-0.127,0.244,-0.183,1.465,73.333,71439.000,1.000
-82.947,-15.210,-23.217,-30.567,-21.579,-21.972,-22.941,-60.441,0.014,0.980,-0.127,0.336,-0.336,1.465,73.333,71440.000,1.000
-82.859,-13.654,-23.358,-29.690,-19.456,-13.868,-13.700,-50.614,0.014,0.981,-0.126,0.336,-0.183,1.404,73.333,71441.000,1.000
-84.169,-14.074,-24.663,-30.135,-18.450,-8.648,-8.017,-42.585,0.015,0.979,-0.125,0.336,-0.183,1.434,73.333,71442.000,1.000
-86.880,-15.969,-26.587,-31.327,-17.990,-6.167,-6.085,-36.315,0.015,0.980,-0.127,0.427,-0.061,1.404,73.333,71443.000,1.000
-90.362,-18.519,-28.305,-32.272,-17.308,-5.822,-6.425,-30.842,0.015,0.981,-0.125,0.397,-0.092,1.251,73.333,71444.000,1.000
-93.530,-20.974,-29.098,-32.161,-15.914,-6.742,-6.922,-25.433,0.015,0.979,-0.131,0.519,-0.092,1.404,73.333,71445.000,1.000
-95.454,-23.085,-28.933,-30.962,-14.191,-8.325,-6.540,-20.580,0.016,0.979,-0.127,0.580,-0.092,1.465,73.333,71446.000,1.000
-95.889,-25.243,-28.564,-29.378,-13.275,-10.664,-5.927,-17.514,0.013,0.979,-0.127,0.549,-0.092,1.404,73.333,71447.000,1.000
-95.240,-27.905,-28.879,-28.176,-14.008,-13.953,-5.945,-16.646,0.013,0.981,-0.125,0.580,-0.153,1.373,73.333,71448.000,1.000
-94.264,-31.129,-30.329,-27.793,-16.341,-18.088,-6.950,-17.330,0.010,0.982,-0.126,0.549,-0.153,1.373,73.333,71449.000,1.000
-93.626,-34.364,-32.641,-28.240,-19.396,-22.536,-9.087,-18.720,0.009,0.982,-0.124,0.580,-0.244,1.282,73.333,71450.000,1.000
-93.433,-36.463,-34.786,-28.985,-21.671,-26.040,-11.645,-19.985,0.010,0.983,-0.124,0.610,-0.275,1.312,73.333,71451.000,1.000
-93.209,-36.381,-35.559,-29.192,-21.710,-27.222,-13.133,-20.334,0.010,0.985,-0.125,0.580,-0.214,1.221,73.333,71452.000,1.000
-92.678,-34.257,-34.689,-28.596,-19.418,-26.132,-12.882,-19.810,0.009,0.985,-0.124,0.549,-0.336,1.221,73.333,71453.000,1.000
-92.080,-31.305,-32.926,-27.663,-16.131,-24.198,-11.630,-19.373,0.008,0.985,-0.124,0.488,-0.397,1.221,73.333,71454.000,1.000
-91.570,-28.502,-31.001,-26.815,-13.176,-22.439,-10.179,-19.667,0.009,0.985,-0.124,0.397,-0.519,1.251,73.333,71455.000,1.000
-91.131,-26.206,-29.346,-26.298,-11.214,-20.993,-8.678,-20.672,0.011,0.986,-0.126,0.336,-0.519,1.251,73.333,71456.000,1.000
-90.745,-24.589,-28.319,-26.459,-10.485,-19.907,-7.317,-22.352,0.010,0.985,-0.127,0.275,-0.610,1.373,73.333,71457.000,1.000
-90.296,-23.744,-28.138,-27.603,-11.019,-19.501,-6.596,-24.822,0.012,0.985,-0.125,0.183,-0.549,1.373,73.333,71458.000,1.000
-89.354,-23.484,-28.565,-29.488,-12.565,-20.080,-7.002,-27.986,0.013,0.983,-0.126,0.244,-0.671,1.434,73.333,71459.000,1.000
-87.027,-22.988,-28.560,-30.905,-14.227,-21.203,-8.529,-31.061,0.012,0.980,-0.125,0.122,-0.793,1.465,73.333,71460.000,1.000
-82.565,-21.208,-26.861,-30.290,-14.742,-21.693,-10.537,-32.708,0.012,0.979,-0.128,0.122,-0.885,1.495,73.333,71461.000,1.000
-76.340,-17.945,-23.153,-27.067,-13.431,-20.701,-12.253,-32.032,0.013,0.979,-0.126,0.183,-0.946,1.709,73.333,71462.000,1.000
-70.078,-14.232,-18.551,-22.374,-10.873,-18.498,-13.104,-29.495,0.013,0.978,-0.128,0.275,-1.038,1.740,73.333,71463.000,1.000
-65.868,-11.580,-14.820,-18.366,-8.505,-16.254,-13.013,-26.685,0.014,0.979,-0.127,0.427,-1.038,1.831,73.333,71464.000,1.000
-64.673,-10.789,-13.055,-16.635,-7.517,-15.171,-12.575,-25.055,0.014,0.980,-0.129,0.458,-1.068,1.862,73.333,71465.000,1.000
-65.912,-11.512,-13.173,-17.353,-8.193,-15.639,-12.484,-24.996,0.015,0.982,-0.123,0.549,-1.129,1.831,73.333,71466.000,1.000
-68.156,-12.689,-14.285,-19.570,-9.932,-16.965,-12.960,-25.905,0.015,0.981,-0.124,0.549,-1.160,1.892,73.333,71467.000,1.000
-70.187,-13.416,-15.526,-22.230,-11.934,-18.209,-13.820,-27.008,0.012,0.983,-0.127,0.366,-1.160,1.831,73.333,71468.000,1.000
-71.472,-13.489,-16.508,-24.737,-13.706,-19.066,-14.660,-27.729,0.009,0.983,-0.127,0.336,-1.160,1.648,73.333,71469.000,1.000
-71.817,-13.092,-17.018,-26.614,-14.820,-19.569,-14.763,-27.438,0.008,0.980,-0.131,0.305,-1.282,1.709,73.333,71470.000,1.000
-71.396,-12.657,-17.051,-27.475,-15.044,-19.811,-13.672,-26.036,0.009,0.978,-0.128,0.336,-1.343,1.587,73.333,71471.000,1.000
-70.953,-12.976,-17.016,-27.369,-14.634,-20.179,-11.958,-24.353,0.010,0.976,-0.129,0.336,-1.373,1.465,73.333,71472.000,1.000
-71.365,-14.666,-17.415,-26.717,-14.031,-21.014,-10.571,-23.252,0.012,0.975,-0.125,0.488,-1.404,1.282,73.333,71473.000,1.000
-72.920,-17.450,-18.318,-25.930,-13.360,-21.941,-9.881,-22.759,0.012,0.974,-0.128,0.488,-1.465,1.282,73.333,71474.000,1.000
-75.137,-20.255,-19.327,-25.209,-12.498,-22.198,-9.683,-22.304,0.016,0.973,-0.129,0.610,-1.404,1.312,73.333,71475.000,1.000
-77.233,-22.063,-20.010,-24.565,-11.552,-21.568,-9.747,-21.686,0.019,0.972,-0.130,0.641,-1.495,1.373,73.333,71476.000,1.000
-78.426,-22.377,-20.002,-23.662,-10.747,-20.386,-10.138,-21.206,0.021,0.974,-0.130,0.732,-1.373,1.373,73.333,71477.000,1.000
-78.322,-21.278,-19.145,-22.052,-10.192,-19.106,-10.799,-20.929,0.021,0.973,-0.130,0.793,-1.190,1.373,73.333,71478.000,1.000
-77.341,-19.455,-17.806,-19.815,-10.016,-18.093,-11.137,-20.559,0.022,0.973,-0.129,0.854,-1.007,1.526,73.333,71479.000,1.000
-76.535,-17.895,-16.785,-17.790,-10.434,-17.297,-10.331,-19.978,0.022,0.971,-0.129,0.946,-0.885,1.648,73.333,71480.000,1.000
-76.952,-17.439,-16.902,-17.135,-11.705,-16.467,-8.245,-19.511,0.022,0.974,-0.133,0.946,-0.824,1.648,73.333,71481.000,1.000
-78.702,-18.295,-18.305,-18.367,-13.801,-15.873,-5.971,-19.493,0.021,0.976,-0.132,1.221,-0.732,1.648,73.333,71482.000,1.000
-80.737,-19.882,-20.262,-20.885,-16.277,-16.289,-5.007,-19.983,0.019,0.978,-0.129,1.343,-0.671,1.556,73.333,71483.000,1.000
-81.783,-21.401,-21.865,-23.551,-18.600,-18.130,-6.199,-21.031,0.019,0.980,-0.133,1.221,-0.549,1.434,73.333,71484.000,1.000
-81.422,-22.476,-22.809,-25.609,-20.533,-21.040,-9.452,-22.788,0.016,0.981,-0.132,1.251,-0.397,1.495,73.333,71485.000,1.000
-80.322,-23.263,-23.506,-27.108,-22.220,-24.335,-13.733,-25.208,0.019,0.983,-0.132,1.190,-0.305,1.556,73.333,71486.000,1.000
-79.275,-23.894,-24.283,-28.272,-23.619,-27.105,-17.324,-27.619,0.018,0.985,-0.131,1.190,-0.153,1.617,73.333,71487.000,1.000
-78.498,-24.164,-24.932,-28.908,-24.239,-28.188,-18.485,-28.940,0.017,0.986,-0.131,1.099,-0.153,1.587,73.333,71488.000,1.000
-77.779,-23.836,-25.067,-28.589,-23.535,-26.685,-16.180,-28.373,0.017,0.988,-0.130,0.946,-0.183,1.526,73.333,71489.000,1.000
-76.675,-22.821,-24.464,-27.105,-21.335,-22.653,-10.517,-25.854,0.015,0.988,-0.128,0.885,-0.153,1.465,73.333,71490.000,1.000
-74.773,-21.229,-23.203,-24.799,-18.201,-17.528,-3.154,-22.367,0.015,0.990,-0.127,0.793,-0.214,1.373,73.333,71491.000,1.000
-71.893,-19.329,-21.511,-22.375,-15.224,-13.478,2.867,-19.628,0.013,0.989,-0.129,0.580,-0.244,1.282,73.333,71492.000,1.000
-68.429,-17.547,-19.800,-20.620,-13.560,-12.086,4.710,-19.328,0.012,0.987,-0.132,0.336,-0.336,1.221,73.333,71493.000,1.000
-65.462,-16.490,-18.815,-20.237,-14.015,-13.628,1.484,-22.353,0.012,0.981,-0.133,0.336,-0.458,1.160,73.333,71494.000,1.000
-64.117,-16.625,-19.257,-21.492,-16.581,-17.160,-5.219,-28.071,0.013,0.976,-0.136,0.397,-0.458,0.977,73.333,71495.000,1.000
-64.891,-18.012,-21.344,-24.107,-20.512,-21.248,-12.408,-34.622,0.012,0.976,-0.135,0.549,-0.397,0.885,73.333,71496.000,1.000
-67.196,-20.100,-24.493,-27.335,-24.645,-24.637,-17.693,-40.016,0.011,0.977,-0.129,1.007,-0.427,0.702,73.333,71497.000,1.000
-69.567,-21.798,-27.516,-30.197,-27.775,-26.485,-20.190,-42.992,0.015,0.980,-0.124,1.434,-0.580,0.824,73.333,71498.000,1.000
-70.775,-22.332,-29.528,-32.029,-29.279,-26.636,-20.289,-43.400,0.015,0.988,-0.121,1.434,-0.580,0.671,73.333,71499.000,1.000
-70.812,-22.066,-30.686,-32.898,-29.543,-25.855,-19.192,-42.115,0.013,0.996,-0.118,1.282,-0.549,0.671,73.333,71500.000,1.000
-70.741,-22.201,-31.915,-33.431,-29.575,-25.354,-18.003,-40.349,0.013,1.000,-0.118,0.977,-0.610,0.702,73.333,71501.000,1.000
-71.325,-23.357,-33.575,-33.910,-29.758,-25.562,-16.682,-38.546,0.013,1.000,-0.118,0.763,-0.702,0.763,73.333,71502.000,1.000
-72.234,-24.824,-34.891,-33.885,-29.491,-25.731,-14.291,-36.279,0.014,0.998,-0.121,0.427,-0.763,0.824,73.333,71503.000,1.000
-72.610,-25.494,-34.847,-32.779,-28.216,-25.155,-10.775,-33.353,0.015,0.995,-0.117,0.214,-0.854,0.671,73.333,71504.000,1.000
-71.870,-24.986,-33.153,-30.539,-26.219,-24.215,-7.752,-30.422,0.015,0.991,-0.119,-0.031,-1.038,0.793,73.333,71505.000,1.000
-70.196,-23.920,-30.573,-27.909,-24.608,-23.999,-7.101,-28.689,0.015,0.988,-0.116,-0.153,-1.099,0.824,73.333,71506.000,1.000
-68.336,-23.254,-28.339,-25.905,-24.379,-24.864,-9.021,-28.800,0.014,0.982,-0.117,-0.122,-1.160,0.854,73.333,71507.000,1.000
-66.839,-23.289,-27.081,-24.838,-25.317,-25.605,-11.145,-29.674,0.011,0.976,-0.118,-0.153,-1.129,0.793,73.333,71508.000,1.000
-65.572,-23.531,-26.415,-24.155,-26.224,-24.885,-10.728,-29.433,0.011,0.970,-0.121,-0.031,-1.160,0.885,73.333,71509.000,1.000
-64.127,-23.515,-25.685,-23.432,-26.513,-23.400,-8.380,-28.097,0.013,0.966,-0.123,0.183,-1.190,0.916,73.333,71510.000,1.000
-62.492,-23.337,-24.782,-22.973,-26.867,-23.297,-7.813,-27.880,0.013,0.966,-0.126,0.458,-1.251,0.885,73.333,71511.000,1.000
-60.891,-23.144,-23.830,-23.012,-27.837,-25.429,-11.526,-30.205,0.013,0.965,-0.125,0.793,-1.343,0.732,73.333,71512.000,1.000
-59.635,-22.895,-22.909,-23.283,-29.016,-28.585,-18.396,-34.243,0.011,0.971,-0.122,1.251,-1.404,0.793,73.333,71513.000,1.000
-59.065,-22.621,-22.136,-23.416,-29.683,-30.988,-25.289,-38.228,0.010,0.975,-0.123,1.404,-1.465,0.763,73.333,71514.000,1.000
-58.909,-22.044,-21.159,-22.887,-29.116,-31.398,-29.245,-40.488,0.010,0.977,-0.122,1.495,-1.526,0.763,73.333,71515.000,1.000
-58.238,-20.468,-19.154,-21.069,-26.774,-29.437,-28.490,-39.819,0.011,0.978,-0.122,1.556,-1.617,0.763,73.333,71516.000,1.000
-56.312,-17.516,-15.728,-17.812,-22.770,-25.623,-23.261,-36.169,0.013,0.979,-0.124,1.495,-1.770,0.702,73.333,71517.000,1.000
-53.259,-13.675,-11.556,-13.875,-18.197,-21.259,-15.966,-31.111,0.011,0.979,-0.123,1.434,-1.770,0.671,73.333,71518.000,1.000
-49.869,-10.029,-7.879,-10.483,-14.490,-17.842,-9.740,-26.876,0.012,0.981,-0.125,1.434,-1.801,0.671,73.333,71519.000,1.000
-47.072,-7.581,-5.632,-8.530,-12.420,-16.132,-6.340,-24.541,0.012,0.980,-0.126,1.465,-1.862,0.702,73.333,71520.000,1.000
-45.720,-6.938,-5.278,-8.390,-12.042,-16.073,-5.573,-23.740,0.013,0.978,-0.127,1.434,-1.801,0.732,73.333,71521.000,1.000
-45.962,-8.028,-6.574,-9.790,-12.969,-17.339,-6.586,-23.747,0.013,0.978,-0.128,1.495,-1.862,0.732,73.333,71522.000,1.000
-46.785,-9.849,-8.395,-11.741,-14.444,-19.448,-8.664,-24.124,0.012,0.978,-0.127,1.465,-1.953,0.793,73.333,71523.000,1.000
-46.714,-10.983,-9.340,-13.062,-15.557,-21.576,-10.950,-24.573,0.010,0.977,-0.126,1.373,-1.923,0.763,73.333,71524.000,1.000
-44.973,-10.617,-8.692,-13.122,-15.765,-22.860,-12.625,-24.855,0.012,0.979,-0.128,1.312,-1.892,0.671,73.333,71525.000,1.000
-42.075,-9.102,-6.958,-12.292,-15.356,-22.902,-13.513,-25.082,0.013,0.980,-0.131,1.343,-1.892,0.824,73.333,71526.000,1.000
-39.164,-7.335,-5.239,-11.504,-14.952,-21.569,-13.994,-25.472,0.016,0.979,-0.130,1.343,-1.801,0.793,73.333,71527.000,1.000
-37.251,-6.079,-4.503,-11.629,-15.141,-19.385,-14.873,-26.323,0.013,0.979,-0.132,1.373,-1.678,0.854,73.333,71528.000,1.000
-37.089,-6.023,-5.500,-13.301,-16.649,-18.073,-17.499,-28.404,0.013,0.979,-0.132,1.434,-1.709,0.854,73.333,71529.000,1.000
-38.788,-7.437,-8.320,-16.462,-19.631,-18.924,-22.229,-32.024,0.016,0.980,-0.134,1.465,-1.587,0.793,73.333,71530.000,1.000
-41.496,-9.729,-11.926,-20.012,-22.951,-21.280,-26.904,-35.860,0.017,0.982,-0.132,1.587,-1.495,0.824,73.333,71531.000,1.000
-43.876,-11.899,-14.712,-22.411,-24.949,-23.589,-28.630,-37.876,0.016,0.981,-0.131,1.617,-1.434,0.946,73.333,71532.000,1.000
-45.132,-13.363,-15.797,-22.960,-25.070,-25.037,-26.725,-37.536,0.015,0.983,-0.132,1.648,-1.282,0.854,73.333,71533.000,1.000
-45.370,-14.124,-15.532,-22.212,-24.148,-25.648,-23.037,-36.234,0.014,0.980,-0.136,1.678,-1.190,0.854,73.333,71534.000,1.000
-45.227,-14.483,-14.915,-21.227,-23.302,-25.671,-19.832,-35.570,0.013,0.977,-0.134,1.678,-1.190,0.946,73.333,71535.000,1.000
-45.790,-15.260,-15.258,-21.132,-23.498,-25.833,-18.599,-36.474,0.015,0.972,-0.133,1.709,-1.068,0.793,73.333,71536.000,1.000
-47.775,-17.264,-17.346,-22.531,-25.198,-27.064,-20.099,-39.140,0.015,0.968,-0.136,1.953,-1.038,0.732,73.333,71537.000,1.000
-50.122,-19.731,-20.122,-24.474,-27.365,-28.787,-23.336,-42.264,0.015,0.965,-0.137,2.075,-1.068,0.793,73.333,71538.000,1.000
-50.768,-20.681,-21.399,-25.093,-27.949,-28.825,-25.556,-43.412,0.016,0.967,-0.139,2.228,-0.946,0.732,73.333,71539.000,1.000
-49.117,-19.266,-20.277,-23.708,-26.076,-26.014,-24.752,-41.299,0.017,0.970,-0.136,2.533,-0.854,0.671,73.333,71540.000,1.000
-46.488,-16.528,-17.781,-21.347,-22.825,-21.864,-21.327,-37.014,0.017,0.973,-0.138,2.777,-0.732,0.671,73.333,71541.000,1.000
-44.181,-13.876,-15.162,-19.180,-19.629,-19.015,-17.206,-32.569,0.018,0.978,-0.139,2.899,-0.671,0.732,73.333,71542.000,1.000
-42.548,-12.030,-12.967,-17.606,-17.134,-18.944,-14.083,-29.251,0.020,0.979,-0.135,2.899,-0.732,0.763,73.333,71543.000,1.000
-41.514,-11.201,-11.395,-16.536,-15.431,-21.311,-12.820,-27.497,0.023,0.979,-0.135,2.747,-0.549,0.885,73.333,71544.000,1.000
-40.978,-11.370,-10.576,-15.770,-14.461,-24.703,-13.592,-27.287,0.021,0.977,-0.139,2.686,-0.336,1.068,73.333,71545.000,1.000
-41.001,-12.440,-10.673,-15.297,-14.295,-27.673,-15.707,-28.288,0.018,0.977,-0.139,2.686,-0.183,1.038,73.333,71546.000,1.000
-41.266,-13.780,-11.386,-14.951,-14.699,-29.084,-17.569,-29.591,0.015,0.978,-0.139,2.625,-0.092,1.068,73.333,71547.000,1.000
-41.035,-14.257,-11.917,-14.385,-15.118,-28.523,-17.761,-30.271,0.010,0.980,-0.139,2.686,-0.092,0.885,73.333,71548.000,1.000
-40.205,-13.465,-12.003,-13.810,-15.540,-26.815,-16.645,-30.634,0.008,0.983,-0.136,2.686,-0.092,0.793,73.333,71549.000,1.000
-38.977,-11.494,-11.595,-13.426,-15.882,-24.554,-15.341,-31.301,0.007,0.984,-0.135,2.655,-0.122,0.580,73.333,71550.000,1.000
-36.957,-8.091,-10.107,-12.561,-15.136,-20.860,-13.449,-31.539,0.008,0.984,-0.136,2.472,-0.244,0.549,73.333,71551.000,1.000
-34.381,-4.096,-7.815,-11.011,-13.052,-15.700,-10.427,-30.636,0.007,0.985,-0.137,2.380,-0.427,0.458,73.333,71552.000,1.000
-33.061,-2.195,-6.750,-10.176,-11.550,-11.882,-7.939,-29.810,0.006,0.984,-0.139,2.197,-0.519,0.458,73.333,71553.000,1.000
-33.992,-3.970,-8.163,-11.039,-12.367,-12.343,-8.232,-30.454,0.007,0.980,-0.137,2.106,-0.519,0.488,73.333,71554.000,1.000
-35.446,-7.643,-10.492,-12.446,-14.652,-16.783,-11.288,-31.873,0.008,0.980,-0.135,2.167,-0.610,0.427,73.333,71555.000,1.000
-35.188,-10.357,-11.450,-12.845,-16.456,-22.450,-15.182,-32.574,0.008,0.980,-0.135,2.075,-0.793,0.427,73.333,71556.000,1.000
-32.921,-10.931,-10.377,-12.071,-16.809,-26.496,-18.124,-32.090,0.008,0.981,-0.136,2.014,-0.824,0.336,73.333,71557.000,1.000
-29.929,-9.833,-8.063,-10.902,-15.791,-27.147,-18.958,-30.699,0.010,0.982,-0.136,1.984,-0.977,0.336,73.333,71558.000,1.000
-27.744,-8.271,-5.777,-10.184,-14.047,-24.350,-17.096,-28.718,0.011,0.980,-0.137,1.923,-1.068,0.214,73.333,71559.000,1.000
-27.276,-7.455,-4.561,-10.389,-12.478,-19.774,-13.136,-26.544,0.009,0.978,-0.135,1.862,-1.129,0.275,73.333,71560.000,1.000
-28.441,-7.772,-4.708,-11.307,-11.758,-15.560,-8.934,-24.758,0.009,0.979,-0.135,1.801,-1.282,0.275,73.333,71561.000,1.000
-30.462,-8.714,-5.773,-12.206,-11.947,-13.004,-6.644,-23.857,0.011,0.978,-0.134,1.709,-1.404,0.336,73.333,71562.000,1.000
-33.030,-10.049,-7.594,-12.889,-13.110,-12.880,-7.602,-24.197,0.010,0.978,-0.134,1.678,-1.404,0.275,73.333,71563.000,1.000
-36.494,-12.311,-10.531,-13.892,-15.601,-15.898,-11.756,-25.733,0.013,0.977,-0.135,1.648,-1.373,0.244,73.333,71564.000,1.000
-40.472,-15.481,-14.182,-15.233,-19.072,-21.543,-17.537,-27.486,0.013,0.979,-0.134,1.617,-1.434,0.305,73.333,71565.000,1.000
-43.625,-18.481,-17.283,-16.298,-22.512,-27.805,-22.824,-28.464,0.013,0.977,-0.133,1.556,-1.434,0.366,73.333,71566.000,1.000
-45.086,-20.567,-19.228,-17.150,-25.535,-32.931,-26.721,-29.227,0.014,0.976,-0.135,1.556,-1.373,0.397,73.333,71567.000,1.000
-45.110,-21.978,-20.497,-18.588,-28.480,-36.413,-29.437,-31.139,0.011,0.976,-0.135,1.678,-1.434,0.366,73.333,71568.000,1.000
-43.889,-22.739,-21.189,-20.471,-30.905,-37.971,-30.575,-33.902,0.010,0.975,-0.137,1.648,-1.434,0.397,73.333,71569.000,1.000
-41.011,-22.127,-20.488,-21.386,-31.417,-37.074,-29.260,-35.516,0.012,0.977,-0.133,1.709,-1.465,0.366,73.333,71570.000,1.000
-36.764,-19.953,-18.190,-20.515,-29.551,-34.079,-25.695,-34.732,0.011,0.979,-0.129,1.709,-1.495,0.427,73.333,71571.000,1.000
-32.470,-17.060,-15.245,-18.330,-26.247,-30.235,-20.884,-31.681,0.012,0.979,-0.129,1.648,-1.495,0.458,73.333,71572.000,1.000
-29.355,-14.358,-12.759,-15.677,-22.687,-26.394,-15.157,-26.792,0.009,0.981,-0.133,1.648,-1.495,0.519,73.333,71573.000,1.000
-27.770,-12.323,-11.320,-13.231,-19.731,-23.055,-8.962,-20.960,0.010,0.981,-0.133,1.526,-1.495,0.580,73.333,71574.000,1.000
-27.449,-11.345,-11.146,-11.678,-18.204,-21.303,-4.664,-16.474,0.012,0.981,-0.134,1.434,-1.526,0.610,73.333,71575.000,1.000
-28.163,-11.867,-12.401,-11.753,-18.869,-22.425,-5.366,-16.265,0.012,0.980,-0.135,1.404,-1.434,0.671,73.333,71576.000,1.000
-29.442,-13.626,-14.666,-13.402,-21.374,-26.233,-11.594,-21.189,0.011,0.980,-0.135,1.373,-1.373,0.732,73.333,71577.000,1.000
-30.383,-15.365,-16.724,-15.469,-23.979,-30.420,-20.202,-28.845,0.010,0.981,-0.131,1.282,-1.465,0.702,73.333,71578.000,1.000
-30.426,-15.951,-17.565,-16.805,-24.997,-32.068,-26.792,-35.652,0.011,0.981,-0.135,1.251,-1.465,0.732,73.333,71579.000,1.000
-29.874,-15.420,-17.236,-17.259,-24.180,-30.125,-28.699,-39.303,0.012,0.982,-0.135,1.282,-1.434,0.610,73.333,71580.000,1.000
-29.374,-14.665,-16.506,-17.386,-22.663,-26.466,-26.044,-39.414,0.011,0.983,-0.132,1.160,-1.404,0.702,73.333,71581.000,1.000
-28.775,-14.045,-15.538,-17.221,-21.415,-23.759,-20.904,-36.726,0.011,0.984,-0.133,1.190,-1.282,0.702,73.333,71582.000,1.000
-27.156,-12.943,-13.661,-16.075,-20.413,-22.778,-15.716,-32.562,0.009,0.985,-0.136,1.099,-1.251,0.519,73.333,71583.000,1.000
-24.133,-10.957,-10.631,-13.664,-19.373,-22.575,-12.190,-28.589,0.010,0.985,-0.134,0.977,-1.221,0.458,73.333,71584.000,1.000
-20.341,-8.538,-7.199,-10.627,-18.306,-22.214,-10.912,-25.997,0.008,0.982,-0.133,0.946,-1.282,0.458,73.333,71585.000,1.000
-16.792,-6.324,-4.436,-7.936,-17.372,-21.534,-11.429,-24.959,0.009,0.985,-0.135,0.763,-1.221,0.397,73.333,71586.000,1.000
-14.263,-4.707,-3.026,-6.241,-16.731,-20.980,-13.049,-25.011,0.011,0.983,-0.136,0.793,-1.221,0.366,73.333,71587.000,1.000
-13.335,-4.230,-3.412,-6.007,-16.952,-21.481,-15.568,-26.022,0.013,0.986,-0.139,0.885,-1.251,0.458,73.333,71588.000,1.000
-14.111,-5.395,-5.673,-7.490,-18.754,-23.744,-19.093,-28.453,0.012,0.988,-0.134,0.793,-1.160,0.427,73.333,71589.000,1.000
-15.474,-7.612,-8.775,-10.017,-21.801,-27.015,-23.143,-32.277,0.011,0.990,-0.132,0.763,-1.190,0.305,73.333,71590.000,1.000
-15.366,-9.148,-10.738,-11.922,-24.438,-29.188,-26.170,-36.150,0.010,0.991,-0.131,0.641,-1.068,0.336,73.333,71591.000,1.000
-12.000,-8.264,-9.759,-11.443,-24.672,-28.265,-26.363,-37.960,0.010,0.993,-0.134,0.519,-0.977,0.305,73.333,71592.000,1.000
-5.337,-4.645,-5.600,-8.145,-21.811,-24.110,-23.193,-36.656,0.009,0.990,-0.133,0.458,-1.007,0.214,73.333,71593.000,1.000
2.386,-0.072,-0.162,-3.584,-17.405,-19.161,-18.534,-33.663,0.009,0.990,-0.133,0.305,-0.854,0.122,73.333,71594.000,1.000
8.339,2.848,3.896,-0.034,-14.061,-16.740,-15.703,-31.793,0.008,0.990,-0.134,0.336,-0.946,0.092,73.333,71595.000,1.000
11.540,3.026,5.385,1.584,-13.094,-18.098,-16.490,-32.495,0.007,0.989,-0.134,0.153,-1.068,0.183,73.333,71596.000,1.000
13.449,1.743,5.357,2.311,-13.513,-21.528,-19.700,-34.617,0.006,0.985,-0.135,0.214,-1.068,0.153,73.333,71597.000,1.000
15.799,0.903,5.351,3.399,-13.735,-24.545,-22.973,-36.315,0.007,0.984,-0.135,0.183,-1.038,0.153,73.333,71598.000,1.000
18.776,1.149,5.706,4.832,-13.361,-25.951,-24.922,-37.041,0.005,0.983,-0.135,0.244,-1.190,0.061,73.333,71599.000,1.000
21.546,1.923,5.926,5.914,-12.832,-25.868,-25.245,-37.140,0.005,0.981,-0.131,0.275,-1.221,0.000,73.333,71600.000,1.000
23.303,2.399,5.515,6.151,-12.635,-25.130,-24.176,-36.892,0.004,0.979,-0.136,0.427,-1.343,0.061,73.333,71601.000,1.000
24.069,2.379,4.628,5.719,-12.739,-24.391,-22.330,-36.217,0.003,0.978,-0.136,0.519,-1.343,0.153,73.333,71602.000,1.000
24.862,2.503,4.121,5.390,-12.640,-23.644,-20.465,-35.010,0.004,0.977,-0.138,0.702,-1.373,0.275,73.333,71603.000,1.000
26.836,3.441,4.783,5.917,-11.929,-22.596,-19.190,-33.620,0.000,0.974,-0.135,0.854,-1.617,0.244,73.333,71604.000,1.000
30.339,5.225,6.739,7.527,-10.515,-21.109,-18.500,-32.570,0.003,0.970,-0.133,0.946,-1.709,0.336,73.333,71605.000,1.000
34.646,7.240,9.375,9.757,-8.670,-19.681,-17.822,-32.152,0.001,0.968,-0.132,1.251,-1.953,0.427,73.333,71606.000,1.000
38.809,8.815,11.994,11.879,-6.746,-19.212,-16.952,-32.314,0.003,0.967,-0.133,1.312,-2.075,0.458,73.333,71607.000,1.000
42.393,9.713,14.287,13.344,-4.949,-20.058,-16.422,-32.807,0.004,0.971,-0.133,1.556,-2.106,0.519,73.333,71608.000,1.000
45.335,10.023,16.123,13.860,-3.431,-21.570,-16.746,-33.349,0.002,0.976,-0.130,1.709,-2.197,0.427,73.333,71609.000,1.000
47.805,10.097,17.507,13.580,-2.154,-22.292,-17.457,-33.479,0.003,0.980,-0.132,1.648,-2.258,0.488,73.333,71610.000,1.000
50.015,10.331,18.487,12.969,-1.108,-21.200,-17.675,-33.010,0.004,0.980,-0.134,1.556,-2.350,0.427,73.333,71611.000,1.000
51.977,10.757,19.019,12.344,-0.628,-19.056,-17.747,-32.651,0.004,0.978,-0.133,1.465,-2.533,0.519,73.333,71612.000,1.000
53.389,11.049,18.946,11.655,-1.146,-17.808,-18.854,-33.422,0.005,0.976,-0.138,1.404,-2.625,0.488,73.333,71613.000,1.000
53.784,10.801,18.096,10.725,-2.662,-18.820,-21.353,-35.452,0.005,0.976,-0.136,1.343,-2.502,0.458,73.333,71614.000,1.000
53.011,9.865,16.508,9.626,-4.610,-21.982,-24.499,-37.850,0.008,0.973,-0.138,1.373,-2.533,0.519,73.333,71615.000,1.000
51.392,8.399,14.383,8.575,-6.411,-25.875,-27.233,-39.787,0.009,0.972,-0.135,1.404,-2.411,0.610,73.333,71616.000,1.000
49.521,6.573,11.977,7.734,-7.871,-28.620,-28.831,-41.104,0.012,0.972,-0.137,1.404,-2.258,0.641,73.333,71617.000,1.000
47.915,4.383,9.524,7.153,-9.161,-29.386,-29.092,-41.939,0.012,0.973,-0.136,1.526,-2.136,0.854,73.333,71618.000,1.000
47.014,2.002,7.355,6.917,-10.397,-28.954,-28.469,-42.288,0.013,0.975,-0.137,1.556,-2.106,0.732,73.333,71619.000,1.000
47.399,0.284,6.096,7.354,-11.237,-28.379,-27.934,-42.040,0.014,0.977,-0.138,1.465,-1.892,0.885,73.333,71620.000,1.000
49.202,0.053,6.074,8.563,-11.435,-28.011,-28.395,-41.504,0.013,0.979,-0.137,1.495,-1.892,0.977,73.333,71621.000,1.000
51.321,0.823,6.602,9.809,-11.551,-28.072,-30.525,-41.645,0.012,0.979,-0.137,1.282,-1.648,1.099,73.333,71622.000,1.000
51.915,1.037,6.375,9.851,-12.705,-29.398,-34.819,-43.549,0.012,0.978,-0.137,1.251,-1.617,1.190,73.333,71623.000,1.000
50.270,-0.190,4.934,8.298,-15.311,-32.951,-41.124,-47.280,0.013,0.978,-0.139,1.038,-1.404,1.312,73.333,71624.000,1.000
47.692,-2.165,3.346,6.278,-18.359,-38.611,-48.147,-51.446,0.010,0.978,-0.137,1.282,-1.373,1.373,73.333,71625.000,1.000
45.987,-3.640,2.935,5.222,-20.456,-44.975,-54.045,-54.476,0.011,0.975,-0.139,1.007,-1.312,1.495,73.333,71626.000,1.000
46.043,-3.845,4.188,5.765,-20.835,-50.093,-57.540,-55.785,0.011,0.975,-0.136,1.160,-1.221,1.434,73.333,71627.000,1.000
47.828,-2.568,6.740,7.716,-19.529,-52.412,-58.218,-55.688,0.011,0.970,-0.142,0.977,-1.007,1.282,73.333,71628.000,1.000
50.599,-0.230,9.594,10.218,-17.379,-51.585,-56.551,-54.946,0.010,0.969,-0.143,1.129,-0.946,1.251,73.333,71629.000,1.000
52.995,2.077,11.422,11.980,-15.735,-48.516,-53.801,-54.299,0.013,0.967,-0.146,1.129,-0.885,1.312,73.333,71630.000,1.000
53.731,3.266,11.290,11.992,-15.650,-44.547,-51.060,-53.964,0.013,0.971,-0.141,1.251,-0.732,1.251,73.333,71631.000,1.000
52.778,3.205,9.591,10.529,-16.940,-40.596,-48.612,-53.428,0.014,0.975,-0.139,1.495,-0.732,1.221,73.333,71632.000,1.000
51.120,2.442,7.567,8.806,-18.623,-37.385,-46.479,-52.193,0.013,0.980,-0.136,1.495,-0.610,1.160,73.333,71633.000,1.000
49.553,1.277,6.052,7.760,-20.057,-35.763,-44.976,-50.517,0.012,0.986,-0.132,1.465,-0.641,1.129,73.333,71634.000,1.000
48.402,-0.197,5.258,7.625,-21.054,-35.905,-44.196,-49.017,0.012,0.988,-0.135,1.160,-0.580,1.282,73.333,71635.000,1.000
47.583,-1.832,4.943,7.968,-21.753,-37.095,-43.659,-48.268,0.010,0.988,-0.131,1.038,-0.549,1.343,73.333,71636.000,1.000
46.816,-3.491,4.635,8.052,-22.515,-38.764,-43.234,-48.768,0.010,0.985,-0.140,0.549,-0.397,1.343,73.333,71637.000,1.000
45.924,-5.034,3.920,7.380,-23.743,-41.140,-43.673,-50.762,0.009,0.985,-0.136,0.580,-0.427,1.221,73.333,71638.000,1.000
44.954,-6.330,2.643,5.938,-25.611,-44.528,-45.840,-53.963,0.009,0.978,-0.144,0.366,-0.366,1.221,73.333,71639.000,1.000
44.194,-7.234,1.053,4.104,-27.791,-48.337,-49.642,-57.606,0.006,0.981,-0.140,0.488,-0.397,1.190,73.333,71640.000,1.000
43.885,-7.671,-0.468,2.230,-29.743,-51.297,-53.894,-60.974,0.008,0.979,-0.142,0.366,-0.458,1.160,73.333,71641.000,1.000
44.050,-7.708,-1.725,0.489,-31.076,-52.259,-57.066,-63.567,0.009,0.981,-0.139,0.488,-0.336,1.038,73.333,71642.000,1.000
44.537,-7.519,-2.733,-1.025,-31.754,-50.839,-58.023,-65.113,0.009,0.983,-0.138,0.549,-0.366,0.916,73.333,71643.000,1.000
45.250,-7.171,-3.390,-2.120,-31.983,-47.573,-56.672,-65.677,0.010,0.986,-0.141,0.275,-0.305,0.946,73.333,71644.000,1.000
46.349,-6.503,-3.185,-2.341,-31.780,-43.659,-54.000,-65.325,0.010,0.986,-0.135,0.427,-0.336,0.885,73.333,71645.000,1.000
47.825,-5.669,-1.808,-1.326,-31.221,-41.116,-51.546,-64.084,0.012,0.983,-0.138,0.061,-0.244,0.854,73.333,71646.000,1.000
49.326,-5.332,0.438,0.963,-30.550,-41.975,-50.612,-62.182,0.008,0.982,-0.137,0.244,-0.153,1.038,73.333,71647.000,1.000
50.453,-5.809,3.057,4.372,-29.702,-46.066,-50.908,-59.853,0.009,0.982,-0.140,-0.122,-0.153,0.977,73.333,71648.000,1.000
50.873,-6.736,5.653,8.432,-28.420,-50.911,-50.964,-57.475,0.008,0.985,-0.138,0.092,-0.092,1.007,73.333,71649.000,1.000
50.253,-7.783,7.695,12.068,-27.073,-54.386,-50.617,-56.206,0.008,0.984,-0.139,0.031,-0.061,0.916,73.333,71650.000,1.000
48.218,-9.139,8.325,13.814,-26.880,-56.426,-51.474,-57.601,0.010,0.987,-0.135,0.153,-0.092,0.946,73.333,71651.000,1.000
44.774,-11.004,6.999,12.842,-28.693,-57.959,-54.610,-61.906,0.013,0.984,-0.135,0.031,-0.031,1.007,73.333,71652.000,1.000
40.573,-13.038,4.108,9.640,-32.072,-59.481,-59.080,-67.426,0.013,0.983,-0.136,-0.031,0.000,1.190,73.333,71653.000,1.000
36.752,-14.466,0.940,5.821,-35.534,-61.024,-62.891,-71.699,0.011,0.981,-0.133,-0.092,0.031,1.282,73.333,71654.000,1.000
34.576,-14.404,-0.744,3.467,-37.167,-62.310,-64.312,-72.725,0.012,0.979,-0.139,-0.214,0.092,1.373,73.333,71655.000,1.000
34.643,-12.468,0.257,3.900,-35.628,-62.667,-62.332,-69.731,0.009,0.977,-0.134,0.061,0.153,1.343,73.333,71656.000,1.000
36.546,-9.187,3.776,6.831,-30.974,-61.486,-57.410,-63.546,0.010,0.975,-0.139,0.092,0.183,1.404,73.333,71657.000,1.000
39.309,-5.629,8.408,10.630,-24.714,-58.927,-51.621,-56.379,0.010,0.974,-0.135,0.366,0.122,1.373,73.333,71658.000,1.000
41.951,-2.734,12.393,13.430,-18.885,-55.704,-47.109,-50.656,0.011,0.973,-0.139,0.336,0.214,1.434,73.333,71659.000,1.000
43.672,-0.983,14.549,14.102,-14.924,-52.334,-44.590,-47.670,0.010,0.973,-0.135,0.671,0.183,1.465,73.333,71660.000,1.000
43.669,-0.679,14.323,12.333,-13.633,-49.214,-43.964,-47.774,0.011,0.972,-0.141,0.763,0.214,1.495,73.333,71661.000,1.000
41.687,-1.934,11.906,8.755,-15.202,-46.756,-45.414,-50.960,0.009,0.976,-0.138,1.007,0.122,1.587,73.333,71662.000,1.000
38.698,-4.075,8.586,5.118,-18.707,-44.788,-48.348,-56.231,0.007,0.976,-0.139,1.007,0.214,1.678,73.333,71663.000,1.000
36.596,-5.527,6.496,3.610,-22.127,-42.312,-50.463,-61.184,0.004,0.979,-0.137,1.160,0.214,1.678,73.333,71664.000,1.000
37.050,-4.778,7.424,5.510,-23.566,-38.758,-49.700,-63.485,0.003,0.977,-0.135,1.190,-0.031,1.526,73.333,71665.000,1.000
40.129,-1.816,11.248,10.049,-22.970,-35.523,-46.791,-62.993,0.003,0.979,-0.135,1.099,-0.153,1.587,73.333,71666.000,1.000
44.243,1.694,15.970,14.939,-21.938,-35.055,-44.689,-61.544,0.001,0.977,-0.132,1.221,-0.336,1.556,73.333,71667.000,1.000
47.344,3.779,19.330,18.053,-21.958,-38.378,-45.451,-60.857,0.006,0.977,-0.135,1.251,-0.366,1.434,73.333,71668.000,1.000
48.163,3.559,20.235,18.586,-23.254,-44.105,-48.676,-61.343,0.006,0.974,-0.138,1.465,-0.488,1.434,73.333,71669.000,1.000
46.874,1.806,19.218,17.163,-24.787,-49.252,-52.229,-62.181,0.008,0.975,-0.138,1.526,-0.488,1.404,73.333,71670.000,1.000
44.740,0.253,17.763,15.059,-25.225,-51.068,-53.515,-62.061,0.010,0.978,-0.134,1.770,-0.641,1.526,73.333,71671.000,1.000
43.451,0.433,17.479,13.474,-23.805,-48.727,-51.247,-60.097,0.011,0.975,-0.135,1.709,-0.732,1.526,73.333,71672.000,1.000
44.331,2.920,19.412,13.149,-20.672,-43.791,-46.472,-56.395,0.012,0.977,-0.136,1.923,-0.732,1.587,73.333,71673.000,1.000
47.356,6.871,23.309,14.023,-16.909,-39.178,-41.760,-52.059,0.015,0.974,-0.137,1.831,-0.732,1.709,73.333,71674.000,1.000
51.050,10.415,27.676,15.413,-13.912,-37.256,-39.091,-48.337,0.015,0.975,-0.135,2.075,-0.763,2.045,73.333,71675.000,1.000
53.371,11.869,30.698,16.636,-12.448,-38.524,-38.117,-45.424,0.016,0.973,-0.134,2.106,-0.580,1.892,73.333,71676.000,1.000
52.819,10.638,31.177,17.346,-12.282,-41.723,-37.043,-42.485,0.016,0.974,-0.135,2.289,-0.610,2.106,73.333,71677.000,1.000
48.896,7.140,28.711,17.187,-12.921,-44.977,-35.069,-39.314,0.016,0.976,-0.138,2.350,-0.458,2.167,73.333,71678.000,1.000
42.106,2.242,23.599,15.733,-14.176,-46.809,-33.117,-37.004,0.016,0.980,-0.135,2.563,-0.458,2.350,73.333,71679.000,1.000
33.891,-2.937,17.038,13.171,-15.635,-46.271,-32.060,-36.365,0.017,0.981,-0.139,2.533,-0.488,2.563,73.333,71680.000,1.000
25.990,-7.195,10.748,10.326,-16.597,-43.164,-31.554,-37.059,0.014,0.985,-0.136,2.563,-0.427,2.563,73.333,71681.000,1.000
19.740,-9.678,6.183,7.963,-16.682,-38.445,-31.300,-38.521,0.016,0.985,-0.140,2.472,-0.458,2.747,73.333,71682.000,1.000
15.688,-10.242,3.924,6.318,-16.085,-33.763,-31.573,-40.479,0.013,0.985,-0.138,2.441,-0.427,2.777,73.333,71683.000,1.000
13.532,-9.534,3.518,5.134,-15.247,-30.332,-32.153,-42.494,0.016,0.982,-0.139,2.289,-0.397,2.686,73.333,71684.000,1.000
12.613,-8.497,4.000,4.012,-14.520,-28.498,-32.503,-44.037,0.012,0.981,-0.140,2.167,-0.427,2.502,73.333,71685.000,1.000
12.375,-7.798,4.510,2.670,-14.246,-28.298,-32.861,-45.127,0.012,0.979,-0.142,2.136,-0.458,2.411,73.333,71686.000,1.000
12.392,-7.855,4.550,1.045,-14.720,-29.716,-34.010,-46.189,0.012,0.979,-0.137,2.319,-0.458,2.136,73.333,71687.000,1.000
11.963,-9.204,3.633,-1.024,-16.248,-32.616,-36.123,-47.653,0.011,0.980,-0.138,2.289,-0.610,2.075,73.333,71688.000,1.000
10.060,-12.475,1.036,-3.955,-19.229,-36.844,-38.666,-49.915,0.013,0.983,-0.140,2.228,-0.549,1.923,73.333,71689.000,1.000
5.953,-17.746,-3.686,-7.940,-23.770,-42.030,-41.081,-53.154,0.014,0.984,-0.139,2.319,-0.671,1.740,73.333,71690.000,1.000
-0.410,-24.265,-10.266,-12.703,-29.524,-47.495,-43.173,-57.267,0.012,0.987,-0.140,2.136,-0.580,1.617,73.333,71691.000,1.000
-8.210,-30.669,-17.524,-17.530,-35.625,-52.351,-44.981,-61.695,0.013,0.990,-0.137,2.106,-0.671,1.404,73.333,71692.000,1.000
-15.847,-35.282,-23.572,-21.427,-40.815,-55.563,-46.090,-65.341,0.015,0.990,-0.138,1.892,-0.671,1.495,73.333,71693.000,1.000
-21.648,-36.792,-26.705,-23.627,-44.096,-56.518,-45.927,-67.466,0.016,0.991,-0.140,1.709,-0.610,1.373,73.333,71694.000,1.000
-24.629,-35.002,-26.244,-24.018,-45.216,-55.717,-44.810,-68.430,0.016,0.990,-0.140,1.526,-0.488,1.465,73.333,71695.000,1.000
-24.924,-30.925,-22.789,-23.131,-44.557,-54.321,-43.584,-69.119,0.016,0.989,-0.137,1.434,-0.580,1.373,73.333,71696.000,1.000
-23.472,-26.083,-17.644,-21.599,-42.468,-52.707,-42.496,-69.799,0.017,0.986,-0.139,1.251,-0.580,1.465,73.333,71697.000,1.000
-21.357,-21.570,-12.050,-19.720,-38.919,-49.977,-40.734,-69.676,0.018,0.988,-0.134,1.190,-0.641,1.587,73.333,71698.000,1.000
-19.381,-17.741,-6.858,-17.466,-33.798,-45.069,-37.204,-67.465,0.015,0.989,-0.135,1.007,-0.549,1.465,73.333,71699.000,1.000
-18.213,-14.805,-2.787,-14.980,-27.634,-38.195,-32.154,-62.857,0.013,0.988,-0.134,0.732,-0.610,1.587,73.333,71700.000,1.000
-18.816,-13.418,-0.819,-13.142,-22.055,-31.088,-27.578,-57.662,0.012,0.985,-0.137,0.549,-0.488,1.740,73.333,71701.000,1.000
-21.795,-13.925,-1.376,-12.806,-18.459,-25.354,-25.228,-54.254,0.011,0.984,-0.137,0.519,-0.763,1.831,73.333,71702.000,1.000
-26.523,-15.283,-3.367,-13.664,-16.492,-20.971,-24.452,-52.985,0.012,0.983,-0.141,0.366,-0.671,1.831,73.333,71703.000,1.000
-31.615,-15.836,-5.001,-14.605,-14.703,-17.021,-23.090,-52.267,0.012,0.980,-0.134,0.275,-0.671,1.892,73.333,71704.000,1.000
-36.107,-14.966,-5.290,-14.911,-12.165,-13.173,-19.922,-50.585,0.012,0.974,-0.138,0.122,-0.732,1.892,73.333,71705.000,1.000
-39.837,-13.211,-4.355,-14.625,-8.895,-9.630,-15.024,-47.499,0.013,0.976,-0.138,0.183,-0.824,2.014,73.333,71706.000,1.000
-42.591,-10.995,-2.401,-13.757,-4.945,-6.108,-8.616,-43.147,0.010,0.977,-0.140,0.183,-1.007,2.075,73.333,71707.000,1.000
-43.898,-8.431,0.496,-12.167,-0.442,-2.439,-1.270,-38.195,0.009,0.980,-0.135,0.244,-1.099,2.106,73.333,71708.000,1.000
-43.769,-6.244,3.662,-10.277,3.560,0.143,4.757,-34.317,0.012,0.978,-0.137,0.092,-1.190,2.045,73.333,71709.000,1.000
-42.788,-5.637,5.930,-8.942,5.623,0.025,6.710,-33.243,0.010,0.975,-0.137,0.061,-1.221,2.045,73.333,71710.000,1.000
-41.980,-7.504,6.104,-8.967,4.938,-3.198,4.275,-35.319,0.011,0.973,-0.139,0.244,-1.312,2.045,73.333,71711.000,1.000
-42.558,-12.058,3.361,-10.842,1.595,-9.001,-0.466,-39.437,0.012,0.972,-0.137,0.336,-1.312,2.045,73.333,71712.000,1.000
-45.214,-18.479,-2.158,-14.462,-3.596,-16.648,-5.380,-44.113,0.012,0.971,-0.135,0.458,-1.373,1.953,73.333,71713.000,1.000
-49.522,-24.922,-9.099,-19.048,-9.320,-24.947,-9.494,-48.346,0.013,0.969,-0.137,0.366,-1.251,2.045,73.333,71714.000,1.000
-54.045,-29.273,-15.371,-23.423,-13.935,-31.915,-12.262,-51.364,0.014,0.967,-0.137,0.610,-1.434,2.014,73.333,71715.000,1.000
-57.086,-30.141,-19.094,-26.391,-16.065,-35.495,-12.934,-52.427,0.014,0.967,-0.138,0.763,-1.434,2.106,73.333,71716.000,1.000
-57.469,-27.512,-19.374,-27.138,-15.446,-34.922,-11.838,-51.795,0.017,0.966,-0.138,0.946,-1.495,2.045,73.333,71717.000,1.000
-55.343,-22.852,-16.872,-25.887,-13.334,-31.310,-10.899,-51.237,0.015,0.966,-0.139,0.946,-1.404,2.045,73.333,71718.000,1.000
-52.284,-18.403,-13.517,-23.880,-11.577,-26.610,-11.769,-52.432,0.016,0.966,-0.140,1.190,-1.526,2.136,73.333,71719.000,1.000
-50.139,-15.889,-11.169,-22.321,-11.087,-22.147,-14.276,-55.208,0.018,0.967,-0.143,1.373,-1.465,2.045,73.333,71720.000,1.000
-49.904,-15.808,-10.682,-21.668,-11.508,-18.319,-16.790,-57.799,0.019,0.967,-0.141,1.556,-1.434,2.045,73.333,71721.000,1.000
-51.451,-17.614,-11.879,-21.714,-11.765,-14.864,-17.475,-58.102,0.020,0.969,-0.143,1.801,-1.373,1.984,73.333,71722.000,1.000
-54.235,-20.373,-14.232,-22.178,-10.906,-11.096,-15.068,-54.916,0.020,0.971,-0.140,1.984,-1.312,1.953,73.333,71723.000,1.000
-57.993,-23.290,-17.426,-23.067,-8.736,-6.401,-9.489,-48.790,0.019,0.971,-0.139,1.984,-1.129,1.892,73.333,71724.000,1.000
-62.514,-25.647,-21.141,-24.341,-5.718,-0.812,-2.210,-41.685,0.020,0.973,-0.140,2.106,-1.190,1.862,73.333,71725.000,1.000
-67.279,-26.762,-24.829,-25.772,-2.687,4.720,4.461,-35.796,0.020,0.975,-0.142,2.045,-1.007,1.801,73.333,71726.000,1.000
-71.359,-26.319,-27.713,-27.054,-0.359,8.893,8.579,-32.343,0.018,0.976,-0.142,2.136,-0.946,1.709,73.333,71727.000,1.000
-73.618,-24.415,-28.897,-27.799,1.129,11.066,9.773,-31.037,0.021,0.978,-0.141,2.014,-0.824,1.617,73.333,71728.000,1.000
-73.104,-21.288,-27.593,-27.487,2.280,11.803,9.619,-30.494,0.020,0.982,-0.142,1.984,-0.763,1.556,73.333,71729.000,1.000
-69.451,-17.224,-23.462,-25.665,3.824,12.403,10.438,-29.367,0.018,0.987,-0.145,1.740,-0.702,1.465,73.333,71730.000,1.000
-63.399,-12.976,-17.235,-22.587,5.769,13.437,13.306,-27.614,0.015,0.989,-0.144,1.617,-0.641,1.404,73.333,71731.000,1.000
-56.661,-9.960,-10.733,-19.295,7.176,13.855,17.004,-26.462,0.016,0.990,-0.144,1.373,-0.580,1.312,73.333,71732.000,1.000
-51.123,-9.644,-6.028,-16.970,6.941,11.746,19.131,-27.109,0.015,0.986,-0.139,1.251,-0.610,1.160,73.333,71733.000,1.000
-47.978,-12.586,-4.346,-16.188,4.645,5.858,17.747,-29.941,0.015,0.984,-0.142,0.977,-0.732,1.160,73.333,71734.000,1.000
-47.044,-17.756,-5.277,-16.432,1.074,-3.212,12.550,-34.416,0.016,0.983,-0.141,0.885,-0.671,1.007,73.333,71735.000,1.000
-46.981,-22.765,-7.047,-16.382,-1.986,-12.774,5.839,-38.835,0.018,0.982,-0.145,0.824,-0.549,0.977,73.333,71736.000,1.000
-46.403,-25.251,-7.786,-14.963,-2.741,-19.140,1.238,-40.896,0.019,0.985,-0.149,0.732,-0.519,0.885,73.333,71737.000,1.000
-45.270,-24.681,-7.168,-12.629,-1.083,-20.146,0.431,-39.892,0.018,0.987,-0.147,0.702,-0.549,1.099,73.333,71738.000,1.000
-44.894,-22.741,-6.634,-11.266,0.994,-16.997,1.829,-37.733,0.020,0.988,-0.149,0.488,-0.580,1.068,73.333,71739.000,1.000
-46.090,-21.491,-7.502,-12.254,1.449,-12.790,2.885,-36.665,0.019,0.988,-0.145,0.458,-0.580,1.068,73.333,71740.000,1.000
-48.124,-21.628,-9.626,-15.267,-0.087,-9.674,2.692,-37.083,0.018,0.983,-0.150,0.244,-0.519,1.221,73.333,71741.000,1.000
-49.517,-22.682,-11.920,-18.970,-2.640,-8.036,1.622,-38.067,0.017,0.980,-0.148,0.214,-0.458,1.251,73.333,71742.000,1.000
-49.406,-23.960,-13.516,-22.292,-5.147,-7.374,0.172,-38.744,0.017,0.977,-0.154,0.214,-0.458,1.282,73.333,71743.000,1.000
-47.898,-24.909,-14.100,-24.788,-7.025,-6.869,-1.169,-38.585,0.017,0.978,-0.148,0.244,-0.336,1.282,73.333,71744.000,1.000
-45.423,-24.965,-13.489,-26.164,-7.924,-5.507,-1.945,-37.215,0.015,0.975,-0.150,0.427,-0.366,1.221,73.333,71745.000,1.000
-42.497,-23.747,-11.703,-26.218,-7.748,-2.611,-1.962,-34.803,0.013,0.976,-0.148,0.580,-0.305,1.129,73.333,71746.000,1.000
-39.858,-21.426,-9.183,-25.011,-6.678,1.663,-1.320,-32.141,0.010,0.977,-0.146,0.610,-0.366,0.916,73.333,71747.000,1.000
-38.345,-18.570,-6.600,-22.782,-4.926,6.601,0.153,-29.820,0.010,0.977,-0.147,0.549,-0.427,0.793,73.333,71748.000,1.000
-38.472,-15.749,-4.473,-19.803,-2.576,11.436,2.873,-27.689,0.013,0.978,-0.145,0.580,-0.580,0.763,73.333,71749.000,1.000
-40.174,-13.439,-3.041,-16.477,0.209,15.414,6.456,-25.431,0.012,0.975,-0.147,0.580,-0.610,0.732,73.333,71750.000,1.000
-43.047,-12.074,-2.495,-13.455,2.816,17.751,9.499,-23.420,0.011,0.974,-0.146,0.671,-0.549,0.610,73.333,71751.000,1.000
-46.352,-11.824,-2.739,-11.153,4.665,18.106,10.655,-22.386,0.010,0.972,-0.147,0.824,-0.671,0.641,73.333,71752.000,1.000
-49.093,-12.330,-3.195,-9.425,5.775,16.931,9.965,-22.531,0.011,0.972,-0.146,1.038,-0.763,0.580,73.333,71753.000,1.000
-50.390,-12.815,-3.119,-7.817,6.636,15.185,8.874,-23.362,0.012,0.972,-0.145,1.160,-0.824,0.610,73.333,71754.000,1.000
-49.737,-12.462,-1.983,-5.918,7.785,13.856,8.855,-24.208,0.011,0.973,-0.143,1.312,-0.916,0.610,73.333,71755.000,1.000
-47.393,-11.040,0.043,-3.889,9.175,13.473,10.129,-24.955,0.010,0.974,-0.144,1.434,-0.885,0.549,73.333,71756.000,1.000
-44.282,-9.125,2.229,-2.370,10.246,13.899,11.553,-25.927,0.011,0.974,-0.144,1.434,-0.946,0.458,73.333,71757.000,1.000
-41.404,-7.627,3.934,-1.793,10.568,14.502,11.919,-27.216,0.012,0.974,-0.145,1.465,-0.946,0.427,73.333,71758.000,1.000
-39.447,-7.296,4.871,-2.135,10.121,14.566,11.008,-28.579,0.013,0.975,-0.145,1.434,-0.977,0.580,73.333,71759.000,1.000
-38.599,-8.340,5.102,-3.060,9.264,13.870,9.534,-29.566,0.012,0.974,-0.143,1.526,-1.007,0.549,73.333,71760.000,1.000
-38.626,-10.274,4.918,-4.121,8.468,12.673,8.460,-29.748,0.013,0.976,-0.145,1.587,-1.007,0.671,73.333,71761.000,1.000
-38.942,-12.189,4.770,-4.861,8.126,11.246,7.916,-29.112,0.013,0.977,-0.145,1.587,-1.068,0.702,73.333,71762.000,1.000
-38.932,-13.324,4.957,-5.083,8.277,9.651,7.187,-28.196,0.013,0.978,-0.143,1.556,-1.038,0.732,73.333,71763.000,1.000
-38.393,-13.482,5.292,-5.025,8.565,7.903,5.701,-27.637,0.012,0.980,-0.143,1.495,-1.007,0.977,73.333,71764.000,1.000
-37.573,-13.016,5.313,-5.162,8.613,6.176,3.354,-27.706,0.010,0.977,-0.143,1.495,-1.007,0.946,73.333,71765.000,1.000
-37.076,-12.565,4.593,-6.029,8.161,4.663,0.377,-28.456,0.011,0.976,-0.144,1.465,-0.885,0.885,73.333,71766.000,1.000
-37.309,-12.503,3.230,-7.704,7.341,3.682,-2.504,-29.672,0.011,0.975,-0.146,1.404,-1.007,1.007,73.333,71767.000,1.000
-38.107,-12.651,1.868,-9.580,6.626,3.634,-4.112,-30.750,0.012,0.975,-0.143,1.343,-1.007,1.099,73.333,71768.000,1.000
-39.108,-12.757,0.990,-11.004,6.260,4.451,-3.710,-31.125,0.012,0.976,-0.145,1.404,-1.099,1.038,73.333,71769.000,1.000
-40.085,-12.861,0.573,-11.829,6.177,5.744,-1.546,-30.621,0.012,0.978,-0.146,1.373,-1.160,1.038,73.333,71770.000,1.000
-40.977,-13.130,0.259,-12.389,6.160,7.245,1.465,-29.493,0.010,0.977,-0.148,1.404,-1.160,1.099,73.333,71771.000,1.000
-41.527,-13.598,-0.138,-12.909,6.043,8.638,3.927,-28.096,0.012,0.978,-0.145,1.404,-1.129,1.129,73.333,71772.000,1.000
-41.292,-14.127,-0.535,-13.266,5.697,9.357,4.562,-26.741,0.011,0.978,-0.145,1.434,-1.099,1.343,73.333,71773.000,1.000
-40.188,-14.739,-0.979,-13.404,4.863,8.867,2.888,-25.942,0.012,0.979,-0.146,1.434,-1.160,1.221,73.333,71774.000,1.000
-38.720,-15.799,-1.780,-13.565,3.254,6.969,-0.884,-26.265,0.014,0.976,-0.148,1.404,-1.160,1.190,73.333,71775.000,1.000
-37.689,-17.658,-3.260,-14.045,0.818,3.944,-5.837,-27.828,0.015,0.976,-0.147,1.465,-1.129,1.160,73.333,71776.000,1.000
-37.320,-19.865,-5.041,-14.490,-1.669,0.999,-10.065,-29.735,0.013,0.976,-0.146,1.465,-1.160,1.099,73.333,71777.000,1.000
-36.909,-21.038,-5.930,-13.857,-2.686,0.118,-11.067,-30.246,0.012,0.976,-0.149,1.587,-1.129,1.038,73.333,71778.000,1.000
-35.556,-20.015,-4.899,-11.431,-1.183,2.614,-7.385,-27.986,0.015,0.976,-0.147,1.678,-1.099,1.129,73.333,71779.000,1.000
-32.929,-16.906,-1.896,-7.516,2.528,7.840,-0.050,-23.006,0.014,0.977,-0.148,1.709,-1.068,1.068,73.333,71780.000,1.000
-29.691,-13.054,2.029,-3.332,6.824,13.302,7.905,-16.866,0.016,0.979,-0.148,1.648,-1.038,1.129,73.333,71781.000,1.000
-27.067,-9.994,5.439,-0.243,9.950,16.503,13.451,-11.593,0.014,0.979,-0.151,1.740,-0.977,1.129,73.333,71782.000,1.000
-25.898,-8.344,7.476,1.127,11.279,16.907,15.560,-8.292,0.012,0.981,-0.146,1.556,-0.854,1.068,73.333,71783.000,1.000
-26.037,-7.713,8.274,1.165,11.443,15.657,15.019,-6.752,0.015,0.981,-0.147,1.465,-0.885,1.038,73.333,71784.000,1.000
-26.453,-7.279,8.757,0.870,11.611,14.048,12.879,-6.237,0.014,0.979,-0.149,1.434,-0.885,0.946,73.333,71785.000,1.000
-26.152,-6.373,9.788,0.984,12.534,12.878,10.173,-6.325,0.015,0.979,-0.150,1.312,-0.793,0.977,73.333,71786.000,1.000
-24.949,-4.945,11.474,1.572,14.207,12.554,8.121,-6.719,0.013,0.979,-0.149,1.221,-0.824,0.916,73.333,71787.000,1.000
-23.542,-3.717,13.033,2.049,15.835,12.940,7.403,-7.184,0.014,0.978,-0.147,1.251,-0.793,0.854,73.333,71788.000,1.000
-22.911,-3.674,13.394,1.611,16.189,13.276,7.386,-7.920,0.013,0.980,-0.145,1.129,-0.641,0.793,73.333,71789.000,1.000
-23.333,-5.091,12.295,0.146,14.756,12.931,7.004,-8.981,0.014,0.980,-0.143,1.007,-0.732,0.763,73.333,71790.000,1.000
-24.170,-7.138,10.577,-1.444,12.381,12.226,6.545,-9.545,0.012,0.979,-0.145,0.885,-0.702,0.732,73.333,71791.000,1.000
-24.412,-8.539,9.501,-1.937,10.688,12.242,7.453,-8.480,0.013,0.980,-0.146,0.793,-0.641,0.641,73.333,71792.000,1.000
-23.621,-8.595,9.672,-0.976,10.682,13.688,10.473,-5.798,0.012,0.982,-0.145,0.610,-0.549,0.580,73.333,71793.000,1.000
-22.324,-7.539,10.655,0.606,12.037,16.175,14.548,-3.059,0.011,0.981,-0.146,0.519,-0.519,0.641,73.333,71794.000,1.000
-21.301,-5.942,11.720,1.735,13.833,18.610,17.468,-1.960,0.011,0.979,-0.149,0.336,-0.488,0.671,73.333,71795.000,1.000
-20.996,-4.251,12.389,1.910,15.278,19.853,17.658,-2.950,0.011,0.981,-0.144,0.214,-0.519,0.580,73.333,71796.000,1.000
-21.326,-2.811,12.551,1.393,16.032,19.271,15.262,-5.103,0.011,0.980,-0.146,0.214,-0.519,0.732,73.333,71797.000,1.000
-21.806,-1.899,12.411,0.893,16.173,17.079,11.909,-6.937,0.011,0.979,-0.147,0.153,-0.488,0.885,73.333,71798.000,1.000
-21.811,-1.530,12.373,1.091,16.008,14.414,9.451,-7.385,0.010,0.978,-0.148,0.122,-0.519,0.824,73.333,71799.000,1.000
-20.907,-1.445,12.767,2.274,15.813,12.784,8.604,-6.460,0.006,0.977,-0.143,0.000,-0.580,0.824,73.333,71800.000,1.000
-19.596,-1.759,13.075,3.669,15.113,12.618,8.515,-5.597,0.007,0.976,-0.146,-0.031,-0.641,0.885,73.333,71801.000,1.000
-19.149,-3.156,12.075,3.670,12.831,12.649,7.345,-6.754,0.007,0.978,-0.148,0.000,-0.671,0.824,73.333,71802.000,1.000
-20.226,-5.853,9.238,1.338,8.637,11.367,3.935,-10.542,0.008,0.978,-0.145,-0.031,-0.793,0.824,73.333,71803.000,1.000
-21.988,-8.837,5.621,-2.436,3.862,8.876,-0.687,-15.260,0.006,0.976,-0.146,-0.031,-0.824,0.763,73.333,71804.000,1.000
-22.810,-10.567,3.118,-5.555,0.786,6.987,-3.649,-17.875,0.007,0.977,-0.147,-0.061,-0.916,0.946,73.333,71805.000,1.000
-22.033,-10.456,2.608,-6.701,0.570,7.302,-2.445,-16.488,0.007,0.979,-0.146,0.000,-0.977,0.977,73.333,71806.000,1.000
-20.513,-9.382,3.318,-6.297,2.310,9.617,2.677,-11.910,0.008,0.979,-0.146,-0.153,-0.977,1.038,73.333,71807.000,1.000
-19.508,-8.619,3.917,-5.624,4.134,12.359,8.836,-6.843,0.006,0.979,-0.146,-0.122,-1.007,1.068,73.333,71808.000,1.000
-19.518,-8.609,3.858,-5.399,4.895,14.029,12.823,-3.738,0.009,0.977,-0.147,-0.122,-1.007,1.190,73.333,71809.000,1.000
-20.162,-8.862,3.636,-5.308,4.876,14.050,13.263,-3.149,0.008,0.975,-0.147,-0.183,-1.099,1.190,73.333,71810.000,1.000
-20.884,-8.712,3.939,-4.784,5.003,12.712,11.290,-3.770,0.009,0.974,-0.147,-0.153,-1.129,1.190,73.333,71811.000,1.000
-21.094,-7.736,5.157,-3.506,6.075,10.999,9.256,-3.722,0.010,0.975,-0.146,-0.061,-1.221,1.221,73.333,71812.000,1.000
-20.347,-5.915,7.247,-1.567,8.289,10.119,8.964,-2.117,0.010,0.977,-0.142,0.000,-1.160,1.404,73.333,71813.000,1.000
-18.964,-3.961,9.473,0.306,10.847,10.479,10.627,0.214,0.012,0.978,-0.144,0.031,-1.251,1.251,73.333,71814.000,1.000
-17.834,-2.960,10.783,1.209,12.458,11.521,13.026,1.649,0.012,0.978,-0.145,-0.092,-1.190,1.312,73.333,71815.000,1.000
-17.590,-3.430,10.576,0.793,12.296,12.544,14.707,1.179,0.012,0.977,-0.146,-0.183,-1.129,1.282,73.333,71816.000,1.000
-18.132,-4.922,9.167,-0.518,10.615,13.274,14.730,-1.055,0.012,0.977,-0.147,-0.305,-1.068,1.404,73.333,71817.000,1.000
-19.040,-6.579,7.402,-2.031,8.370,13.680,12.949,-4.186,0.014,0.974,-0.147,-0.366,-1.007,1.465,73.333,71818.000,1.000
-20.151,-7.864,5.939,-3.308,6.426,13.744,10.177,-7.199,0.015,0.977,-0.145,-0.244,-0.977,1.404,73.333,71819.000,1.000
-21.352,-8.613,5.173,-4.050,5.400,13.689,8.065,-8.964,0.015,0.978,-0.144,-0.153,-1.007,1.343,73.333,71820.000,1.000
-22.294,-8.740,5.320,-3.955,5.680,14.097,8.430,-8.437,0.017,0.979,-0.144,-0.214,-0.854,1.404,73.333,71821.000,1.000
-22.497,-8.226,6.347,-2.827,7.315,15.527,11.636,-5.360,0.014,0.978,-0.145,-0.122,-0.763,1.282,73.333,71822.000,1.000
-21.926,-7.366,7.703,-0.967,9.675,17.852,15.863,-0.783,0.015,0.979,-0.143,-0.366,-0.671,1.434,73.333,71823.000,1.000
-21.191,-6.805,8.408,0.750,11.601,20.141,18.674,3.555,0.016,0.980,-0.143,-0.336,-0.671,1.404,73.333,71824.000,1.000
-20.957,-7.101,7.788,1.448,12.341,21.537,19.145,6.510,0.015,0.981,-0.142,-0.397,-0.641,1.404,73.333,71825.000,1.000
-21.670,-8.412,5.772,0.629,11.858,21.956,18.277,7.838,0.012,0.980,-0.141,-0.549,-0.458,1.373,73.333,71826.000,1.000
-23.441,-10.480,2.824,-1.657,10.602,21.741,17.437,7.727,0.012,0.976,-0.143,-0.793,-0.427,1.343,73.333,71827.000,1.000
-26.020,-12.789,-0.365,-4.932,9.098,20.906,17.068,6.486,0.014,0.975,-0.145,-0.824,-0.427,1.190,73.333,71828.000,1.000
-29.008,-14.799,-3.289,-8.617,7.646,19.238,16.707,4.569,0.015,0.972,-0.147,-0.763,-0.275,1.038,73.333,71829.000,1.000
-31.838,-16.027,-5.618,-12.038,6.410,17.079,15.556,2.583,0.015,0.968,-0.150,-0.610,-0.214,1.068,73.333,71830.000,1.000
-33.841,-16.200,-7.154,-14.569,5.408,15.323,13.198,0.871,0.016,0.967,-0.150,-0.366,-0.153,1.007,73.333,71831.000,1.000
-34.378,-15.360,-7.706,-15.715,4.779,14.919,10.160,-0.323,0.016,0.970,-0.148,-0.153,-0.092,1.068,73.333,71832.000,1.000
-33.277,-13.863,-7.257,-15.325,4.826,16.392,7.995,-0.442,0.014,0.974,-0.149,0.031,-0.092,1.007,73.333,71833.000,1.000
-31.375,-12.559,-6.484,-14.083,5.342,19.181,8.120,0.719,0.014,0.979,-0.145,0.092,-0.092,1.038,73.333,71834.000,1.000
-30.117,-12.594,-6.544,-13.324,5.383,21.596,10.254,2.266,0.012,0.980,-0.144,0.122,-0.061,1.068,73.333,71835.000,1.000
-30.553,-14.600,-8.175,-14.122,3.884,21.813,12.472,2.669,0.013,0.980,-0.142,0.122,0.031,1.038,73.333,71836.000,1.000
-32.518,-18.116,-10.915,-16.362,0.642,19.161,12.576,0.937,0.012,0.980,-0.144,0.000,0.092,1.038,73.333,71837.000,1.000
-34.833,-21.818,-13.396,-18.879,-3.486,14.559,9.758,-2.741,0.012,0.979,-0.145,-0.061,0.183,1.068,73.333,71838.000,1.000
-36.176,-24.315,-14.365,-20.403,-7.231,9.810,5.100,-7.223,0.012,0.979,-0.143,0.031,0.092,1.038,73.333,71839.000,1.000
-35.684,-24.792,-13.288,-20.216,-9.457,6.569,0.551,-10.963,0.012,0.977,-0.145,0.031,0.183,0.977,73.333,71840.000,1.000
-33.416,-23.319,-10.595,-18.458,-9.708,5.533,-2.241,-12.738,0.011,0.977,-0.146,0.183,0.305,1.007,73.333,71841.000,1.000
-30.198,-20.705,-7.357,-15.858,-8.332,6.366,-2.676,-12.145,0.013,0.977,-0.146,0.153,0.275,1.038,73.333,71842.000,1.000
-27.051,-17.989,-4.674,-13.233,-6.229,8.168,-1.192,-9.708,0.012,0.977,-0.146,0.244,0.244,1.099,73.333,71843.000,1.000
-24.847,-16.151,-3.351,-11.249,-4.462,9.820,1.152,-6.594,0.011,0.979,-0.147,0.275,0.183,1.160,73.333,71844.000,1.000
-24.107,-15.887,-3.685,-10.274,-3.671,10.337,3.161,-3.951,0.013,0.977,-0.144,0.366,0.214,1.221,73.333,71845.000,1.000
-24.986,-17.382,-5.544,-10.472,-3.978,9.278,4.113,-2.493,0.012,0.977,-0.140,0.427,0.153,1.312,73.333,71846.000,1.000
-27.085,-20.164,-8.367,-11.758,-5.080,6.929,3.974,-2.361,0.012,0.977,-0.141,0.366,0.214,1.312,73.333,71847.000,1.000
-29.388,-23.124,-11.173,-13.609,-6.376,4.141,3.285,-3.196,0.010,0.978,-0.144,0.336,0.183,1.312,73.333,71848.000,1.000
-30.752,-25.060,-12.946,-15.177,-7.286,1.768,2.527,-4.636,0.010,0.976,-0.142,0.397,0.153,1.251,73.333,71849.000,1.000
-30.569,-25.424,-13.158,-15.733,-7.469,0.182,1.690,-6.594,0.012,0.976,-0.142,0.488,0.122,1.434,73.333,71850.000,1.000
-29.199,-24.635,-12.198,-15.277,-7.064,-0.807,0.765,-9.044,0.011,0.977,-0.143,0.458,0.183,1.373,73.333,71851.000,1.000
-27.528,-23.664,-11.006,-14.436,-6.543,-1.631,-0.383,-11.651,0.011,0.977,-0.143,0.488,0.183,1.556,73.333,71852.000,1.000
-26.298,-23.302,-10.397,-13.929,-6.433,-2.646,-2.301,-13.769,0.013,0.976,-0.140,0.519,0.183,1.678,73.333,71853.000,1.000
-26.000,-23.928,-10.847,-14.277,-7.130,-4.035,-5.244,-14.747,0.013,0.977,-0.143,0.549,0.061,1.617,73.333,71854.000,1.000
-26.813,-25.596,-12.466,-15.575,-8.667,-5.663,-8.542,-14.237,0.013,0.978,-0.144,0.458,0.092,1.556,73.333,71855.000,1.000
-28.424,-27.913,-14.876,-17.343,-10.662,-7.020,-10.904,-12.531,0.011,0.979,-0.143,0.519,-0.031,1.709,73.333,71856.000,1.000
-29.888,-29.998,-17.007,-18.567,-12.279,-7.496,-11.468,-10.444,0.011,0.979,-0.142,0.458,0.061,1.678,73.333,71857.000,1.000
-30.354,-31.173,-17.814,-18.538,-12.878,-7.119,-10.381,-8.994,0.013,0.979,-0.142,0.397,0.000,1.709,73.333,71858.000,1.000
-29.840,-31.563,-17.207,-17.561,-12.650,-6.685,-8.452,-9.010,0.013,0.979,-0.145,0.397,-0.092,1.801,73.333,71859.000,1.000
-28.717,-31.536,-15.674,-16.344,-11.985,-6.712,-6.381,-10.434,0.013,0.976,-0.140,0.275,-0.092,1.709,73.333,71860.000,1.000
-27.213,-31.120,-13.768,-15.330,-10.981,-6.885,-4.274,-12.257,0.011,0.974,-0.141,0.153,-0.092,1.740,73.333,71861.000,1.000
-25.542,-30.279,-12.093,-14.680,-9.645,-6.472,-2.079,-13.352,0.013,0.975,-0.143,0.183,0.000,1.678,73.333,71862.000,1.000
-24.123,-29.222,-11.261,-14.475,-8.195,-4.890,0.057,-13.323,0.013,0.973,-0.146,0.092,0.000,1.617,73.333,71863.000,1.000
-23.404,-28.313,-11.614,-14.712,-7.062,-2.145,1.754,-12.578,0.016,0.974,-0.147,0.275,-0.031,1.678,73.333,71864.000,1.000
-23.497,-27.876,-12.984,-15.148,-6.630,0.887,2.363,-11.729,0.016,0.977,-0.149,0.305,0.000,1.678,73.333,71865.000,1.000
-24.419,-28.204,-15.108,-15.663,-7.309,2.547,1.354,-11.295,0.016,0.976,-0.145,0.305,0.031,1.648,73.333,71866.000,1.000
-26.198,-29.481,-17.848,-16.415,-9.275,1.500,-1.060,-11.502,0.017,0.977,-0.145,0.275,0.031,1.526,73.333,71867.000,1.000
-28.562,-31.456,-20.926,-17.498,-12.003,-1.917,-3.616,-12.068,0.017,0.976,-0.147,0.305,0.061,1.465,73.333,71868.000,1.000
-30.831,-33.450,-23.737,-18.649,-14.351,-5.748,-4.703,-12.400,0.017,0.972,-0.145,0.305,0.092,1.526,73.333,71869.000,1.000
-32.172,-34.709,-25.476,-19.281,-15.138,-7.908,-3.688,-12.036,0.018,0.968,-0.149,0.305,0.183,1.587,73.333,71870.000,1.000
-32.331,-34.989,-25.840,-19.115,-14.167,-7.831,-1.534,-11.195,0.017,0.965,-0.147,0.458,0.122,1.740,73.333,71871.000,1.000
-31.759,-34.716,-25.215,-18.411,-12.303,-6.432,-0.084,-10.546,0.017,0.964,-0.146,0.641,0.275,1.801,73.333,71872.000,1.000
-31.074,-34.439,-24.211,-17.634,-10.580,-4.734,-0.215,-10.342,0.018,0.968,-0.150,0.854,0.244,1.709,73.333,71873.000,1.000
-30.843,-34.486,-23.444,-17.337,-9.703,-3.292,-1.277,-10.310,0.019,0.971,-0.149,1.007,0.305,1.648,73.333,71874.000,1.000
-31.427,-34.906,-23.314,-17.997,-9.904,-2.483,-2.220,-10.096,0.020,0.976,-0.148,1.099,0.427,1.587,73.333,71875.000,1.000
-32.677,-35.313,-23.678,-19.604,-10.897,-2.471,-2.237,-9.443,0.018,0.980,-0.147,1.099,0.397,1.648,73.333,71876.000,1.000
-33.706,-34.989,-23.765,-21.324,-11.832,-2.825,-1.102,-8.100,0.020,0.983,-0.148,0.977,0.549,1.648,73.333,71877.000,1.000
-33.518,-33.534,-22.876,-22.065,-11.912,-2.819,0.610,-6.057,0.020,0.985,-0.149,0.854,0.519,1.801,73.333,71878.000,1.000
-31.966,-31.461,-21.217,-21.466,-11.193,-2.247,1.855,-3.867,0.020,0.985,-0.150,0.732,0.488,1.801,73.333,71879.000,1.000
-29.697,-29.823,-19.600,-19.968,-10.356,-1.366,1.836,-2.291,0.017,0.983,-0.150,0.641,0.641,1.740,73.333,71880.000,1.000
-27.598,-29.399,-18.731,-18.362,-10.142,-0.496,0.539,-1.852,0.017,0.983,-0.146,0.549,0.641,1.740,73.333,71881.000,1.000
-26.358,-30.408,-18.864,-17.390,-11.029,-0.157,-1.668,-2.775,0.018,0.983,-0.147,0.397,0.641,1.617,73.333,71882.000,1.000
-26.195,-32.509,-19.822,-17.448,-13.091,-0.923,-4.248,-4.930,0.015,0.984,-0.145,0.214,0.732,1.526,73.333,71883.000,1.000
-26.656,-34.777,-21.046,-18.279,-15.808,-2.656,-6.296,-7.633,0.014,0.988,-0.145,0.031,0.763,1.343,73.333,71884.000,1.000
-26.766,-36.120,-21.753,-19.084,-18.216,-4.396,-7.275,-9.994,0.012,0.989,-0.145,-0.183,0.610,1.282,73.333,71885.000,1.000
-25.917,-36.225,-21.639,-19.447,-19.844,-5.502,-7.873,-11.902,0.011,0.990,-0.145,-0.397,0.519,1.038,73.333,71886.000,1.000
-24.285,-35.799,-21.054,-19.606,-20.873,-6.286,-9.244,-13.837,0.013,0.988,-0.144,-0.519,0.305,1.068,73.333,71887.000,1.000
-22.479,-35.701,-20.468,-19.810,-21.437,-7.343,-11.264,-15.729,0.013,0.986,-0.146,-0.732,0.244,1.068,73.333,71888.000,1.000
-21.150,-36.244,-20.154,-20.029,-21.469,-8.915,-12.725,-17.036,0.013,0.982,-0.145,-0.916,0.061,1.129,73.333,71889.000,1.000
-20.512,-37.098,-20.020,-20.063,-20.922,-10.696,-13.002,-17.539,0.014,0.979,-0.144,-1.068,0.061,1.129,73.333,71890.000,1.000
-20.323,-37.615,-19.788,-19.719,-19.980,-12.023,-12.321,-17.430,0.013,0.975,-0.146,-1.160,-0.122,1.160,73.333,71891.000,1.000
-20.223,-37.389,-19.241,-18.835,-18.911,-12.478,-11.180,-16.808,0.012,0.974,-0.143,-1.160,-0.336,1.129,73.333,71892.000,1.000
-19.991,-36.505,-18.339,-17.396,-17.926,-12.300,-9.966,-15.586,0.015,0.971,-0.147,-1.068,-0.305,1.099,73.333,71893.000,1.000
-19.564,-35.381,-17.220,-15.737,-17.257,-12.117,-8.974,-13.997,0.014,0.965,-0.148,-0.977,-0.366,1.221,73.333,71894.000,1.000
-18.886,-34.452,-16.050,-14.387,-17.029,-12.217,-8.566,-12.725,0.010,0.969,-0.145,-0.549,-0.366,1.190,73.333,71895.000,1.000
-18.101,-34.006,-15.046,-13.801,-17.224,-12.373,-8.788,-12.327,0.008,0.977,-0.140,-0.397,-0.458,1.221,73.333,71896.000,1.000
-17.687,-34.268,-14.481,-14.152,-17.736,-12.491,-9.387,-12.841,0.010,0.981,-0.137,-0.305,-0.641,1.251,73.333,71897.000,1.000
-18.222,-35.314,-14.616,-15.382,-18.509,-12.901,-10.297,-14.156,0.011,0.986,-0.136,-0.519,-0.793,1.251,73.333,71898.000,1.000
-19.829,-36.774,-15.407,-17.148,-19.376,-13.746,-11.599,-16.077,0.013,0.985,-0.135,-0.702,-0.763,1.251,73.333,71899.000,1.000
-21.887,-37.859,-16.264,-18.703,-19.782,-14.565,-12.978,-17.893,0.014,0.980,-0.138,-0.946,-0.824,1.343,73.333,71900.000,1.000
-23.639,-37.932,-16.523,-19.373,-19.276,-14.803,-13.645,-18.878,0.015,0.978,-0.138,-1.007,-0.946,1.373,73.333,71901.000,1.000
-24.570,-36.847,-15.829,-18.885,-17.839,-14.149,-13.259,-18.941,0.014,0.974,-0.139,-1.068,-0.793,1.404,73.333,71902.000,1.000
-24.564,-34.976,-14.358,-17.502,-15.903,-12.493,-12.222,-18.433,0.014,0.974,-0.140,-1.007,-1.038,1.465,73.333,71903.000,1.000
-24.152,-33.236,-12.993,-16.103,-14.343,-10.206,-11.192,-17.770,0.014,0.973,-0.142,-1.007,-0.977,1.617,73.333,71904.000,1.000
-23.964,-32.520,-12.612,-15.472,-13.790,-8.030,-10.642,-17.006,0.016,0.972,-0.142,-0.854,-1.038,1.617,73.333,71905.000,1.000
-24.181,-32.983,-13.362,-15.602,-14.036,-6.444,-10.358,-15.664,0.014,0.971,-0.141,-0.610,-1.099,1.587,73.333,71906.000,1.000
-24.690,-34.201,-14.777,-15.965,-14.300,-5.379,-9.669,-13.324,0.013,0.973,-0.140,-0.458,-1.129,1.556,73.333,71907.000,1.000
-25.500,-35.676,-16.353,-16.268,-14.042,-4.509,-8.036,-10.272,0.014,0.975,-0.138,-0.336,-1.251,1.465,73.333,71908.000,1.000
-26.624,-36.967,-17.714,-16.604,-13.346,-3.643,-5.447,-7.372,0.013,0.975,-0.140,-0.244,-1.373,1.495,73.333,71909.000,1.000
-27.752,-37.690,-18.467,-17.040,-12.604,-2.863,-2.637,-5.457,0.017,0.977,-0.138,-0.275,-1.465,1.465,73.333,71910.000,1.000
-28.666,-37.723,-18.547,-17.637,-12.330,-2.494,-0.628,-5.020,0.016,0.976,-0.139,-0.153,-1.404,1.404,73.333,71911.000,1.000
-29.399,-37.256,-18.261,-18.395,-12.724,-2.689,0.022,-5.890,0.018,0.975,-0.143,-0.122,-1.343,1.343,73.333,71912.000,1.000
-29.871,-36.413,-17.824,-19.063,-13.300,-3.020,-0.124,-7.104,0.019,0.973,-0.141,-0.061,-1.373,1.343,73.333,71913.000,1.000
-29.816,-35.218,-17.187,-19.359,-13.320,-3.015,0.106,-7.548,0.019,0.972,-0.142,0.000,-1.343,1.282,73.333,71914.000,1.000
-29.054,-33.901,-16.225,-19.261,-12.540,-2.923,0.934,-6.953,0.019,0.970,-0.143,0.122,-1.312,1.251,73.333,71915.000,1.000
-27.805,-32.840,-14.985,-19.065,-11.530,-3.382,1.425,-6.182,0.020,0.971,-0.141,0.244,-1.251,1.251,73.333,71916.000,1.000
-26.356,-32.116,-13.468,-18.966,-10.903,-4.398,0.784,-6.161,0.022,0.972,-0.138,0.397,-1.068,1.221,73.333,71917.000,1.000
-24.690,-31.281,-11.475,-18.802,-10.602,-5.091,-0.627,-6.806,0.021,0.972,-0.139,0.549,-1.160,1.129,73.333,71918.000,1.000
-22.753,-29.796,-8.963,-18.375,-10.232,-4.694,-2.013,-7.424,0.021,0.973,-0.140,0.641,-0.977,1.099,73.333,71919.000,1.000
-20.721,-27.577,-6.290,-17.750,-9.579,-3.510,-3.338,-7.654,0.023,0.974,-0.141,0.671,-0.885,1.190,73.333,71920.000,1.000
-18.908,-24.960,-4.047,-17.218,-8.649,-2.471,-4.601,-7.520,0.024,0.975,-0.142,0.732,-0.641,1.251,73.333,71921.000,1.000
-17.347,-22.352,-2.542,-16.890,-7.329,-1.948,-5.063,-6.950,0.024,0.978,-0.143,0.732,-0.549,1.404,73.333,71922.000,1.000
-15.799,-20.084,-1.660,-16.554,-5.564,-1.572,-4.026,-5.929,0.021,0.974,-0.145,0.732,-0.488,1.312,73.333,71923.000,1.000
-14.058,-18.351,-1.033,-15.859,-3.618,-0.837,-1.611,-4.707,0.020,0.973,-0.145,0.793,-0.458,1.312,73.333,71924.000,1.000
-11.997,-17.097,-0.167,-14.474,-1.796,0.592,1.405,-3.472,0.019,0.976,-0.146,0.854,-0.336,1.282,73.333,71925.000,1.000
-9.809,-16.334,1.021,-12.570,-0.625,2.452,3.804,-2.625,0.020,0.978,-0.144,0.916,-0.275,1.312,73.333,71926.000,1.000
-7.963,-16.486,2.012,-10.853,-0.930,3.563,3.864,-3.030,0.020,0.980,-0.144,0.977,-0.153,1.312,73.333,71927.000,1.000
-6.865,-18.052,2.188,-10.013,-3.250,2.553,0.530,-5.302,0.016,0.981,-0.142,0.916,-0.214,1.282,73.333,71928.000,1.000
-6.670,-21.033,1.376,-10.220,-7.228,-0.936,-5.283,-9.021,0.016,0.982,-0.142,0.916,-0.183,1.282,73.333,71929.000,1.000
-7.101,-24.729,0.112,-10.916,-11.558,-5.878,-11.176,-12.781,0.015,0.980,-0.143,0.702,-0.122,1.160,73.333,71930.000,1.000
-7.656,-28.056,-0.780,-11.323,-14.847,-10.701,-14.829,-15.227,0.015,0.977,-0.143,0.824,-0.183,1.129,73.333,71931.000,1.000
-7.901,-30.102,-0.712,-11.047,-16.367,-14.210,-15.467,-15.953,0.018,0.977,-0.144,0.702,-0.153,1.282,73.333,71932.000,1.000
-7.663,-30.515,0.382,-10.244,-16.206,-15.931,-13.974,-15.488,0.019,0.978,-0.147,0.671,-0.183,1.251,73.333,71933.000,1.000
-6.985,-29.556,2.110,-9.329,-14.906,-15.978,-11.846,-14.664,0.019,0.982,-0.149,0.702,-0.183,1.282,73.333,71934.000,1.000
-5.820,-27.771,4.081,-8.429,-12.763,-14.594,-9.856,-13.739,0.018,0.985,-0.146,0.763,-0.214,1.312,73.333,71935.000,1.000
-4.301,-25.779,5.937,-7.464,-9.915,-12.088,-7.459,-12.390,0.015,0.985,-0.147,0.580,-0.183,1.282,73.333,71936.000,1.000
-3.061,-24.318,7.194,-6.536,-6.890,-9.272,-4.389,-10.738,0.019,0.984,-0.144,0.275,-0.061,1.343,73.333,71937.000,1.000
-2.910,-23.936,7.439,-5.901,-4.538,-7.242,-1.774,-9.602,0.020,0.982,-0.146,0.153,-0.153,1.526,73.333,71938.000,1.000
-4.194,-24.556,6.656,-5.606,-3.348,-6.460,-0.734,-9.489,0.021,0.981,-0.145,0.183,-0.122,1.556,73.333,71939.000,1.000
-6.549,-25.628,5.195,-5.519,-3.144,-6.449,-1.155,-10.124,0.021,0.982,-0.143,0.122,-0.153,1.648,73.333,71940.000,1.000
-9.396,-26.664,3.340,-5.838,-3.631,-6.593,-2.207,-11.039,0.019,0.982,-0.140,0.122,-0.214,1.617,73.333,71941.000,1.000
-12.131,-27.354,1.425,-6.873,-4.474,-6.678,-3.499,-11.739,0.014,0.981,-0.137,0.061,-0.122,1.495,73.333,71942.000,1.000
-14.087,-27.317,0.088,-8.438,-5.069,-6.561,-5.052,-11.656,0.012,0.981,-0.138,-0.061,-0.153,1.312,73.333,71943.000,1.000
-14.915,-26.378,-0.177,-9.981,-4.928,-6.008,-6.625,-10.558,0.010,0.979,-0.142,-0.061,-0.336,1.221,73.333,71944.000,1.000
-14.944,-25.065,0.416,-11.146,-4.179,-5.115,-7.795,-8.764,0.010,0.976,-0.144,-0.244,-0.519,1.099,73.333,71945.000,1.000
-15.111,-24.413,0.930,-12.106,-3.641,-4.468,-8.308,-6.957,0.010,0.976,-0.147,-0.122,-0.610,0.977,73.333,71946.000,1.000
-16.175,-25.165,0.518,-13.157,-4.081,-4.576,-8.268,-5.726,0.011,0.973,-0.146,0.000,-0.732,0.793,73.333,71947.000,1.000
-18.177,-27.304,-0.987,-14.325,-5.643,-5.552,-7.918,-5.260,0.013,0.972,-0.145,0.092,-0.732,0.793,73.333,71948.000,1.000
-20.581,-30.186,-3.162,-15.404,-7.894,-7.244,-7.349,-5.316,0.015,0.972,-0.146,0.214,-0.854,0.793,73.333,71949.000,1.000
-22.450,-32.761,-5.135,-15.934,-9.891,-8.983,-6.323,-5.141,0.013,0.974,-0.145,0.366,-0.854,0.793,73.333,71950.000,1.000
-22.894,-33.979,-6.023,-15.473,-10.696,-9.589,-4.198,-3.915,0.014,0.974,-0.144,0.397,-0.977,0.732,73.333,71951.000,1.000
-21.509,-33.335,-5.411,-13.976,-9.946,-8.221,-0.790,-1.586,0.013,0.976,-0.144,0.366,-1.007,0.793,73.333,71952.000,1.000
-18.724,-31.207,-3.688,-12.055,-8.161,-5.233,2.861,0.787,0.013,0.976,-0.142,0.366,-1.007,0.702,73.333,71953.000,1.000
-15.819,-28.871,-2.024,-10.794,-6.601,-2.225,4.865,1.709,0.015,0.977,-0.143,0.275,-1.099,0.702,73.333,71954.000,1.000
-14.111,-27.795,-1.555,-10.879,-6.340,-0.967,3.808,0.554,0.014,0.976,-0.141,0.305,-1.160,0.702,73.333,71955.000,1.000
-14.078,-28.530,-2.551,-12.033,-7.528,-2.147,0.167,-1.828,0.016,0.976,-0.141,0.397,-1.129,0.641,73.333,71956.000,1.000
-15.018,-30.271,-4.136,-13.167,-9.286,-4.892,-4.070,-3.747,0.016,0.979,-0.141,0.397,-1.160,0.641,73.333,71957.000,1.000
-15.497,-31.429,-4.786,-13.077,-10.313,-7.367,-6.798,-3.945,0.016,0.979,-0.140,0.244,-1.099,0.671,73.333,71958.000,1.000
-14.239,-30.692,-3.300,-11.174,-9.702,-8.074,-6.729,-2.267,0.018,0.981,-0.137,0.183,-1.129,0.610,73.333,71959.000,1.000
-10.678,-27.682,0.595,-7.647,-7.213,-6.598,-3.806,0.646,0.019,0.982,-0.140,0.214,-1.068,0.824,73.333,71960.000,1.000
-5.296,-23.066,5.955,-3.398,-3.413,-3.473,0.929,3.743,0.019,0.981,-0.141,0.031,-1.099,0.977,73.333,71961.000,1.000
0.526,-18.347,10.946,0.290,0.514,0.133,5.656,5.975,0.018,0.979,-0.142,-0.122,-0.977,0.946,73.333,71962.000,1.000
5.145,-15.175,13.730,2.260,3.246,2.734,8.686,6.768,0.018,0.978,-0.146,-0.183,-0.916,1.007,73.333,71963.000,1.000
7.373,-14.453,13.377,1.982,3.867,3.198,9.184,6.022,0.016,0.977,-0.147,-0.153,-0.977,1.007,73.333,71964.000,1.000
7.100,-15.759,10.429,-0.095,2.471,1.700,7.173,3.981,0.015,0.975,-0.144,-0.122,-1.007,1.068,73.333,71965.000,1.000
5.315,-17.477,6.612,-2.770,0.189,-0.189,3.695,1.267,0.013,0.976,-0.144,-0.031,-0.946,1.160,73.333,71966.000,1.000
3.659,-17.826,4.012,-4.634,-1.376,-0.646,0.455,-1.086,0.013,0.976,-0.146,0.153,-0.946,1.190,73.333,71967.000,1.000
3.359,-16.133,3.870,-4.856,-1.210,1.028,-0.939,-2.049,0.014,0.977,-0.144,0.153,-1.038,1.312,73.333,71968.000,1.000
4.280,-13.297,5.713,-3.788,0.317,3.913,0.022,-1.412,0.014,0.979,-0.142,0.092,-1.129,1.404,73.333,71969.000,1.000
5.280,-11.110,7.815,-2.642,1.792,6.169,1.898,-0.207,0.014,0.979,-0.142,0.183,-1.190,1.556,73.333,71970.000,1.000
5.105,-11.214,8.279,-2.800,1.598,6.136,2.311,-0.127,0.012,0.978,-0.143,0.153,-1.190,1.587,73.333,71971.000,1.000
3.249,-14.290,6.148,-4.950,-0.990,3.357,0.146,-2.123,0.012,0.977,-0.145,0.092,-1.404,1.495,73.333,71972.000,1.000
0.299,-19.501,2.010,-8.517,-5.164,-0.888,-3.305,-5.513,0.014,0.977,-0.144,0.092,-1.465,1.617,73.333,71973.000,1.000
-2.467,-24.785,-2.344,-11.922,-9.104,-4.445,-5.710,-8.696,0.014,0.974,-0.146,0.275,-1.526,1.526,73.333,71974.000,1.000
-3.812,-28.113,-4.946,-13.546,-11.191,-5.996,-6.156,-10.529,0.014,0.975,-0.144,0.366,-1.526,1.526,73.333,71975.000,1.000
-3.374,-28.718,-4.898,-12.824,-11.094,-5.913,-5.609,-10.979,0.015,0.976,-0.144,0.427,-1.526,1.465,73.333,71976.000,1.000
-1.771,-27.339,-2.709,-10.389,-9.600,-5.554,-5.625,-10.604,0.017,0.976,-0.145,0.427,-1.587,1.495,73.333,71977.000,1.000
-0.134,-25.554,0.203,-7.476,-7.877,-6.105,-7.037,-9.932,0.016,0.976,-0.144,0.458,-1.526,1.526,73.333,71978.000,1.000
0.569,-24.774,2.381,-5.148,-6.830,-7.794,-9.479,-9.269,0.018,0.975,-0.145,0.397,-1.648,1.556,73.333,71979.000,1.000
0.381,-25.224,3.429,-3.442,-6.327,-9.468,-11.353,-8.247,0.019,0.973,-0.147,0.427,-1.556,1.434,73.333,71980.000,1.000
0.235,-25.831,4.087,-1.541,-5.373,-9.268,-10.416,-5.915,0.019,0.971,-0.147,0.580,-1.648,1.373,73.333,71981.000,1.000
1.125,-25.304,5.350,1.255,-3.168,-6.212,-5.908,-1.882,0.019,0.974,-0.146,0.854,-1.678,1.373,73.333,71982.000,1.000
3.340,-23.220,7.578,4.814,0.070,-1.159,0.334,2.918,0.019,0.979,-0.145,0.854,-1.648,1.282,73.333,71983.000,1.000
6.169,-20.318,10.204,8.166,3.231,3.647,5.438,6.902,0.018,0.982,-0.144,0.916,-1.648,1.160,73.333,71984.000,1.000
8.436,-17.929,12.272,10.194,5.205,6.064,7.344,8.823,0.021,0.983,-0.140,0.763,-1.526,1.099,73.333,71985.000,1.000
