EEG 1,EEG 2,EEG 3,EEG 4,EEG 5,EEG 6,EEG 7,EEG 8,Accelerometer X,Accelerometer Y,Accelerometer Z,Gyroscope X,Gyroscope Y,Gyroscope Z,Battery Level,Counter,Validation Indicator
-0.029,2.114,-5.956,-6.228,-16.891,-16.430,-12.771,-10.399,-0.005,0.983,-0.114,-0.580,0.031,1.648,73.333,168033.000,1.000
0.516,3.444,-4.895,-5.255,-15.141,-16.639,-13.959,-9.309,-0.008,0.981,-0.114,-0.671,-0.061,1.770,73.333,168034.000,1.000
2.072,6.132,-2.880,-3.281,-11.866,-15.937,-13.298,-6.254,-0.010,0.980,-0.117,-0.610,-0.031,1.648,73.333,168035.000,1.000
3.977,8.991,-0.725,-0.844,-8.140,-15.269,-11.021,-2.304,-0.012,0.979,-0.115,-0.732,-0.183,1.434,73.333,168036.000,1.000
5.397,10.551,0.465,1.136,-5.627,-15.881,-9.268,0.160,-0.014,0.979,-0.118,-0.580,-0.275,1.434,73.333,168037.000,1.000
5.573,9.747,-0.217,1.632,-5.728,-18.492,-10.429,-1.152,-0.012,0.978,-0.116,-0.519,-0.366,1.251,73.333,168038.000,1.000
4.659,7.034,-2.364,0.550,-8.103,-22.104,-14.520,-5.947,-0.009,0.980,-0.114,-0.336,-0.366,1.190,73.333,168039.000,1.000
3.857,4.369,-4.194,-1.040,-10.677,-24.381,-19.080,-11.354,-0.010,0.981,-0.113,-0.153,-0.519,1.068,73.333,168040.000,1.000
4.301,3.630,-4.056,-1.986,-11.368,-23.582,-21.204,-14.380,-0.008,0.981,-0.115,-0.153,-0.641,0.946,73.333,168041.000,1.000
6.046,5.079,-1.819,-2.060,-9.559,-19.994,-19.657,-13.760,-0.007,0.984,-0.116,-0.092,-0.702,0.977,73.333,168042.000,1.000
7.999,7.363,1.008,-2.083,-6.446,-15.663,-15.419,-10.202,-0.006,0.986,-0.119,-0.153,-0.671,0.916,73.333,168043.000,1.000
9.078,8.929,2.722,-2.916,-3.867,-12.715,-10.859,-5.507,-0.005,0.983,-0.117,-0.153,-0.763,0.824,73.333,168044.000,1.000
9.124,9.210,2.747,-4.554,-2.966,-11.999,-8.249,-1.481,-0.005,0.986,-0.115,-0.183,-0.763,0.977,73.333,168045.000,1.000
8.514,8.463,1.416,-6.395,-3.991,-13.224,-8.557,0.756,-0.005,0.985,-0.115,-0.122,-0.702,0.946,73.333,168046.000,1.000
7.822,7.344,-0.449,-7.643,-6.221,-15.338,-10.877,1.446,-0.005,0.983,-0.112,-0.092,-0.824,1.129,73.333,168047.000,1.000
7.721,6.901,-1.721,-7.562,-8.153,-16.735,-12.769,2.048,-0.006,0.982,-0.115,-0.061,-0.824,1.251,73.333,168048.000,1.000
8.668,8.035,-1.480,-5.857,-8.429,-16.214,-12.421,3.809,-0.006,0.982,-0.112,-0.031,-0.763,1.160,73.333,168049.000,1.000
10.416,10.616,0.250,-3.026,-6.979,-14.123,-10.462,6.395,-0.006,0.982,-0.113,0.122,-0.763,1.129,73.333,168050.000,1.000
11.937,13.258,2.289,-0.236,-5.169,-12.318,-9.274,8.074,-0.005,0.983,-0.112,0.153,-0.824,1.221,73.333,168051.000,1.000
12.164,14.187,3.239,1.537,-4.428,-12.624,-10.654,7.474,-0.007,0.983,-0.114,0.153,-0.763,1.312,73.333,168052.000,1.000
10.754,12.638,2.614,2.134,-5.042,-15.296,-14.015,5.015,-0.006,0.983,-0.114,0.061,-0.763,1.312,73.333,168053.000,1.000
8.348,9.347,1.143,2.163,-6.138,-18.980,-17.262,2.447,-0.007,0.984,-0.114,0.092,-0.824,1.343,73.333,168054.000,1.000
6.021,5.728,-0.082,2.276,-6.767,-22.083,-18.978,1.080,-0.008,0.983,-0.114,0.153,-0.824,1.312,73.333,168055.000,1.000
4.460,2.782,-0.662,2.488,-6.856,-23.916,-19.256,0.823,-0.007,0.983,-0.114,0.153,-0.793,1.312,73.333,168056.000,1.000
3.996,0.955,-0.757,2.533,-6.763,-24.423,-18.743,1.094,-0.008,0.984,-0.114,0.061,-0.977,1.343,73.333,168057.000,1.000
4.701,0.481,-0.655,2.303,-6.725,-23.634,-17.513,1.698,-0.008,0.980,-0.114,0.153,-1.068,1.312,73.333,168058.000,1.000
6.223,1.163,-0.693,1.711,-6.935,-21.921,-15.706,2.398,-0.008,0.980,-0.114,0.183,-1.068,1.282,73.333,168059.000,1.000
7.887,2.342,-1.154,0.542,-7.595,-20.103,-14.189,2.571,-0.007,0.983,-0.112,0.305,-1.038,1.221,73.333,168060.000,1.000
9.133,3.540,-1.949,-1.217,-8.517,-18.738,-13.658,1.834,-0.007,0.984,-0.114,0.305,-1.038,1.190,73.333,168061.000,1.000
9.832,4.866,-2.534,-2.987,-8.793,-17.549,-13.745,0.664,-0.007,0.982,-0.112,0.397,-1.099,1.221,73.333,168062.000,1.000
9.840,6.530,-2.627,-4.153,-7.684,-16.037,-13.282,-0.117,-0.007,0.982,-0.112,0.427,-1.099,1.190,73.333,168063.000,1.000
8.887,8.294,-2.525,-4.612,-5.396,-14.337,-11.606,-0.090,-0.006,0.983,-0.112,0.427,-1.160,1.129,73.333,168064.000,1.000
7.127,9.760,-2.541,-4.572,-2.814,-13.042,-9.260,0.553,-0.006,0.983,-0.113,0.366,-1.099,1.068,73.333,168065.000,1.000
5.379,10.789,-2.630,-4.199,-0.891,-12.573,-7.455,1.163,-0.006,0.982,-0.110,0.336,-1.129,1.099,73.333,168066.000,1.000
4.831,11.507,-2.454,-3.446,-0.090,-12.881,-7.185,1.211,-0.005,0.982,-0.110,0.305,-1.129,1.038,73.333,168067.000,1.000
6.228,12.138,-1.768,-2.308,-0.400,-13.648,-8.556,0.601,-0.005,0.982,-0.112,0.336,-1.038,0.946,73.333,168068.000,1.000
9.461,12.793,-0.620,-0.952,-1.507,-14.613,-11.005,-0.570,-0.004,0.980,-0.116,0.458,-1.007,1.068,73.333,168069.000,1.000
13.725,13.308,0.620,0.295,-3.105,-15.762,-13.866,-2.364,-0.005,0.981,-0.116,0.458,-0.916,1.038,73.333,168070.000,1.000
17.825,13.207,1.252,0.902,-5.300,-17.433,-16.839,-5.107,-0.004,0.981,-0.115,0.549,-0.885,1.038,73.333,168071.000,1.000
21.025,12.307,0.947,0.687,-8.066,-19.685,-19.853,-8.710,-0.003,0.983,-0.114,0.549,-0.916,0.885,73.333,168072.000,1.000
23.646,11.412,0.380,0.280,-10.626,-21.598,-22.240,-12.090,-0.005,0.985,-0.112,0.549,-0.854,1.007,73.333,168073.000,1.000
26.562,11.561,0.669,0.614,-11.915,-21.907,-23.069,-13.839,-0.007,0.984,-0.112,0.580,-0.732,0.916,73.333,168074.000,1.000
29.992,12.674,2.126,1.911,-11.721,-20.346,-22.074,-13.478,-0.007,0.983,-0.116,0.519,-0.763,0.977,73.333,168075.000,1.000
33.143,13.554,3.977,3.524,-10.910,-18.010,-19.825,-11.758,-0.005,0.982,-0.114,0.427,-0.732,0.854,73.333,168076.000,1.000
35.312,13.283,5.452,4.943,-10.279,-16.317,-17.417,-9.676,-0.006,0.983,-0.110,0.427,-0.671,0.854,73.333,168077.000,1.000
36.597,12.135,6.424,6.313,-9.933,-15.956,-15.819,-7.728,-0.005,0.984,-0.113,0.336,-0.488,0.763,73.333,168078.000,1.000
37.685,11.120,7.220,8.158,-9.481,-16.650,-15.553,-5.933,-0.004,0.985,-0.115,0.366,-0.427,0.763,73.333,168079.000,1.000
39.161,11.009,8.178,10.800,-8.586,-17.695,-16.683,-4.222,-0.005,0.984,-0.116,0.366,-0.427,0.763,73.333,168080.000,1.000
40.799,11.568,9.157,13.805,-7.554,-18.893,-19.020,-2.892,-0.006,0.986,-0.115,0.366,-0.427,0.916,73.333,168081.000,1.000
41.926,11.790,9.754,16.278,-7.036,-20.558,-22.145,-2.381,-0.008,0.987,-0.115,0.275,-0.519,1.068,73.333,168082.000,1.000
42.290,11.034,9.838,17.588,-7.309,-22.665,-24.910,-2.647,-0.011,0.987,-0.113,0.092,-0.580,1.190,73.333,168083.000,1.000
42.478,9.706,9.822,17.844,-7.878,-24.567,-25.746,-3.014,-0.012,0.983,-0.113,0.092,-0.458,1.190,73.333,168084.000,1.000
43.387,8.946,10.371,17.666,-7.830,-25.504,-23.846,-2.880,-0.013,0.985,-0.110,-0.092,-0.519,1.343,73.333,168085.000,1.000
45.316,9.741,11.817,17.509,-6.666,-25.089,-20.143,-2.620,-0.013,0.985,-0.112,-0.092,-0.458,1.282,73.333,168086.000,1.000
47.929,12.408,14.136,17.608,-4.358,-23.173,-16.771,-2.993,-0.013,0.985,-0.114,-0.122,-0.580,1.160,73.333,168087.000,1.000
50.516,16.530,16.938,18.029,-1.222,-19.856,-15.245,-4.117,-0.011,0.984,-0.115,-0.214,-0.732,1.038,73.333,168088.000,1.000
52.177,20.849,19.274,18.390,1.891,-15.993,-16.052,-5.811,-0.009,0.984,-0.115,-0.183,-0.763,0.946,73.333,168089.000,1.000
52.344,23.954,20.086,17.996,3.924,-12.896,-18.809,-7.917,-0.008,0.983,-0.115,-0.214,-0.763,1.007,73.333,168090.000,1.000
51.356,25.467,19.217,16.593,4.542,-11.119,-21.791,-9.714,-0.007,0.984,-0.114,-0.214,-0.732,0.916,73.333,168091.000,1.000
50.312,26.023,17.678,14.754,4.418,-10.122,-22.759,-10.061,-0.006,0.982,-0.113,-0.366,-0.824,1.068,73.333,168092.000,1.000
49.935,26.069,16.499,13.184,4.147,-9.340,-20.833,-8.746,-0.007,0.983,-0.112,-0.366,-0.854,1.068,73.333,168093.000,1.000
50.046,25.220,15.883,12.206,3.655,-8.946,-17.347,-6.866,-0.008,0.984,-0.109,-0.397,-0.854,1.099,73.333,168094.000,1.000
50.175,22.978,15.518,11.945,2.639,-9.473,-14.656,-5.703,-0.008,0.986,-0.112,-0.458,-0.793,1.099,73.333,168095.000,1.000
50.257,19.609,15.234,12.542,1.128,-11.185,-14.214,-5.653,-0.008,0.987,-0.110,-0.580,-0.732,1.190,73.333,168096.000,1.000
51.045,16.377,15.564,14.401,0.000,-13.520,-15.414,-5.865,-0.007,0.985,-0.109,-0.702,-0.671,1.221,73.333,168097.000,1.000
53.564,14.792,17.315,17.840,0.345,-15.438,-16.352,-5.190,-0.009,0.982,-0.112,-0.641,-0.641,1.312,73.333,168098.000,1.000
58.007,15.094,20.372,22.315,1.988,-16.881,-16.682,-3.773,-0.007,0.983,-0.111,-0.732,-0.732,1.404,73.333,168099.000,1.000
63.289,15.910,23.392,26.362,3.244,-19.221,-18.407,-3.130,-0.007,0.982,-0.110,-0.549,-0.702,1.526,73.333,168100.000,1.000
67.789,15.596,24.876,28.540,2.319,-23.905,-23.340,-4.616,-0.006,0.982,-0.114,-0.732,-0.610,1.495,73.333,168101.000,1.000
70.595,13.595,24.426,28.480,-1.247,-31.019,-31.172,-8.323,-0.007,0.982,-0.112,-0.549,-0.641,1.465,73.333,168102.000,1.000
71.783,10.565,22.740,26.853,-6.564,-39.159,-39.637,-13.412,-0.005,0.985,-0.107,-0.641,-0.641,1.434,73.333,168103.000,1.000
71.916,7.545,20.803,24.679,-12.147,-46.390,-46.089,-18.745,-0.006,0.985,-0.109,-0.580,-0.549,1.404,73.333,168104.000,1.000
71.723,5.488,19.435,22.855,-16.522,-51.155,-48.989,-23.111,-0.006,0.984,-0.107,-0.488,-0.641,1.434,73.333,168105.000,1.000
72.009,5.340,19.308,22.073,-18.468,-52.484,-48.148,-25.461,-0.007,0.982,-0.111,-0.519,-0.702,1.556,73.333,168106.000,1.000
73.279,7.607,20.759,22.635,-17.373,-50.173,-44.440,-25.514,-0.007,0.980,-0.111,-0.519,-0.641,1.495,73.333,168107.000,1.000
74.948,11.463,23.057,23.822,-14.218,-45.422,-40.029,-24.521,-0.006,0.982,-0.111,-0.336,-0.671,1.526,73.333,168108.000,1.000
75.631,14.971,24.651,24.253,-11.258,-40.455,-38.015,-24.593,-0.004,0.981,-0.111,-0.336,-0.549,1.373,73.333,168109.000,1.000
74.596,16.748,24.651,23.317,-10.085,-36.773,-39.924,-26.653,-0.006,0.979,-0.110,-0.275,-0.549,1.404,73.333,168110.000,1.000
72.463,16.927,23.467,21.643,-10.711,-34.388,-44.332,-29.782,-0.006,0.978,-0.111,-0.183,-0.610,1.343,73.333,168111.000,1.000
70.480,16.331,21.993,20.160,-12.394,-32.848,-48.746,-32.426,-0.004,0.977,-0.112,0.000,-0.580,1.190,73.333,168112.000,1.000
69.173,15.319,20.424,18.988,-14.840,-32.324,-51.609,-33.737,-0.005,0.978,-0.112,0.092,-0.488,1.190,73.333,168113.000,1.000
68.099,13.618,18.273,17.593,-18.078,-33.319,-52.689,-33.788,-0.005,0.977,-0.110,0.153,-0.427,1.160,73.333,168114.000,1.000
66.547,10.924,15.132,15.568,-21.723,-35.869,-52.338,-32.913,-0.007,0.981,-0.109,0.336,-0.427,1.251,73.333,168115.000,1.000
64.045,7.251,11.023,12.907,-25.031,-39.507,-51.030,-31.331,-0.006,0.983,-0.108,0.427,-0.397,1.099,73.333,168116.000,1.000
60.762,3.125,6.607,10.071,-27.138,-43.406,-49.396,-29.180,-0.006,0.982,-0.107,0.488,-0.458,1.160,73.333,168117.000,1.000
57.404,-0.398,2.961,7.743,-27.326,-46.515,-47.694,-26.614,-0.004,0.982,-0.108,0.519,-0.458,1.190,73.333,168118.000,1.000
54.581,-2.458,0.803,6.305,-25.434,-48.190,-45.830,-23.929,-0.006,0.983,-0.108,0.519,-0.336,1.282,73.333,168119.000,1.000
52.269,-3.043,-0.100,5.486,-22.203,-48.593,-43.816,-21.706,-0.007,0.984,-0.109,0.580,-0.366,1.251,73.333,168120.000,1.000
49.927,-2.895,-0.711,4.603,-19.145,-48.524,-42.037,-20.762,-0.008,0.985,-0.109,0.549,-0.366,1.312,73.333,168121.000,1.000
47.271,-2.917,-1.833,3.226,-17.765,-49.088,-41.529,-21.740,-0.008,0.984,-0.113,0.610,-0.397,1.282,73.333,168122.000,1.000
44.610,-3.609,-3.598,1.480,-18.872,-51.116,-43.109,-24.587,-0.007,0.985,-0.113,0.671,-0.519,1.434,73.333,168123.000,1.000
42.661,-4.862,-5.407,0.089,-21.991,-54.251,-45.743,-27.986,-0.009,0.986,-0.109,0.488,-0.519,1.373,73.333,168124.000,1.000
42.043,-6.188,-6.400,-0.124,-25.700,-57.049,-46.923,-29.878,-0.007,0.987,-0.108,0.488,-0.549,1.343,73.333,168125.000,1.000
42.655,-7.382,-6.374,0.646,-29.200,-58.566,-46.085,-29.855,-0.007,0.988,-0.107,0.397,-0.549,1.495,73.333,168126.000,1.000
43.953,-8.573,-5.684,1.340,-32.731,-59.146,-46.115,-30.089,-0.007,0.984,-0.108,0.427,-0.641,1.526,73.333,168127.000,1.000
45.712,-9.351,-4.259,1.504,-36.251,-59.294,-49.439,-32.622,-0.009,0.982,-0.109,0.427,-0.610,1.617,73.333,168128.000,1.000
48.280,-8.483,-1.237,2.056,-38.455,-58.502,-54.534,-36.687,-0.009,0.982,-0.110,0.427,-0.641,1.617,73.333,168129.000,1.000
51.795,-5.006,3.965,4.316,-37.821,-55.796,-57.569,-39.585,-0.009,0.982,-0.109,0.519,-0.702,1.678,73.333,168130.000,1.000
55.296,0.455,10.354,8.535,-34.391,-51.164,-56.340,-39.287,-0.006,0.983,-0.108,0.488,-0.763,1.709,73.333,168131.000,1.000
57.204,5.897,15.735,13.684,-29.741,-45.721,-51.753,-35.515,-0.004,0.984,-0.109,0.580,-0.793,1.801,73.333,168132.000,1.000
56.668,9.623,18.384,18.192,-25.612,-40.747,-46.253,-29.378,-0.007,0.985,-0.109,0.549,-0.793,1.892,73.333,168133.000,1.000
54.487,11.412,18.358,20.901,-22.780,-36.988,-42.282,-22.758,-0.006,0.984,-0.109,0.610,-0.763,1.801,73.333,168134.000,1.000
52.550,12.095,17.072,21.548,-21.188,-34.593,-41.273,-17.647,-0.006,0.983,-0.110,0.610,-0.793,1.923,73.333,168135.000,1.000
52.136,12.166,15.643,20.416,-20.823,-33.556,-42.954,-15.509,-0.007,0.983,-0.112,0.610,-0.854,1.984,73.333,168136.000,1.000
53.129,11.266,14.247,18.065,-21.675,-33.862,-45.612,-16.412,-0.007,0.979,-0.111,0.763,-0.946,1.984,73.333,168137.000,1.000
54.579,9.169,12.784,15.318,-23.146,-35.050,-46.755,-18.570,-0.008,0.979,-0.110,0.885,-1.068,1.984,73.333,168138.000,1.000
55.843,6.608,11.613,13.228,-23.977,-36.123,-44.443,-19.391,-0.006,0.980,-0.111,0.946,-1.099,1.984,73.333,168139.000,1.000
56.957,4.762,11.370,12.567,-23.186,-36.423,-38.726,-17.595,-0.005,0.981,-0.114,1.099,-1.099,2.014,73.333,168140.000,1.000
57.891,3.947,12.067,13.093,-21.170,-36.595,-31.895,-14.320,-0.002,0.981,-0.113,1.038,-1.160,2.014,73.333,168141.000,1.000
57.984,3.003,12.676,13.436,-19.609,-38.385,-27.277,-12.102,-0.001,0.984,-0.115,1.068,-1.221,2.045,73.333,168142.000,1.000
56.207,0.137,11.563,11.623,-20.570,-43.488,-27.552,-13.420,0.000,0.983,-0.115,1.068,-1.160,2.136,73.333,168143.000,1.000
52.359,-5.363,7.869,6.459,-24.993,-51.974,-33.580,-19.540,0.000,0.981,-0.112,1.129,-1.068,2.258,73.333,168144.000,1.000
47.797,-11.978,2.601,-1.197,-31.591,-61.373,-43.384,-29.423,0.000,0.979,-0.114,1.160,-1.038,2.319,73.333,168145.000,1.000
44.301,-17.054,-2.265,-9.083,-37.831,-68.136,-52.829,-40.159,-0.001,0.976,-0.116,1.282,-0.977,2.380,73.333,168146.000,1.000
42.611,-18.933,-5.453,-15.173,-41.791,-70.086,-58.453,-48.844,-0.002,0.972,-0.117,1.434,-0.885,2.411,73.333,168147.000,1.000
42.196,-17.573,-6.872,-18.473,-42.965,-67.243,-59.185,-53.856,-0.002,0.972,-0.118,1.678,-0.763,2.472,73.333,168148.000,1.000
41.986,-14.058,-7.073,-18.898,-41.899,-61.299,-56.255,-54.977,-0.003,0.974,-0.117,1.892,-0.793,2.502,73.333,168149.000,1.000
40.910,-10.178,-6.908,-17.210,-39.788,-54.850,-52.095,-53.132,-0.001,0.976,-0.117,1.984,-0.671,2.441,73.333,168150.000,1.000
38.014,-7.996,-7.541,-14.997,-38.228,-50.425,-48.805,-49.848,0.002,0.977,-0.117,2.106,-0.610,2.563,73.333,168151.000,1.000
32.675,-9.236,-10.125,-14.072,-38.696,-49.652,-47.367,-46.588,0.004,0.977,-0.117,2.075,-0.458,2.594,73.333,168152.000,1.000
24.874,-14.564,-15.256,-15.573,-42.145,-52.936,-47.896,-44.561,0.005,0.980,-0.118,2.319,-0.519,2.411,73.333,168153.000,1.000
15.784,-22.825,-22.197,-19.083,-48.275,-59.113,-50.302,-44.424,0.005,0.983,-0.118,2.502,-0.336,2.594,73.333,168154.000,1.000
7.642,-31.093,-28.764,-22.677,-55.062,-65.463,-53.919,-45.501,0.002,0.983,-0.116,2.441,-0.366,2.563,73.333,168155.000,1.000
2.303,-36.345,-32.708,-24.344,-59.733,-69.011,-56.972,-45.834,-0.002,0.983,-0.116,2.594,-0.305,2.472,73.333,168156.000,1.000
0.179,-37.302,-33.103,-23.308,-60.415,-68.188,-57.703,-43.719,-0.003,0.984,-0.117,2.502,-0.305,2.380,73.333,168157.000,1.000
0.275,-34.796,-30.697,-20.289,-57.269,-63.571,-55.715,-39.301,-0.005,0.985,-0.115,2.411,-0.244,2.258,73.333,168158.000,1.000
0.959,-30.933,-27.252,-16.776,-52.128,-57.276,-52.002,-34.275,-0.008,0.984,-0.116,2.380,-0.427,2.045,73.333,168159.000,1.000
0.877,-27.706,-24.457,-14.095,-47.088,-51.406,-47.697,-30.175,-0.010,0.984,-0.118,2.319,-0.397,1.862,73.333,168160.000,1.000
-0.361,-25.829,-22.978,-12.721,-43.204,-46.837,-43.035,-27.279,-0.010,0.983,-0.119,2.472,-0.427,1.740,73.333,168161.000,1.000
-2.057,-24.707,-22.180,-12.030,-40.146,-43.466,-37.902,-24.922,-0.010,0.983,-0.115,2.533,-0.641,1.556,73.333,168162.000,1.000
-3.563,-23.803,-21.316,-11.345,-37.528,-41.626,-33.018,-22.926,-0.012,0.984,-0.118,2.563,-0.702,1.343,73.333,168163.000,1.000
-5.159,-23.771,-20.622,-11.011,-36.022,-42.624,-30.256,-22.376,-0.016,0.980,-0.115,2.502,-0.977,1.373,73.333,168164.000,1.000
-7.493,-25.751,-20.876,-12.108,-36.767,-47.621,-31.299,-24.691,-0.012,0.980,-0.118,2.502,-1.343,1.282,73.333,168165.000,1.000
-10.623,-29.939,-22.373,-15.396,-40.194,-56.439,-36.255,-30.408,-0.004,0.983,-0.117,2.655,-1.495,1.282,73.333,168166.000,1.000
-13.587,-34.949,-24.307,-20.337,-45.226,-67.085,-43.472,-38.521,0.001,0.990,-0.114,2.869,-1.587,1.221,73.333,168167.000,1.000
-15.128,-38.466,-25.327,-25.343,-49.836,-76.400,-50.186,-46.805,0.000,0.995,-0.111,2.686,-1.465,1.160,73.333,168168.000,1.000
-15.006,-39.062,-24.906,-29.177,-52.612,-81.922,-54.269,-53.286,-0.006,0.997,-0.108,2.472,-1.495,1.190,73.333,168169.000,1.000
-14.330,-37.149,-23.860,-31.796,-53.554,-83.092,-55.354,-57.340,-0.010,0.997,-0.107,1.984,-1.556,1.038,73.333,168170.000,1.000
-14.400,-33.971,-23.298,-33.674,-53.296,-80.514,-54.054,-59.284,-0.012,0.994,-0.108,1.465,-1.617,0.977,73.333,168171.000,1.000
-15.539,-30.378,-23.490,-34.865,-52.061,-74.780,-50.995,-59.366,-0.010,0.988,-0.112,1.099,-1.648,1.068,73.333,168172.000,1.000
-17.621,-27.010,-24.341,-35.421,-50.046,-66.574,-46.618,-57.676,-0.006,0.987,-0.117,0.946,-1.648,0.946,73.333,168173.000,1.000
-20.881,-24.961,-26.176,-35.997,-48.025,-57.218,-41.634,-54.620,-0.003,0.986,-0.117,0.854,-1.587,0.824,73.333,168174.000,1.000
-25.679,-25.332,-29.463,-37.466,-47.039,-48.526,-37.212,-50.991,0.000,0.985,-0.115,0.824,-1.587,1.007,73.333,168175.000,1.000
-31.789,-28.173,-34.065,-40.157,-47.667,-42.089,-34.544,-47.559,0.000,0.983,-0.117,0.671,-1.434,1.068,73.333,168176.000,1.000
-37.828,-31.964,-38.696,-43.149,-49.210,-38.088,-33.914,-44.360,0.001,0.983,-0.116,0.732,-1.343,1.221,73.333,168177.000,1.000
-41.945,-34.416,-41.513,-44.631,-49.929,-35.002,-33.943,-40.436,0.001,0.984,-0.117,0.610,-1.160,1.343,73.333,168178.000,1.000
-43.469,-34.398,-41.668,-43.418,-48.423,-31.228,-32.515,-34.659,0.001,0.986,-0.119,0.641,-1.099,1.434,73.333,168179.000,1.000
-43.715,-32.843,-40.093,-40.057,-44.738,-26.665,-28.207,-26.838,-0.001,0.986,-0.116,0.488,-1.007,1.465,73.333,168180.000,1.000
-44.983,-31.734,-38.712,-36.316,-40.214,-22.562,-21.022,-17.979,-0.002,0.986,-0.115,0.366,-0.946,1.617,73.333,168181.000,1.000
-48.627,-32.472,-38.860,-33.749,-36.388,-20.311,-12.636,-9.733,-0.002,0.984,-0.115,0.122,-0.824,1.740,73.333,168182.000,1.000
-53.947,-34.774,-40.364,-32.831,-34.123,-20.527,-5.534,-3.801,-0.003,0.978,-0.115,0.122,-0.702,1.740,73.333,168183.000,1.000
-58.349,-36.748,-41.575,-32.810,-33.165,-22.776,-1.975,-1.494,-0.003,0.975,-0.116,0.092,-0.671,1.709,73.333,168184.000,1.000
-58.851,-36.162,-40.457,-32.325,-32.468,-25.793,-3.267,-3.564,-0.004,0.974,-0.119,0.214,-0.519,1.709,73.333,168185.000,1.000
-54.384,-32.326,-36.333,-30.704,-31.347,-28.461,-9.254,-10.141,-0.003,0.972,-0.121,0.458,-0.397,1.770,73.333,168186.000,1.000
-46.840,-26.995,-30.653,-28.661,-30.185,-31.034,-18.627,-20.430,-0.002,0.971,-0.120,0.641,-0.397,1.617,73.333,168187.000,1.000
-39.782,-23.108,-25.969,-27.705,-30.093,-35.072,-29.475,-32.751,-0.002,0.968,-0.123,0.793,-0.397,1.556,73.333,168188.000,1.000
-36.005,-22.650,-24.056,-28.793,-31.778,-41.864,-39.801,-45.037,-0.004,0.970,-0.120,1.038,-0.336,1.404,73.333,168189.000,1.000
-36.213,-25.551,-24.995,-31.628,-34.857,-51.010,-47.918,-55.440,0.000,0.969,-0.118,1.343,-0.214,1.373,73.333,168190.000,1.000
-39.183,-29.997,-27.514,-34.985,-38.054,-60.260,-52.637,-62.768,0.001,0.969,-0.117,1.556,-0.153,1.312,73.333,168191.000,1.000
-42.583,-33.577,-29.831,-37.452,-39.830,-66.573,-53.558,-66.672,0.001,0.971,-0.119,1.740,-0.122,1.221,73.333,168192.000,1.000
-44.791,-34.962,-31.107,-38.673,-39.715,-68.108,-51.482,-68.087,0.000,0.969,-0.119,1.862,0.000,1.282,73.333,168193.000,1.000
-46.171,-34.885,-32.204,-39.827,-38.873,-65.487,-48.447,-68.997,0.000,0.971,-0.122,1.953,0.153,1.251,73.333,168194.000,1.000
-48.153,-34.909,-34.464,-42.332,-38.793,-60.695,-46.198,-70.655,0.000,0.974,-0.120,2.228,0.183,1.160,73.333,168195.000,1.000
-51.605,-35.690,-38.221,-46.435,-39.905,-55.207,-44.744,-72.393,0.001,0.977,-0.118,2.411,0.244,1.129,73.333,168196.000,1.000
-56.120,-36.737,-42.574,-51.015,-41.384,-49.337,-42.880,-72.373,0.002,0.983,-0.118,2.563,0.427,1.160,73.333,168197.000,1.000
-60.366,-36.992,-46.079,-54.345,-41.906,-42.632,-39.148,-68.917,0.000,0.987,-0.119,2.594,0.549,1.251,73.333,168198.000,1.000
-62.913,-35.689,-47.588,-55.011,-40.495,-34.717,-32.701,-61.357,-0.003,0.991,-0.119,2.502,0.580,1.190,73.333,168199.000,1.000
-63.262,-33.112,-46.976,-52.676,-37.202,-26.133,-23.968,-50.400,-0.005,0.990,-0.119,2.350,0.702,1.221,73.333,168200.000,1.000
-62.238,-30.524,-45.283,-48.306,-33.243,-18.435,-14.759,-38.138,-0.004,0.991,-0.122,2.167,0.671,1.190,73.333,168201.000,1.000
-61.315,-29.426,-44.055,-43.686,-30.339,-13.456,-7.995,-27.623,-0.004,0.994,-0.121,1.984,0.702,1.251,73.333,168202.000,1.000
-61.818,-30.806,-44.591,-40.696,-29.870,-12.429,-6.255,-21.619,-0.005,0.996,-0.115,1.923,0.763,1.221,73.333,168203.000,1.000
-64.091,-34.549,-47.054,-40.194,-31.807,-15.168,-9.807,-20.695,-0.005,0.995,-0.116,1.648,0.641,1.038,73.333,168204.000,1.000
-67.204,-39.304,-50.162,-41.433,-34.505,-19.902,-16.105,-22.668,-0.005,0.996,-0.115,1.465,0.732,1.038,73.333,168205.000,1.000
-69.733,-43.264,-52.173,-42.879,-35.958,-24.266,-21.236,-24.325,-0.005,0.993,-0.115,1.038,0.641,1.007,73.333,168206.000,1.000
-70.472,-45.010,-51.872,-43.214,-34.889,-26.390,-21.839,-23.317,-0.002,0.993,-0.115,0.732,0.549,1.099,73.333,168207.000,1.000
-68.811,-43.866,-48.986,-41.846,-31.208,-25.456,-16.631,-19.116,-0.002,0.992,-0.117,0.549,0.641,1.068,73.333,168208.000,1.000
-64.881,-40.092,-44.121,-38.921,-25.915,-21.867,-7.758,-13.219,-0.002,0.996,-0.119,0.488,0.671,1.068,73.333,168209.000,1.000
-59.474,-34.716,-38.398,-35.044,-20.540,-17.025,0.156,-8.310,-0.003,0.997,-0.117,0.244,0.580,1.099,73.333,168210.000,1.000
-53.857,-29.191,-33.158,-31.077,-16.587,-12.897,3.113,-6.757,-0.003,0.998,-0.119,0.031,0.610,1.129,73.333,168211.000,1.000
-49.269,-24.941,-29.506,-27.891,-15.006,-11.165,-0.277,-9.616,-0.005,0.998,-0.120,-0.214,0.549,1.099,73.333,168212.000,1.000
-46.384,-22.600,-27.801,-26.065,-15.792,-12.134,-8.411,-16.271,-0.004,0.998,-0.115,-0.458,0.458,1.190,73.333,168213.000,1.000
-44.916,-21.653,-27.416,-25.482,-17.762,-14.428,-17.633,-24.449,0.000,0.995,-0.118,-0.671,0.336,1.434,73.333,168214.000,1.000
-44.026,-21.114,-27.402,-25.615,-19.369,-16.180,-24.442,-31.592,0.000,0.992,-0.118,-0.763,0.427,1.587,73.333,168215.000,1.000
-43.447,-20.721,-27.699,-26.455,-20.203,-16.772,-27.688,-36.752,-0.001,0.989,-0.121,-0.885,0.397,1.678,73.333,168216.000,1.000
-43.733,-21.132,-29.112,-28.499,-21.044,-17.129,-28.813,-40.447,-0.003,0.986,-0.119,-1.129,0.427,1.740,73.333,168217.000,1.000
-45.495,-22.832,-32.167,-31.864,-22.702,-18.384,-29.760,-43.197,-0.005,0.987,-0.119,-1.221,0.519,1.617,73.333,168218.000,1.000
-48.522,-25.341,-36.230,-35.695,-25.057,-20.550,-31.091,-44.801,-0.009,0.987,-0.117,-1.312,0.366,1.495,73.333,168219.000,1.000
-51.741,-27.520,-39.817,-38.613,-27.221,-22.515,-31.840,-44.625,-0.010,0.985,-0.116,-1.312,0.183,1.373,73.333,168220.000,1.000
-54.098,-28.632,-41.802,-39.808,-28.494,-23.225,-30.796,-42.385,-0.010,0.984,-0.116,-1.434,0.000,1.282,73.333,168221.000,1.000
-55.105,-28.838,-42.023,-39.394,-28.701,-22.391,-27.749,-38.488,-0.010,0.984,-0.117,-1.465,-0.183,1.190,73.333,168222.000,1.000
-54.814,-28.621,-40.981,-37.991,-27.961,-20.293,-23.217,-33.729,-0.011,0.984,-0.116,-1.556,-0.336,1.068,73.333,168223.000,1.000
-53.617,-28.333,-39.350,-36.228,-26.518,-17.684,-18.033,-28.979,-0.009,0.987,-0.115,-1.678,-0.397,0.977,73.333,168224.000,1.000
-52.144,-28.211,-37.736,-34.635,-24.894,-15.718,-13.612,-25.210,-0.009,0.986,-0.114,-1.801,-0.610,0.946,73.333,168225.000,1.000
-51.194,-28.456,-36.640,-33.709,-23.955,-15.448,-11.823,-23.518,-0.007,0.985,-0.112,-2.045,-0.671,0.946,73.333,168226.000,1.000
-51.317,-29.175,-36.243,-33.597,-24.272,-17.071,-13.705,-24.474,-0.005,0.984,-0.114,-2.106,-0.702,0.793,73.333,168227.000,1.000
-52.682,-30.428,-36.510,-34.054,-25.800,-19.917,-18.206,-27.547,-0.004,0.984,-0.119,-2.136,-0.793,0.824,73.333,168228.000,1.000
-55.292,-32.477,-37.546,-34.875,-28.189,-23.228,-22.981,-31.487,-0.005,0.982,-0.118,-2.228,-0.854,0.946,73.333,168229.000,1.000
-58.741,-35.313,-39.323,-35.870,-30.824,-26.285,-25.888,-34.874,-0.005,0.978,-0.122,-2.289,-0.977,0.793,73.333,168230.000,1.000
-61.834,-38.006,-41.090,-36.427,-32.668,-28.108,-25.793,-36.437,-0.003,0.978,-0.118,-2.258,-1.007,0.824,73.333,168231.000,1.000
-63.130,-39.283,-41.653,-35.673,-32.630,-28.008,-22.921,-35.368,-0.004,0.975,-0.118,-2.136,-1.099,1.038,73.333,168232.000,1.000
-62.433,-38.931,-40.741,-33.592,-30.747,-26.620,-18.804,-31.889,-0.004,0.974,-0.119,-2.075,-1.129,1.099,73.333,168233.000,1.000
-61.191,-38.399,-39.660,-31.606,-28.786,-25.984,-16.412,-28.103,-0.004,0.974,-0.121,-1.984,-1.160,1.099,73.333,168234.000,1.000
-61.007,-39.451,-40.051,-31.491,-29.021,-27.979,-18.814,-27.454,-0.004,0.974,-0.122,-1.892,-1.068,1.160,73.333,168235.000,1.000
-61.919,-42.221,-42.077,-33.654,-32.196,-32.490,-26.375,-31.979,-0.002,0.974,-0.121,-1.648,-1.007,1.251,73.333,168236.000,1.000
-62.377,-45.053,-44.157,-36.699,-36.828,-37.366,-36.237,-40.374,-0.001,0.974,-0.121,-1.526,-1.038,1.251,73.333,168237.000,1.000
-61.070,-46.157,-44.688,-38.915,-40.720,-40.361,-44.441,-49.269,-0.001,0.972,-0.121,-1.190,-1.129,1.404,73.333,168238.000,1.000
-58.199,-45.021,-43.428,-39.611,-42.510,-40.742,-48.064,-55.473,-0.001,0.972,-0.122,-0.977,-0.977,1.434,73.333,168239.000,1.000
-54.873,-42.183,-41.165,-39.022,-41.905,-39.075,-45.920,-57.032,-0.003,0.975,-0.122,-0.885,-0.946,1.434,73.333,168240.000,1.000
-51.938,-38.519,-38.830,-37.687,-39.480,-36.390,-39.008,-53.924,-0.001,0.975,-0.121,-0.702,-0.977,1.404,73.333,168241.000,1.000
-49.578,-35.053,-37.089,-36.224,-36.465,-33.814,-30.910,-48.490,-0.004,0.974,-0.120,-0.458,-0.977,1.556,73.333,168242.000,1.000
-47.951,-32.969,-36.621,-35.586,-34.598,-32.517,-26.097,-44.466,-0.006,0.977,-0.115,-0.305,-1.068,1.556,73.333,168243.000,1.000
-47.275,-33.109,-37.876,-36.549,-35.152,-33.136,-26.870,-44.459,-0.004,0.977,-0.118,-0.214,-1.038,1.556,73.333,168244.000,1.000
-47.093,-35.016,-40.249,-38.673,-37.681,-34.963,-31.697,-47.915,-0.003,0.978,-0.116,-0.092,-1.068,1.556,73.333,168245.000,1.000
-46.610,-37.262,-42.500,-40.692,-40.566,-36.549,-36.917,-52.114,-0.003,0.978,-0.118,0.031,-1.038,1.648,73.333,168246.000,1.000
-45.784,-38.929,-44.078,-41.944,-42.789,-37.275,-40.171,-55.072,-0.002,0.977,-0.118,0.214,-1.099,1.495,73.333,168247.000,1.000
-45.632,-40.278,-45.642,-43.071,-44.881,-37.912,-41.747,-57.122,-0.003,0.978,-0.117,0.305,-1.068,1.556,73.333,168248.000,1.000
-47.234,-42.149,-48.144,-45.156,-47.953,-39.629,-43.334,-59.714,-0.004,0.979,-0.114,0.366,-0.977,1.434,73.333,168249.000,1.000
-50.579,-44.837,-51.606,-48.398,-52.065,-42.602,-45.783,-63.151,-0.003,0.980,-0.113,0.458,-0.946,1.404,73.333,168250.000,1.000
-54.538,-47.771,-55.058,-51.892,-55.977,-45.862,-48.183,-66.131,-0.001,0.983,-0.114,0.488,-1.007,1.373,73.333,168251.000,1.000
-57.372,-49.866,-57.056,-54.126,-57.902,-47.908,-48.841,-66.909,0.001,0.984,-0.117,0.397,-1.038,1.251,73.333,168252.000,1.000
-57.214,-49.696,-56.123,-53.538,-56.381,-47.213,-46.455,-64.448,0.000,0.984,-0.116,0.519,-0.946,1.251,73.333,168253.000,1.000
-53.051,-46.327,-51.650,-49.435,-51.258,-43.206,-41.345,-59.221,-0.001,0.984,-0.117,0.488,-0.946,1.221,73.333,168254.000,1.000
-46.175,-40.694,-45.091,-43.089,-44.439,-37.266,-35.684,-53.293,0.000,0.982,-0.118,0.458,-0.885,1.282,73.333,168255.000,1.000
-40.102,-35.617,-39.686,-37.516,-39.242,-32.238,-31.998,-49.214,0.000,0.984,-0.118,0.519,-0.824,1.251,73.333,168256.000,1.000
-37.948,-33.715,-38.031,-35.233,-38.047,-30.478,-31.507,-48.311,0.002,0.982,-0.116,0.519,-0.763,1.251,73.333,168257.000,1.000
-40.136,-35.336,-40.158,-36.446,-40.725,-32.266,-33.536,-49.931,0.001,0.981,-0.116,0.488,-0.702,1.251,73.333,168258.000,1.000
-44.634,-38.787,-44.009,-39.434,-45.200,-35.969,-36.340,-52.247,-0.001,0.981,-0.116,0.519,-0.549,1.190,73.333,168259.000,1.000
-48.910,-42.055,-47.286,-42.246,-49.163,-39.489,-38.264,-53.666,-0.001,0.980,-0.114,0.549,-0.610,1.099,73.333,168260.000,1.000
-51.610,-44.103,-48.890,-43.956,-51.403,-41.579,-38.378,-53.709,-0.004,0.983,-0.114,0.580,-0.580,0.977,73.333,168261.000,1.000
-52.902,-45.128,-49.170,-44.780,-51.978,-42.132,-36.860,-52.968,-0.002,0.980,-0.116,0.702,-0.610,1.038,73.333,168262.000,1.000
-54.075,-46.160,-49.484,-45.733,-52.011,-42.016,-35.078,-52.711,-0.002,0.983,-0.114,0.702,-0.549,1.038,73.333,168263.000,1.000
-56.245,-48.010,-50.928,-47.626,-52.714,-42.336,-34.920,-54.092,-0.004,0.982,-0.114,0.732,-0.549,0.977,73.333,168264.000,1.000
-59.024,-50.105,-53.052,-50.052,-54.144,-43.356,-37.164,-57.202,-0.003,0.983,-0.115,0.732,-0.458,0.946,73.333,168265.000,1.000
-61.159,-51.121,-54.585,-51.952,-55.533,-44.644,-40.841,-61.184,-0.004,0.983,-0.113,0.702,-0.366,1.007,73.333,168266.000,1.000
-62.028,-50.524,-54.944,-52.741,-56.247,-45.762,-44.118,-64.795,-0.005,0.981,-0.113,0.793,-0.366,0.946,73.333,168267.000,1.000
-62.103,-48.804,-54.645,-52.658,-56.220,-46.259,-45.208,-66.940,-0.002,0.981,-0.112,0.793,-0.458,0.916,73.333,168268.000,1.000
-62.443,-46.993,-54.775,-52.497,-55.986,-45.822,-43.632,-67.385,-0.003,0.981,-0.112,0.763,-0.458,0.977,73.333,168269.000,1.000
-63.702,-45.886,-55.984,-52.875,-56.221,-44.536,-40.704,-66.666,-0.004,0.981,-0.116,0.824,-0.427,0.916,73.333,168270.000,1.000
-65.543,-45.444,-57.811,-53.599,-57.100,-42.755,-38.416,-65.359,-0.003,0.980,-0.115,0.793,-0.397,0.977,73.333,168271.000,1.000
-67.127,-45.282,-59.246,-53.991,-58.269,-41.054,-37.995,-63.818,-0.002,0.981,-0.116,0.793,-0.336,1.007,73.333,168272.000,1.000
-68.033,-45.329,-59.810,-53.717,-59.390,-40.112,-39.080,-62.264,-0.001,0.980,-0.117,0.885,-0.244,1.190,73.333,168273.000,1.000
-68.186,-45.595,-59.533,-52.788,-60.181,-40.237,-40.510,-60.706,0.000,0.981,-0.118,0.885,-0.305,1.312,73.333,168274.000,1.000
-67.347,-45.643,-58.286,-51.129,-60.172,-41.026,-41.556,-58.932,-0.003,0.982,-0.117,0.946,-0.366,1.282,73.333,168275.000,1.000
-65.311,-44.865,-55.871,-48.752,-58.997,-41.736,-42.130,-56.832,-0.002,0.983,-0.114,0.916,-0.366,1.251,73.333,168276.000,1.000
-62.254,-43.143,-52.487,-46.039,-56.787,-41.878,-42.538,-54.572,-0.004,0.983,-0.111,0.977,-0.366,1.312,73.333,168277.000,1.000
-58.588,-40.774,-48.674,-43.468,-54.051,-41.297,-42.858,-52.359,-0.004,0.984,-0.114,0.885,-0.244,1.343,73.333,168278.000,1.000
-54.557,-38.059,-44.770,-41.057,-51.043,-39.939,-42.549,-50.116,-0.002,0.983,-0.113,0.946,-0.244,1.343,73.333,168279.000,1.000
-50.602,-35.508,-41.097,-38.656,-47.872,-38.150,-40.975,-47.679,-0.004,0.982,-0.114,0.946,-0.244,1.343,73.333,168280.000,1.000
-47.699,-33.991,-38.390,-36.588,-45.081,-36.879,-38.333,-45.292,-0.003,0.983,-0.115,0.916,-0.244,1.404,73.333,168281.000,1.000
-45.868,-33.355,-36.592,-34.807,-42.688,-36.248,-35.343,-43.119,-0.004,0.984,-0.116,0.885,-0.153,1.282,73.333,168282.000,1.000
-43.229,-31.509,-33.976,-32.106,-39.343,-34.475,-31.917,-40.431,-0.003,0.983,-0.112,0.916,-0.153,1.282,73.333,168283.000,1.000
-38.224,-26.851,-29.170,-27.590,-33.991,-30.051,-27.701,-36.507,-0.004,0.983,-0.114,0.824,-0.183,1.282,73.333,168284.000,1.000
-32.196,-20.923,-23.532,-22.537,-28.026,-24.396,-23.669,-32.370,-0.004,0.983,-0.113,0.793,-0.153,1.282,73.333,168285.000,1.000
-28.532,-17.297,-20.307,-19.733,-24.676,-21.038,-22.095,-30.656,-0.003,0.983,-0.113,0.763,-0.153,1.282,73.333,168286.000,1.000
-29.456,-18.310,-21.614,-20.986,-26.153,-22.446,-24.848,-33.200,-0.003,0.984,-0.114,0.671,-0.275,1.251,73.333,168287.000,1.000
-34.387,-23.304,-26.893,-25.860,-31.880,-27.996,-31.147,-39.152,-0.003,0.985,-0.116,0.610,-0.366,1.312,73.333,168288.000,1.000
-40.590,-29.361,-33.535,-32.158,-38.904,-34.427,-37.430,-45.599,-0.005,0.984,-0.113,0.580,-0.366,1.190,73.333,168289.000,1.000
-44.828,-33.178,-38.426,-37.163,-43.775,-38.080,-40.038,-49.597,-0.006,0.984,-0.114,0.519,-0.366,1.251,73.333,168290.000,1.000
-45.083,-32.880,-39.589,-39.112,-44.681,-37.338,-38.122,-49.934,-0.003,0.985,-0.114,0.519,-0.458,1.312,73.333,168291.000,1.000
-41.416,-28.827,-37.039,-38.058,-42.201,-33.197,-33.872,-47.702,-0.002,0.986,-0.113,0.458,-0.458,1.312,73.333,168292.000,1.000
-35.683,-22.963,-32.378,-35.443,-38.364,-27.877,-30.132,-45.163,-0.003,0.986,-0.113,0.427,-0.519,1.312,73.333,168293.000,1.000
-30.253,-17.529,-27.503,-32.734,-34.936,-23.293,-28.335,-43.771,-0.004,0.985,-0.115,0.397,-0.519,1.343,73.333,168294.000,1.000
-26.980,-14.267,-23.909,-30.827,-32.717,-20.624,-28.295,-43.662,-0.004,0.982,-0.114,0.214,-0.641,1.404,73.333,168295.000,1.000
-26.951,-14.116,-22.746,-30.366,-31.985,-20.441,-29.428,-44.688,-0.005,0.983,-0.116,0.183,-0.702,1.404,73.333,168296.000,1.000
-29.830,-16.553,-24.068,-31.229,-32.248,-22.209,-31.381,-46.446,-0.005,0.984,-0.120,0.092,-0.824,1.404,73.333,168297.000,1.000
-33.654,-19.438,-26.271,-32.049,-32.053,-24.197,-33.151,-47.520,-0.003,0.985,-0.117,-0.031,-0.946,1.373,73.333,168298.000,1.000
-35.716,-20.214,-26.875,-30.918,-29.735,-24.333,-32.988,-45.839,-0.003,0.987,-0.118,-0.122,-1.038,1.343,73.333,168299.000,1.000
-33.730,-17.026,-23.779,-26.545,-24.336,-20.834,-29.549,-40.210,-0.003,0.986,-0.116,-0.183,-1.007,1.404,73.333,168300.000,1.000
-27.654,-10.109,-17.045,-19.647,-16.834,-13.497,-23.393,-32.157,-0.004,0.985,-0.117,-0.275,-1.129,1.434,73.333,168301.000,1.000
-20.690,-2.639,-9.740,-13.269,-10.437,-4.944,-17.391,-25.656,-0.002,0.984,-0.115,-0.275,-1.221,1.495,73.333,168302.000,1.000
-16.955,1.555,-5.613,-10.527,-8.269,1.017,-14.470,-23.884,-0.002,0.984,-0.117,-0.366,-1.221,1.373,73.333,168303.000,1.000
-18.201,0.916,-6.069,-12.073,-10.787,2.167,-15.447,-26.718,-0.005,0.986,-0.120,-0.458,-1.343,1.221,73.333,168304.000,1.000
-23.396,-3.479,-9.939,-16.204,-15.936,-1.221,-18.979,-31.362,-0.002,0.985,-0.119,-0.549,-1.404,1.251,73.333,168305.000,1.000
-30.046,-9.056,-14.832,-20.442,-20.816,-6.946,-22.510,-34.419,-0.003,0.986,-0.121,-0.580,-1.648,1.160,73.333,168306.000,1.000
-35.500,-13.316,-18.443,-22.943,-23.273,-12.327,-24.027,-34.127,-0.002,0.984,-0.118,-0.732,-1.587,1.068,73.333,168307.000,1.000
-38.504,-15.438,-20.003,-23.609,-23.218,-15.912,-23.266,-31.593,-0.002,0.986,-0.118,-0.885,-1.770,1.099,73.333,168308.000,1.000
-39.532,-16.268,-20.369,-23.640,-22.085,-17.579,-20.959,-29.204,-0.003,0.987,-0.121,-1.007,-1.892,1.068,73.333,168309.000,1.000
-39.355,-16.560,-20.391,-23.830,-20.953,-17.394,-17.644,-28.056,-0.002,0.986,-0.117,-1.221,-1.984,0.916,73.333,168310.000,1.000
-37.969,-16.000,-19.863,-23.852,-19.921,-15.369,-14.172,-27.785,-0.003,0.985,-0.118,-1.251,-1.984,0.854,73.333,168311.000,1.000
-35.053,-14.033,-18.165,-23.030,-18.841,-12.121,-12.471,-28.011,-0.003,0.984,-0.120,-1.343,-2.075,0.824,73.333,168312.000,1.000
-31.236,-11.046,-15.653,-21.573,-18.255,-9.297,-14.505,-29.159,-0.002,0.980,-0.119,-1.312,-2.106,0.854,73.333,168313.000,1.000
-28.144,-8.494,-13.861,-20.651,-19.269,-8.939,-20.954,-32.072,-0.002,0.979,-0.121,-1.312,-2.136,0.702,73.333,168314.000,1.000
-26.888,-7.624,-14.088,-21.116,-22.292,-11.836,-30.214,-36.711,-0.002,0.978,-0.121,-1.373,-2.136,0.519,73.333,168315.000,1.000
-27.538,-8.872,-16.632,-22.921,-26.621,-17.152,-38.493,-41.441,0.001,0.979,-0.121,-1.343,-2.258,0.549,73.333,168316.000,1.000
-30.496,-13.064,-21.827,-26.220,-31.893,-24.309,-42.797,-44.631,0.000,0.979,-0.121,-1.312,-2.258,0.549,73.333,168317.000,1.000
-36.884,-21.458,-30.405,-31.856,-38.983,-33.800,-44.051,-46.804,0.001,0.983,-0.115,-1.404,-2.319,0.610,73.333,168318.000,1.000
-45.819,-32.818,-41.069,-39.210,-47.593,-44.510,-45.637,-49.463,0.001,0.983,-0.116,-1.404,-2.319,0.671,73.333,168319.000,1.000
-52.863,-41.895,-49.125,-44.736,-54.111,-51.756,-48.546,-52.028,0.003,0.982,-0.117,-1.495,-2.258,0.671,73.333,168320.000,1.000
-53.627,-43.432,-50.085,-44.790,-54.410,-50.837,-50.146,-52.139,0.002,0.983,-0.116,-1.526,-2.167,0.580,73.333,168321.000,1.000
-47.707,-36.910,-43.637,-39.076,-47.858,-41.899,-47.929,-48.581,0.002,0.982,-0.116,-1.587,-2.228,0.519,73.333,168322.000,1.000
-38.230,-26.243,-33.220,-30.504,-37.554,-29.868,-42.268,-42.587,0.000,0.983,-0.117,-1.587,-2.167,0.610,73.333,168323.000,1.000
-29.031,-16.413,-23.119,-22.717,-27.753,-20.532,-35.797,-36.746,0.000,0.984,-0.121,-1.648,-2.136,0.641,73.333,168324.000,1.000
-22.579,-10.631,-16.142,-18.001,-21.406,-17.006,-31.111,-33.134,0.000,0.982,-0.121,-1.740,-2.136,0.610,73.333,168325.000,1.000
-19.212,-9.117,-12.632,-16.443,-18.930,-18.528,-28.778,-32.041,0.002,0.983,-0.116,-1.740,-2.014,0.610,73.333,168326.000,1.000
-17.269,-9.380,-10.633,-16.126,-18.125,-21.290,-26.967,-31.709,0.002,0.982,-0.116,-1.831,-2.014,0.671,73.333,168327.000,1.000
-14.895,-8.403,-7.922,-14.993,-16.321,-21.451,-23.523,-30.178,0.004,0.980,-0.116,-1.770,-1.892,0.702,73.333,168328.000,1.000
-12.186,-5.485,-4.412,-13.033,-13.187,-18.538,-19.063,-27.777,0.003,0.980,-0.118,-1.801,-1.831,0.763,73.333,168329.000,1.000
-10.777,-2.263,-1.795,-11.925,-10.615,-15.267,-16.554,-26.592,0.004,0.982,-0.115,-1.770,-1.709,0.885,73.333,168330.000,1.000
-11.906,-0.589,-1.478,-13.084,-10.555,-14.598,-18.165,-28.338,0.002,0.985,-0.116,-1.801,-1.587,0.854,73.333,168331.000,1.000
-14.670,-0.447,-2.747,-15.862,-12.785,-16.693,-23.033,-32.813,0.002,0.986,-0.116,-1.862,-1.526,0.854,73.333,168332.000,1.000
-15.312,1.297,-2.032,-16.782,-13.798,-17.473,-26.511,-36.700,0.000,0.989,-0.111,-1.923,-1.373,0.824,73.333,168333.000,1.000
-10.077,8.138,4.188,-12.212,-9.593,-12.091,-23.459,-35.562,-0.002,0.987,-0.115,-2.136,-1.343,0.732,73.333,168334.000,1.000
-0.335,18.568,14.346,-3.180,-1.018,-1.228,-14.080,-28.998,0.000,0.985,-0.116,-2.319,-1.221,0.702,73.333,168335.000,1.000
7.301,25.915,21.819,4.419,5.816,8.266,-4.769,-21.926,-0.001,0.983,-0.117,-2.411,-1.190,0.732,73.333,168336.000,1.000
7.780,25.263,21.719,5.899,6.105,10.390,-1.766,-19.045,0.000,0.979,-0.115,-2.380,-1.129,0.671,73.333,168337.000,1.000
2.433,18.439,15.549,2.109,1.024,5.547,-5.357,-20.168,-0.001,0.981,-0.117,-2.319,-1.068,0.641,73.333,168338.000,1.000
-4.448,10.268,7.687,-3.531,-5.631,-2.346,-12.371,-23.050,0.000,0.983,-0.118,-2.380,-0.977,0.610,73.333,168339.000,1.000
-10.893,2.918,0.112,-9.601,-12.452,-11.155,-21.290,-27.770,0.003,0.984,-0.117,-2.380,-0.854,0.488,73.333,168340.000,1.000
-16.700,-3.485,-7.012,-15.977,-19.528,-20.166,-31.346,-34.961,0.004,0.984,-0.116,-2.380,-0.793,0.519,73.333,168341.000,1.000
-20.276,-7.547,-12.100,-20.875,-25.036,-26.984,-39.237,-42.033,0.004,0.982,-0.114,-2.441,-0.641,0.549,73.333,168342.000,1.000
-19.744,-7.523,-13.129,-22.003,-26.485,-28.795,-40.930,-45.006,0.004,0.979,-0.113,-2.441,-0.610,0.549,73.333,168343.000,1.000
-15.913,-4.380,-10.650,-19.599,-24.163,-26.003,-36.428,-43.082,0.004,0.975,-0.114,-2.411,-0.610,0.671,73.333,168344.000,1.000
-11.226,-0.788,-6.940,-15.757,-20.442,-21.484,-29.303,-38.519,0.003,0.975,-0.117,-2.289,-0.336,0.641,73.333,168345.000,1.000
-7.193,1.607,-3.555,-12.053,-17.119,-17.651,-22.732,-33.599,0.002,0.974,-0.115,-2.014,-0.153,0.916,73.333,168346.000,1.000
-4.837,1.795,-1.637,-9.716,-15.541,-16.469,-19.297,-30.274,0.004,0.973,-0.116,-1.923,-0.122,0.854,73.333,168347.000,1.000
-5.812,-1.432,-2.799,-10.529,-17.519,-19.897,-21.904,-30.941,0.001,0.976,-0.119,-1.770,0.000,0.885,73.333,168348.000,1.000
-10.835,-7.984,-7.630,-15.367,-23.615,-27.884,-31.284,-36.690,0.000,0.980,-0.121,-1.587,0.183,1.038,73.333,168349.000,1.000
-17.820,-15.100,-14.010,-22.245,-31.142,-36.728,-43.231,-44.897,0.000,0.983,-0.117,-1.434,0.305,1.068,73.333,168350.000,1.000
-22.896,-18.776,-18.133,-27.083,-35.392,-40.961,-50.608,-50.285,0.001,0.983,-0.114,-1.465,0.427,1.099,73.333,168351.000,1.000
-23.493,-17.033,-17.522,-26.844,-33.313,-37.655,-48.878,-49.018,-0.002,0.986,-0.113,-1.434,0.366,1.038,73.333,168352.000,1.000
-20.645,-11.756,-13.266,-22.162,-26.237,-29.092,-39.130,-41.665,-0.002,0.987,-0.113,-1.404,0.366,1.190,73.333,168353.000,1.000
-17.999,-7.191,-9.106,-16.775,-18.788,-20.930,-26.676,-32.440,-0.003,0.988,-0.111,-1.373,0.519,1.160,73.333,168354.000,1.000
-18.363,-6.320,-8.141,-14.359,-15.208,-17.583,-17.602,-26.172,-0.006,0.989,-0.113,-1.526,0.519,1.068,73.333,168355.000,1.000
-21.178,-8.538,-10.341,-15.742,-16.463,-19.111,-15.368,-25.398,-0.009,0.991,-0.113,-1.587,0.519,1.129,73.333,168356.000,1.000
-23.194,-10.742,-12.951,-18.666,-20.081,-22.021,-19.054,-28.956,-0.010,0.991,-0.109,-1.709,0.366,0.946,73.333,168357.000,1.000
-22.247,-10.982,-13.851,-20.695,-23.271,-23.399,-25.180,-33.816,-0.012,0.992,-0.108,-1.862,0.183,0.793,73.333,168358.000,1.000
-19.797,-10.631,-13.945,-21.790,-25.705,-23.832,-31.479,-38.439,-0.014,0.989,-0.109,-1.953,0.092,0.580,73.333,168359.000,1.000
-18.650,-11.875,-15.133,-23.084,-28.195,-25.182,-37.205,-42.894,-0.013,0.985,-0.111,-2.045,-0.031,0.336,73.333,168360.000,1.000
-19.568,-14.440,-17.428,-24.577,-30.279,-27.224,-40.994,-46.613,-0.016,0.988,-0.109,-2.014,-0.244,0.153,73.333,168361.000,1.000
-21.337,-16.372,-19.417,-25.399,-30.772,-28.346,-41.419,-48.316,-0.014,0.990,-0.108,-2.136,-0.397,0.092,73.333,168362.000,1.000
-22.984,-16.752,-20.415,-25.373,-29.754,-28.190,-38.970,-47.860,-0.011,0.989,-0.109,-2.075,-0.580,0.183,73.333,168363.000,1.000
-23.790,-15.830,-20.261,-24.520,-27.974,-27.452,-35.494,-46.022,-0.010,0.987,-0.104,-2.197,-0.793,0.031,73.333,168364.000,1.000
-22.132,-13.368,-17.969,-21.799,-25.103,-26.014,-31.964,-42.836,-0.010,0.984,-0.106,-2.258,-0.732,0.122,73.333,168365.000,1.000
-17.138,-9.321,-13.052,-16.575,-20.788,-23.663,-28.535,-38.374,-0.009,0.983,-0.104,-2.228,-0.732,0.244,73.333,168366.000,1.000
-10.171,-4.692,-6.673,-9.884,-15.687,-20.873,-25.395,-33.654,-0.008,0.984,-0.106,-2.289,-0.824,0.336,73.333,168367.000,1.000
-3.325,-0.225,-0.236,-3.195,-10.471,-17.778,-22.357,-29.537,-0.010,0.983,-0.104,-2.167,-0.946,0.458,73.333,168368.000,1.000
1.966,3.761,5.427,2.483,-5.649,-14.591,-19.631,-26.356,-0.010,0.983,-0.104,-2.197,-1.190,0.610,73.333,168369.000,1.000
5.014,6.598,9.598,6.393,-2.127,-12.422,-18.287,-24.321,-0.009,0.982,-0.103,-2.106,-1.129,0.702,73.333,168370.000,1.000
5.191,6.999,10.994,7.466,-1.502,-12.987,-19.749,-24.276,-0.008,0.980,-0.102,-2.075,-1.251,0.824,73.333,168371.000,1.000
1.705,3.580,8.089,4.475,-5.393,-17.704,-25.393,-27.891,-0.008,0.979,-0.103,-1.953,-1.190,0.946,73.333,168372.000,1.000
-4.725,-3.015,1.365,-2.071,-13.141,-25.604,-34.321,-35.228,-0.007,0.979,-0.104,-1.923,-1.221,1.129,73.333,168373.000,1.000
-11.231,-9.697,-5.980,-9.272,-21.219,-33.191,-42.731,-43.458,-0.005,0.979,-0.107,-1.678,-1.251,1.129,73.333,168374.000,1.000
-15.251,-13.685,-10.723,-14.177,-26.156,-37.499,-47.168,-49.401,-0.005,0.977,-0.105,-1.587,-1.221,1.221,73.333,168375.000,1.000
-16.168,-14.089,-11.532,-15.448,-26.588,-37.595,-46.655,-51.508,-0.005,0.978,-0.104,-1.434,-1.160,1.343,73.333,168376.000,1.000
-14.273,-11.053,-8.359,-12.881,-22.571,-33.390,-41.792,-49.377,-0.003,0.976,-0.104,-1.282,-1.038,1.312,73.333,168377.000,1.000
-10.107,-5.185,-2.005,-7.122,-15.038,-25.259,-33.575,-43.408,-0.003,0.976,-0.105,-1.282,-1.068,1.465,73.333,168378.000,1.000
-5.611,1.346,4.965,-0.507,-6.647,-15.652,-24.226,-35.755,-0.002,0.976,-0.099,-0.977,-0.977,1.465,73.333,168379.000,1.000
-4.704,4.383,8.102,2.803,-1.969,-9.646,-17.994,-30.637,-0.002,0.975,-0.102,-0.793,-0.824,1.495,73.333,168380.000,1.000
-10.123,1.017,4.369,-0.214,-4.270,-11.197,-18.225,-31.341,-0.003,0.974,-0.104,-0.580,-0.671,1.587,73.333,168381.000,1.000
-19.499,-6.719,-4.105,-7.899,-11.737,-18.695,-23.632,-36.656,0.000,0.974,-0.101,-0.366,-0.671,1.648,73.333,168382.000,1.000
-27.138,-13.583,-11.854,-15.431,-19.291,-26.492,-29.683,-42.410,0.000,0.975,-0.100,-0.183,-0.580,1.678,73.333,168383.000,1.000
-28.940,-15.719,-14.793,-19.072,-23.086,-29.789,-32.807,-45.458,-0.002,0.975,-0.102,0.061,-0.397,1.617,73.333,168384.000,1.000
-24.491,-12.482,-12.186,-17.895,-22.084,-27.045,-31.811,-44.796,-0.004,0.976,-0.103,0.183,-0.427,1.648,73.333,168385.000,1.000
-17.286,-6.813,-7.038,-14.133,-18.439,-21.034,-28.311,-41.831,-0.002,0.973,-0.104,0.427,-0.244,1.556,73.333,168386.000,1.000
-12.764,-3.790,-4.455,-11.910,-16.413,-17.515,-26.347,-40.050,0.000,0.972,-0.104,0.641,-0.183,1.526,73.333,168387.000,1.000
-13.242,-5.623,-6.657,-13.088,-18.008,-19.501,-28.134,-41.496,0.001,0.972,-0.107,0.885,0.000,1.587,73.333,168388.000,1.000
-15.872,-9.636,-10.842,-15.447,-20.924,-24.488,-31.856,-44.601,0.002,0.973,-0.107,1.099,0.183,1.526,73.333,168389.000,1.000
-16.870,-12.386,-13.290,-16.214,-22.254,-28.724,-35.164,-46.961,0.005,0.974,-0.104,1.373,0.275,1.526,73.333,168390.000,1.000
-15.238,-12.873,-12.996,-14.972,-21.556,-30.842,-37.618,-47.956,0.006,0.975,-0.105,1.648,0.488,1.556,73.333,168391.000,1.000
-12.053,-11.602,-10.889,-12.632,-19.644,-30.806,-39.254,-47.801,0.007,0.976,-0.105,1.831,0.610,1.556,73.333,168392.000,1.000
-8.954,-9.292,-8.298,-10.139,-17.108,-28.628,-39.244,-46.304,0.006,0.976,-0.105,2.014,0.732,1.678,73.333,168393.000,1.000
-6.803,-6.258,-5.850,-7.883,-13.737,-24.043,-36.082,-42.708,0.004,0.977,-0.103,2.167,0.854,1.740,73.333,168394.000,1.000
-4.871,-2.034,-2.881,-5.373,-8.602,-16.440,-28.310,-36.075,0.004,0.977,-0.104,2.350,1.038,1.801,73.333,168395.000,1.000
-2.735,2.907,0.677,-2.691,-2.256,-6.881,-16.911,-27.339,0.001,0.979,-0.103,2.472,1.221,1.953,73.333,168396.000,1.000
-1.613,6.215,3.065,-1.337,2.297,0.860,-6.601,-20.080,0.001,0.984,-0.104,2.563,1.221,2.045,73.333,168397.000,1.000
-2.762,5.845,2.452,-2.668,2.063,3.009,-2.603,-17.782,-0.001,0.990,-0.101,2.533,1.343,2.045,73.333,168398.000,1.000
-6.305,1.400,-1.577,-6.709,-3.661,-1.714,-6.977,-21.406,-0.003,0.993,-0.103,2.380,1.373,2.075,73.333,168399.000,1.000
-10.844,-5.474,-7.374,-11.693,-12.524,-11.174,-17.291,-28.848,-0.003,0.996,-0.103,2.167,1.434,2.014,73.333,168400.000,1.000
-13.237,-10.805,-11.131,-14.189,-19.698,-20.156,-27.733,-35.662,-0.004,0.997,-0.104,1.892,1.282,1.984,73.333,168401.000,1.000
-11.045,-11.172,-9.747,-11.801,-21.343,-24.083,-33.474,-38.203,-0.005,0.995,-0.100,1.709,1.190,1.923,73.333,168402.000,1.000
-5.737,-7.361,-4.329,-6.100,-18.107,-22.913,-33.914,-36.508,-0.008,0.996,-0.101,1.404,1.221,2.075,73.333,168403.000,1.000
-1.437,-3.327,0.989,-1.132,-13.752,-19.943,-31.198,-33.084,-0.007,0.994,-0.104,1.129,1.129,2.014,73.333,168404.000,1.000
-0.713,-1.893,3.334,0.562,-11.084,-17.804,-27.250,-29.861,-0.005,0.990,-0.105,0.946,1.038,2.014,73.333,168405.000,1.000
-2.672,-2.674,3.120,-0.398,-10.164,-16.835,-22.954,-27.126,-0.005,0.991,-0.103,0.702,0.946,2.106,73.333,168406.000,1.000
-4.708,-3.770,2.457,-1.903,-9.699,-16.401,-19.340,-24.821,-0.004,0.995,-0.104,0.549,0.946,2.167,73.333,168407.000,1.000
-5.378,-4.229,2.504,-2.863,-9.209,-16.518,-18.243,-24.174,-0.005,1.002,-0.103,0.458,0.946,2.106,73.333,168408.000,1.000
-4.977,-4.298,3.024,-3.496,-9.020,-17.549,-20.826,-26.782,-0.004,1.006,-0.102,0.153,0.854,1.892,73.333,168409.000,1.000
-4.280,-4.188,3.553,-4.126,-9.060,-19.101,-25.978,-32.297,-0.004,1.008,-0.104,-0.366,0.732,1.953,73.333,168410.000,1.000
-4.081,-3.896,3.649,-5.025,-9.104,-20.358,-31.212,-38.592,-0.002,1.002,-0.104,-0.763,0.732,1.984,73.333,168411.000,1.000
-5.169,-3.746,2.748,-6.573,-9.253,-20.968,-34.398,-43.529,0.003,1.002,-0.102,-1.099,0.580,1.953,73.333,168412.000,1.000
-7.598,-3.880,0.902,-8.512,-9.302,-20.768,-34.082,-45.439,0.003,0.999,-0.104,-1.312,0.671,2.106,73.333,168413.000,1.000
-9.733,-3.238,-0.279,-9.132,-7.851,-18.862,-29.661,-42.827,0.004,0.999,-0.105,-1.587,0.702,2.106,73.333,168414.000,1.000
-9.188,-0.160,1.469,-6.361,-3.140,-13.996,-21.798,-35.108,0.002,0.996,-0.104,-1.770,0.885,2.136,73.333,168415.000,1.000
-5.377,5.435,6.559,-0.176,4.681,-6.438,-12.417,-24.022,-0.002,0.996,-0.104,-2.045,0.793,2.014,73.333,168416.000,1.000
-0.327,11.209,12.667,6.757,12.782,1.157,-4.609,-13.673,-0.005,0.993,-0.105,-2.289,0.793,1.831,73.333,168417.000,1.000
2.607,13.707,16.017,10.566,16.994,4.873,-1.930,-8.831,-0.005,0.990,-0.103,-2.502,0.732,1.587,73.333,168418.000,1.000
1.306,11.030,14.216,8.970,14.875,2.440,-5.972,-11.806,-0.004,0.988,-0.107,-2.563,0.610,1.434,73.333,168419.000,1.000
-2.495,5.571,9.205,3.932,8.784,-3.718,-13.527,-19.710,-0.005,0.985,-0.107,-2.563,0.641,1.282,73.333,168420.000,1.000
-4.676,2.380,5.803,0.156,4.269,-8.039,-18.263,-26.355,-0.004,0.985,-0.106,-2.563,0.519,1.190,73.333,168421.000,1.000
-3.356,3.777,6.610,0.328,4.680,-7.342,-16.607,-27.689,-0.002,0.984,-0.107,-2.563,0.397,0.977,73.333,168422.000,1.000
-0.351,7.587,10.035,3.258,8.767,-3.144,-10.254,-24.318,0.000,0.984,-0.108,-2.533,0.275,0.885,73.333,168423.000,1.000
1.803,10.503,13.177,6.408,13.346,1.246,-3.201,-19.276,0.001,0.985,-0.106,-2.686,0.336,0.824,73.333,168424.000,1.000
2.496,11.423,14.849,8.565,16.545,4.119,2.004,-14.878,0.000,0.984,-0.104,-2.686,0.397,0.885,73.333,168425.000,1.000
2.653,11.395,15.626,9.932,18.270,5.731,5.072,-11.825,0.000,0.984,-0.104,-2.716,0.366,0.854,73.333,168426.000,1.000
3.159,11.698,16.378,10.979,19.069,6.748,6.401,-10.027,0.000,0.983,-0.103,-2.777,0.397,0.916,73.333,168427.000,1.000
4.015,12.611,17.236,11.656,19.129,7.148,5.906,-9.475,-0.004,0.983,-0.104,-2.777,0.336,0.885,73.333,168428.000,1.000
4.597,13.459,17.625,11.497,18.226,6.395,3.290,-10.347,-0.005,0.982,-0.105,-2.777,0.305,0.885,73.333,168429.000,1.000
4.237,13.339,16.890,10.127,16.208,4.282,-1.041,-12.630,-0.001,0.982,-0.105,-2.838,0.336,1.068,73.333,168430.000,1.000
2.584,11.776,14.824,7.614,13.258,1.402,-5.842,-15.968,0.000,0.983,-0.103,-2.777,0.214,1.129,73.333,168431.000,1.000
0.331,9.394,12.298,4.936,10.325,-0.716,-9.414,-19.332,-0.002,0.984,-0.105,-2.655,0.122,1.129,73.333,168432.000,1.000
-0.714,8.075,11.175,3.888,9.069,-0.169,-9.734,-20.823,-0.005,0.985,-0.105,-2.747,0.122,1.221,73.333,168433.000,1.000
1.022,9.579,12.934,5.874,10.716,3.798,-5.485,-18.669,-0.005,0.985,-0.104,-2.747,0.061,1.343,73.333,168434.000,1.000
5.363,13.874,17.215,10.572,14.890,9.893,2.651,-12.626,-0.005,0.984,-0.103,-2.838,-0.061,1.343,73.333,168435.000,1.000
10.055,18.766,21.620,15.649,19.383,15.286,11.732,-4.714,-0.005,0.984,-0.100,-2.777,-0.092,1.465,73.333,168436.000,1.000
12.158,21.169,23.200,18.083,21.291,17.029,17.451,1.291,-0.006,0.982,-0.101,-2.808,-0.153,1.465,73.333,168437.000,1.000
10.168,19.284,20.595,16.247,18.920,13.853,16.901,2.124,-0.005,0.980,-0.101,-2.838,-0.214,1.434,73.333,168438.000,1.000
5.129,13.862,14.981,11.046,13.007,7.190,10.828,-2.587,-0.005,0.979,-0.104,-2.655,-0.244,1.465,73.333,168439.000,1.000
-0.314,7.468,8.999,4.999,5.959,0.192,2.385,-10.616,-0.004,0.980,-0.106,-2.563,-0.214,1.465,73.333,168440.000,1.000
-4.231,2.346,4.597,0.127,-0.140,-4.675,-5.741,-19.368,-0.002,0.982,-0.101,-2.502,-0.336,1.587,73.333,168441.000,1.000
-6.574,-1.014,2.018,-3.023,-4.458,-7.059,-12.316,-26.860,0.000,0.980,-0.103,-2.319,-0.366,1.556,73.333,168442.000,1.000
-8.278,-3.157,0.581,-4.695,-6.933,-7.942,-16.491,-31.462,0.001,0.978,-0.102,-2.167,-0.397,1.495,73.333,168443.000,1.000
-9.635,-4.216,0.041,-4.910,-7.436,-7.886,-17.372,-32.170,0.003,0.978,-0.105,-2.014,-0.458,1.587,73.333,168444.000,1.000
-10.012,-3.818,0.786,-3.538,-5.890,-6.760,-15.051,-29.413,0.000,0.976,-0.107,-1.862,-0.488,1.587,73.333,168445.000,1.000
-9.018,-2.201,2.823,-1.051,-3.057,-5.037,-11.211,-25.065,0.000,0.975,-0.107,-1.556,-0.427,1.587,73.333,168446.000,1.000
-6.844,-0.230,5.647,1.732,-0.056,-3.654,-7.769,-20.986,0.002,0.973,-0.106,-1.343,-0.305,1.648,73.333,168447.000,1.000
-3.929,1.607,8.790,4.281,2.532,-2.694,-5.178,-17.956,0.003,0.972,-0.105,-1.068,-0.336,1.709,73.333,168448.000,1.000
-1.209,3.005,11.537,6.044,4.250,-1.801,-3.218,-16.354,0.005,0.970,-0.104,-0.641,-0.275,1.770,73.333,168449.000,1.000
-0.084,3.219,12.725,6.201,4.225,-1.405,-2.618,-16.869,0.004,0.967,-0.104,-0.275,-0.214,1.801,73.333,168450.000,1.000
-1.355,1.561,11.557,4.373,1.835,-2.399,-4.558,-19.987,0.005,0.966,-0.105,0.214,-0.244,1.678,73.333,168451.000,1.000
-4.128,-1.515,8.674,1.482,-2.071,-4.725,-8.882,-24.791,0.006,0.966,-0.105,0.671,-0.153,1.770,73.333,168452.000,1.000
-6.363,-4.349,5.858,-0.759,-5.445,-7.139,-13.757,-29.001,0.002,0.967,-0.104,1.190,-0.031,1.740,73.333,168453.000,1.000
-6.597,-5.513,4.549,-1.320,-6.746,-8.660,-17.503,-30.788,0.001,0.971,-0.103,1.678,0.061,1.740,73.333,168454.000,1.000
-4.592,-4.678,5.159,-0.291,-5.781,-9.286,-19.570,-29.934,-0.001,0.971,-0.100,2.136,0.031,1.678,73.333,168455.000,1.000
-0.730,-2.177,7.532,1.832,-3.161,-9.265,-19.650,-27.205,0.001,0.977,-0.097,2.472,0.092,1.526,73.333,168456.000,1.000
4.472,1.484,11.336,4.692,0.459,-8.348,-17.171,-23.369,0.001,0.980,-0.096,2.686,0.031,1.556,73.333,168457.000,1.000
10.095,5.657,15.824,7.837,4.428,-5.972,-11.854,-19.029,0.001,0.982,-0.096,2.960,0.031,1.495,73.333,168458.000,1.000
14.684,9.249,19.571,10.406,7.799,-2.389,-4.994,-15.164,0.000,0.985,-0.095,3.021,0.061,1.495,73.333,168459.000,1.000
16.935,11.011,21.078,11.418,9.472,0.742,0.277,-13.266,0.003,0.984,-0.098,3.265,0.061,1.587,73.333,168460.000,1.000
16.574,10.485,19.846,10.461,8.868,1.609,1.071,-14.442,0.003,0.984,-0.098,3.387,0.122,1.678,73.333,168461.000,1.000
14.766,8.583,17.019,8.274,6.705,0.161,-2.745,-18.097,0.003,0.984,-0.094,3.540,0.031,1.770,73.333,168462.000,1.000
13.344,6.980,14.582,6.302,4.560,-1.881,-8.404,-22.134,0.000,0.986,-0.095,3.693,0.061,1.831,73.333,168463.000,1.000
13.317,6.604,13.625,5.390,3.393,-3.030,-12.914,-24.877,0.001,0.985,-0.095,3.815,0.061,1.801,73.333,168464.000,1.000
14.309,7.112,13.764,5.244,2.944,-3.198,-15.166,-26.167,0.000,0.987,-0.091,3.723,0.092,1.801,73.333,168465.000,1.000
15.327,7.702,14.055,5.119,2.519,-3.102,-15.571,-26.702,-0.003,0.990,-0.093,3.693,-0.031,1.801,73.333,168466.000,1.000
15.849,8.015,14.112,4.761,2.017,-3.380,-15.032,-27.029,-0.003,0.992,-0.096,3.571,-0.153,1.770,73.333,168467.000,1.000
16.009,8.332,14.232,4.546,1.979,-4.023,-14.072,-27.116,-0.006,0.995,-0.095,3.479,-0.214,1.770,73.333,168468.000,1.000
16.012,8.970,14.755,4.926,2.880,-4.390,-12.548,-26.581,-0.007,0.997,-0.095,3.204,-0.366,1.801,73.333,168469.000,1.000
15.847,9.837,15.705,6.076,4.698,-3.894,-10.001,-25.066,-0.004,1.000,-0.096,2.960,-0.458,1.801,73.333,168470.000,1.000
15.582,10.722,16.983,7.951,7.060,-2.516,-6.356,-22.581,-0.003,0.999,-0.095,2.686,-0.549,1.770,73.333,168471.000,1.000
15.679,11.749,18.665,10.434,9.584,-0.578,-2.677,-19.784,-0.003,0.996,-0.096,2.350,-0.641,1.770,73.333,168472.000,1.000
16.571,13.227,20.810,13.164,11.836,1.517,-0.731,-17.847,-0.003,0.994,-0.100,1.953,-0.702,1.648,73.333,168473.000,1.000
17.954,14.912,22.991,15.391,13.185,3.181,-1.543,-17.682,-0.004,0.995,-0.101,1.617,-0.824,1.678,73.333,168474.000,1.000
18.888,15.971,24.367,16.353,13.156,4.001,-4.393,-19.031,-0.004,0.993,-0.102,1.343,-0.946,1.587,73.333,168475.000,1.000
18.682,15.822,24.325,15.859,11.921,4.230,-7.255,-20.577,-0.004,0.993,-0.104,1.068,-1.007,1.465,73.333,168476.000,1.000
17.808,14.775,23.185,14.672,10.447,4.465,-8.317,-20.998,-0.004,0.990,-0.104,1.007,-1.129,1.434,73.333,168477.000,1.000
17.523,13.691,21.991,13.954,9.733,4.622,-7.257,-19.976,-0.004,0.980,-0.103,0.793,-1.099,1.282,73.333,168478.000,1.000
18.397,12.886,21.354,14.085,9.754,3.538,-5.735,-18.540,0.001,0.974,-0.106,0.671,-1.099,1.251,73.333,168479.000,1.000
19.733,11.910,20.970,14.406,9.615,0.263,-5.936,-18.168,0.003,0.969,-0.106,0.763,-1.129,1.160,73.333,168480.000,1.000
20.456,10.411,20.284,14.159,8.660,-4.458,-8.141,-19.349,0.006,0.965,-0.109,0.977,-1.038,0.977,73.333,168481.000,1.000
20.304,8.848,19.373,13.450,7.263,-8.306,-10.515,-21.104,0.008,0.965,-0.112,1.190,-1.007,0.946,73.333,168482.000,1.000
19.977,8.367,18.997,13.075,6.469,-8.904,-11.042,-21.887,0.011,0.969,-0.110,1.617,-0.793,0.824,73.333,168483.000,1.000
20.355,9.834,19.839,13.623,7.004,-5.462,-9.286,-21.053,0.011,0.976,-0.108,1.984,-0.641,0.824,73.333,168484.000,1.000
21.776,13.127,21.951,15.032,8.809,0.872,-6.237,-19.292,0.010,0.979,-0.109,2.167,-0.549,0.885,73.333,168485.000,1.000
23.837,17.222,24.767,16.806,11.326,7.924,-2.855,-17.533,0.009,0.980,-0.109,2.258,-0.488,1.190,73.333,168486.000,1.000
25.996,20.994,27.696,18.586,14.253,13.910,0.728,-15.535,0.006,0.984,-0.105,2.350,-0.305,1.465,73.333,168487.000,1.000
28.118,24.050,30.591,20.474,17.822,18.412,5.074,-11.985,0.003,0.987,-0.102,2.228,-0.458,1.556,73.333,168488.000,1.000
30.151,26.523,33.468,22.662,22.167,21.947,10.372,-6.372,0.004,0.992,-0.104,2.075,-0.366,1.617,73.333,168489.000,1.000
31.668,28.496,36.066,24.953,26.692,24.935,15.662,-0.181,0.002,0.992,-0.102,1.923,-0.305,1.587,73.333,168490.000,1.000
32.115,29.929,37.921,26.814,30.305,27.394,19.575,4.289,0.004,0.995,-0.103,1.617,-0.305,1.434,73.333,168491.000,1.000
31.524,30.867,38.853,27.914,32.353,29.327,21.486,5.980,0.003,0.992,-0.109,1.312,-0.275,1.434,73.333,168492.000,1.000
30.591,31.546,39.134,28.409,33.075,31.027,21.996,5.739,0.002,0.981,-0.116,1.007,-0.183,1.373,73.333,168493.000,1.000
30.135,32.200,39.231,28.752,33.296,32.877,22.332,5.408,0.000,0.966,-0.126,1.007,-0.153,1.373,73.333,168494.000,1.000
30.760,32.991,39.618,29.382,33.812,34.948,23.334,6.427,-0.004,0.952,-0.115,1.770,-0.122,1.373,73.333,168495.000,1.000
32.645,33.983,40.585,30.396,34.792,36.791,24.874,8.784,-0.002,0.960,-0.106,2.686,-0.214,1.129,73.333,168496.000,1.000
35.495,35.107,42.195,31.590,35.826,37.777,25.997,11.193,0.004,0.987,-0.095,3.265,-0.305,0.946,73.333,168497.000,1.000
38.670,36.327,44.322,32.696,36.404,37.687,25.874,12.297,0.005,1.017,-0.088,2.869,-0.275,0.732,73.333,168498.000,1.000
41.465,37.606,46.586,33.472,36.236,36.842,24.470,11.610,0.006,1.039,-0.083,1.892,-0.214,0.580,73.333,168499.000,1.000
43.599,38.939,48.584,33.858,35.478,35.891,22.477,9.767,0.002,1.043,-0.086,0.610,-0.183,0.763,73.333,168500.000,1.000
45.356,40.415,50.231,34.093,34.695,35.283,20.767,8.002,0.001,1.025,-0.094,-0.977,-0.336,0.916,73.333,168501.000,1.000
47.261,42.193,51.901,34.702,34.725,35.007,19.954,7.439,0.000,1.000,-0.100,-1.984,-0.366,1.068,73.333,168502.000,1.000
49.486,44.436,54.057,36.149,36.261,34.993,20.657,8.696,0.000,0.979,-0.110,-2.289,-0.519,1.160,73.333,168503.000,1.000
51.540,46.980,56.669,38.367,39.257,35.355,23.374,11.683,0.001,0.971,-0.117,-2.136,-0.488,1.068,73.333,168504.000,1.000
52.831,49.438,59.356,40.893,43.011,36.271,27.970,15.743,-0.001,0.971,-0.120,-1.709,-0.671,0.977,73.333,168505.000,1.000
53.256,51.519,61.765,43.222,46.547,37.613,33.235,19.715,0.000,0.978,-0.117,-1.282,-0.793,0.793,73.333,168506.000,1.000
53.157,52.905,63.559,44.920,48.835,38.737,36.762,22.083,0.001,0.983,-0.114,-1.129,-0.732,0.793,73.333,168507.000,1.000
52.969,53.304,64.479,45.770,49.269,39.060,36.919,22.202,0.003,0.988,-0.108,-1.099,-0.763,0.702,73.333,168508.000,1.000
53.009,52.662,64.600,45.939,48.133,38.498,34.690,21.171,0.000,0.991,-0.107,-1.373,-0.793,0.610,73.333,168509.000,1.000
53.325,51.221,64.263,45.694,46.068,36.970,31.571,20.180,0.000,0.991,-0.107,-1.617,-0.671,0.580,73.333,168510.000,1.000
53.520,49.336,63.656,44.983,43.278,34.094,27.059,18.514,0.000,0.990,-0.110,-1.801,-0.732,0.702,73.333,168511.000,1.000
53.138,47.456,62.914,43.788,40.037,30.040,20.324,14.764,0.002,0.986,-0.112,-1.984,-0.854,0.671,73.333,168512.000,1.000
52.279,46.248,62.437,42.548,37.182,25.977,12.390,8.938,0.001,0.982,-0.110,-1.831,-0.824,0.641,73.333,168513.000,1.000
51.663,46.242,62.734,41.907,35.487,23.096,4.967,2.421,0.001,0.979,-0.110,-1.801,-0.885,0.671,73.333,168514.000,1.000
52.227,47.594,64.206,42.439,35.295,21.964,-0.488,-2.690,0.002,0.978,-0.109,-1.617,-0.854,0.732,73.333,168515.000,1.000
54.429,50.191,66.940,44.437,36.741,22.793,-2.273,-4.236,0.000,0.979,-0.107,-1.465,-0.977,0.824,73.333,168516.000,1.000
57.835,53.684,70.574,47.661,39.749,25.497,0.537,-1.368,0.000,0.981,-0.108,-1.434,-0.977,0.793,73.333,168517.000,1.000
61.188,57.351,74.224,51.144,43.547,29.232,6.474,4.423,-0.003,0.983,-0.109,-1.434,-1.068,0.854,73.333,168518.000,1.000
62.967,60.012,76.642,53.501,46.672,32.471,12.291,10.121,-0.004,0.985,-0.109,-1.465,-1.129,0.854,73.333,168519.000,1.000
62.356,60.758,76.982,53.914,48.111,34.303,15.817,13.613,-0.004,0.989,-0.104,-1.526,-1.068,0.824,73.333,168520.000,1.000
59.661,59.666,75.340,52.697,48.114,35.201,17.747,15.195,-0.003,0.990,-0.103,-1.587,-1.160,0.793,73.333,168521.000,1.000
56.009,57.524,72.567,50.849,47.678,36.091,20.003,16.536,-0.004,0.993,-0.104,-1.770,-1.129,0.854,73.333,168522.000,1.000
52.817,55.278,69.772,49.255,47.498,37.191,23.230,18.617,-0.003,0.991,-0.101,-1.984,-1.282,0.916,73.333,168523.000,1.000
51.179,53.605,67.772,48.292,47.608,37.934,26.369,20.928,-0.001,0.989,-0.102,-2.106,-1.312,0.916,73.333,168524.000,1.000
51.284,52.655,66.686,47.850,47.709,37.724,28.117,22.352,-0.001,0.991,-0.103,-2.136,-1.312,0.946,73.333,168525.000,1.000
52.231,51.996,65.841,47.458,47.367,36.421,28.081,22.207,-0.002,0.996,-0.098,-2.197,-1.343,1.099,73.333,168526.000,1.000
52.824,51.040,64.463,46.800,46.329,34.397,26.750,20.727,0.001,0.998,-0.096,-2.411,-1.404,1.068,73.333,168527.000,1.000
52.642,49.809,62.606,46.221,44.948,32.435,25.179,18.924,0.001,0.996,-0.096,-2.716,-1.404,1.099,73.333,168528.000,1.000
52.146,48.895,61.124,46.422,44.050,31.293,24.276,17.797,0.000,0.994,-0.096,-3.021,-1.312,1.251,73.333,168529.000,1.000
51.858,48.673,60.736,47.615,44.212,31.187,24.162,17.590,0.000,0.990,-0.099,-3.265,-1.282,1.343,73.333,168530.000,1.000
51.617,48.779,61.206,49.097,45.148,31.651,24.339,17.728,-0.001,0.986,-0.103,-3.265,-1.312,1.312,73.333,168531.000,1.000
50.831,48.423,61.567,49.804,45.995,31.914,23.980,17.303,-0.001,0.982,-0.105,-3.235,-1.434,1.343,73.333,168532.000,1.000
49.158,47.108,60.934,49.124,45.976,31.333,22.281,15.629,-0.001,0.979,-0.101,-3.113,-1.343,1.343,73.333,168533.000,1.000
46.820,44.932,59.087,47.276,44.896,29.636,19.040,12.716,-0.001,0.979,-0.105,-2.747,-1.343,1.282,73.333,168534.000,1.000
44.568,42.608,56.666,45.223,43.366,27.294,15.191,9.562,-0.002,0.976,-0.102,-2.655,-1.282,1.221,73.333,168535.000,1.000
43.151,40.994,54.621,43.949,42.232,25.284,12.426,7.496,-0.002,0.979,-0.100,-2.472,-1.282,1.221,73.333,168536.000,1.000
42.794,40.378,53.450,43.756,41.841,24.330,12.027,7.188,0.000,0.982,-0.097,-2.411,-1.343,1.160,73.333,168537.000,1.000
43.209,40.481,53.034,44.274,41.958,24.610,14.381,8.528,0.001,0.981,-0.102,-2.319,-1.343,1.190,73.333,168538.000,1.000
43.897,40.779,52.913,44.932,42.066,25.773,18.731,10.850,0.003,0.983,-0.102,-2.167,-1.221,1.038,73.333,168539.000,1.000
44.512,40.813,52.675,45.334,41.601,26.980,22.794,12.917,0.002,0.984,-0.100,-2.045,-1.190,1.099,73.333,168540.000,1.000
44.889,40.285,52.064,45.186,40.053,27.133,23.539,13.147,0.005,0.981,-0.099,-1.831,-1.160,1.160,73.333,168541.000,1.000
44.860,39.005,50.911,44.227,37.261,25.458,19.275,10.579,0.005,0.980,-0.099,-1.709,-1.007,1.312,73.333,168542.000,1.000
44.125,36.948,49.095,42.289,33.541,22.017,11.062,5.547,0.004,0.977,-0.103,-1.678,-0.885,1.434,73.333,168543.000,1.000
42.351,34.207,46.540,39.352,29.444,17.578,1.879,-0.688,0.004,0.974,-0.104,-1.434,-0.793,1.404,73.333,168544.000,1.000
39.678,31.091,43.478,35.770,25.689,13.343,-4.998,-6.387,0.006,0.973,-0.103,-1.251,-0.702,1.526,73.333,168545.000,1.000
36.916,28.174,40.509,32.350,22.991,10.508,-7.301,-9.857,0.005,0.972,-0.103,-0.916,-0.671,1.556,73.333,168546.000,1.000
35.119,26.009,38.298,30.025,21.680,9.571,-5.145,-10.389,0.004,0.971,-0.103,-0.732,-0.458,1.556,73.333,168547.000,1.000
34.837,24.891,37.193,29.252,21.502,10.109,-0.978,-8.697,0.005,0.977,-0.102,-0.458,-0.397,1.587,73.333,168548.000,1.000
35.706,24.693,37.017,29.703,21.901,11.231,2.434,-6.237,0.006,0.980,-0.102,-0.153,-0.397,1.648,73.333,168549.000,1.000
36.744,24.987,37.280,30.566,22.473,12.209,3.923,-4.092,0.005,0.985,-0.099,-0.031,-0.214,1.617,73.333,168550.000,1.000
36.909,25.229,37.430,30.956,22.970,12.662,4.056,-2.604,0.006,0.988,-0.099,-0.122,-0.122,1.617,73.333,168551.000,1.000
35.692,24.976,37.145,30.320,23.245,12.556,3.945,-1.680,0.006,0.987,-0.099,-0.183,0.061,1.648,73.333,168552.000,1.000
33.367,24.182,36.496,28.732,23.264,12.170,4.125,-1.330,0.003,0.987,-0.098,-0.244,0.092,1.465,73.333,168553.000,1.000
30.666,23.062,35.745,26.782,23.024,11.712,4.121,-1.863,0.003,0.986,-0.101,-0.275,0.183,1.556,73.333,168554.000,1.000
28.382,21.950,35.198,25.235,22.638,11.169,3.179,-3.221,0.001,0.988,-0.101,-0.183,0.153,1.526,73.333,168555.000,1.000
27.002,21.221,35.062,24.560,22.340,10.569,1.268,-4.653,-0.002,0.990,-0.096,-0.092,0.153,1.373,73.333,168556.000,1.000
26.688,21.189,35.421,24.831,22.501,10.295,-0.775,-5.235,-0.004,0.991,-0.095,-0.122,0.153,1.160,73.333,168557.000,1.000
27.466,22.097,36.373,25.945,23.545,11.024,-1.608,-4.396,-0.008,0.995,-0.095,-0.275,0.000,1.038,73.333,168558.000,1.000
29.139,23.854,37.911,27.623,25.582,13.116,-0.372,-2.443,-0.008,0.997,-0.097,-0.488,-0.092,0.977,73.333,168559.000,1.000
31.273,26.044,39.862,29.482,28.298,16.300,2.607,-0.426,-0.009,0.995,-0.094,-0.793,-0.244,0.793,73.333,168560.000,1.000
33.347,28.218,41.941,31.226,31.163,19.834,6.324,0.885,-0.007,0.993,-0.096,-0.946,-0.305,0.671,73.333,168561.000,1.000
34.940,29.982,43.811,32.732,33.688,22.756,9.742,1.556,-0.008,0.993,-0.095,-0.977,-0.427,0.580,73.333,168562.000,1.000
35.832,31.018,45.127,33.887,35.463,24.216,12.081,1.899,-0.008,0.992,-0.098,-1.038,-0.549,0.458,73.333,168563.000,1.000
36.121,31.205,45.654,34.526,36.252,23.941,12.953,1.961,-0.006,0.990,-0.092,-1.068,-0.549,0.366,73.333,168564.000,1.000
36.433,30.985,45.665,34.799,36.356,22.726,12.662,1.929,-0.006,0.989,-0.093,-1.160,-0.732,0.427,73.333,168565.000,1.000
37.571,31.177,45.823,35.156,36.459,22.041,12.178,2.290,-0.004,0.988,-0.096,-1.251,-0.824,0.427,73.333,168566.000,1.000
39.722,32.072,46.474,35.813,36.973,22.803,12.306,3.262,-0.006,0.989,-0.094,-1.251,-1.038,0.549,73.333,168567.000,1.000
42.020,33.089,47.145,36.292,37.551,24.623,13.011,4.313,-0.008,0.989,-0.094,-1.312,-1.007,0.610,73.333,168568.000,1.000
43.048,33.249,46.796,35.648,37.360,26.178,13.594,4.459,-0.004,0.988,-0.093,-1.373,-1.068,0.641,73.333,168569.000,1.000
41.985,32.059,44.743,33.388,35.980,26.327,13.664,3.327,-0.006,0.987,-0.093,-1.404,-1.068,0.824,73.333,168570.000,1.000
39.042,29.725,41.117,29.914,33.665,24.617,13.583,1.514,-0.004,0.986,-0.092,-1.434,-1.129,0.854,73.333,168571.000,1.000
35.054,26.659,36.654,26.136,30.971,21.231,13.739,-0.123,-0.004,0.986,-0.091,-1.465,-1.221,1.038,73.333,168572.000,1.000
31.002,23.354,32.367,22.933,28.534,17.159,14.238,-0.896,-0.001,0.987,-0.092,-1.434,-1.221,1.221,73.333,168573.000,1.000
27.680,20.375,29.141,20.820,26.943,13.803,14.924,-0.447,0.000,0.985,-0.093,-1.465,-1.251,1.373,73.333,168574.000,1.000
25.555,18.193,27.421,19.849,26.376,11.945,14.994,0.772,0.000,0.986,-0.090,-1.495,-1.312,1.648,73.333,168575.000,1.000
24.608,16.831,27.013,19.589,26.241,11.193,13.095,1.358,0.000,0.983,-0.089,-1.465,-1.343,1.862,73.333,168576.000,1.000
24.425,15.871,27.296,19.453,25.655,10.637,8.561,0.056,0.000,0.982,-0.091,-1.373,-1.434,1.831,73.333,168577.000,1.000
24.549,15.040,27.723,19.142,24.279,9.916,2.591,-3.117,-0.001,0.982,-0.090,-1.343,-1.465,1.892,73.333,168578.000,1.000
24.702,14.391,28.067,18.764,22.528,9.298,-2.452,-6.971,-0.001,0.985,-0.090,-1.312,-1.312,1.923,73.333,168579.000,1.000
24.800,13.965,28.373,18.644,21.176,9.026,-4.759,-9.825,-0.003,0.985,-0.092,-1.282,-1.343,1.892,73.333,168580.000,1.000
24.714,13.534,28.636,18.850,20.630,8.840,-4.176,-10.597,0.001,0.984,-0.090,-1.251,-1.251,1.862,73.333,168581.000,1.000
24.361,12.847,28.792,19.110,20.691,8.338,-1.997,-9.563,0.000,0.981,-0.089,-1.129,-1.251,1.770,73.333,168582.000,1.000
23.986,12.062,28.994,19.207,20.925,7.571,0.335,-7.869,0.000,0.979,-0.093,-1.068,-1.160,1.770,73.333,168583.000,1.000
24.022,11.510,29.488,19.163,20.915,6.831,1.840,-6.679,0.003,0.977,-0.092,-0.977,-1.099,1.862,73.333,168584.000,1.000
24.790,11.357,30.367,19.171,20.439,6.232,1.942,-6.630,0.005,0.977,-0.091,-0.793,-1.007,1.740,73.333,168585.000,1.000
26.143,11.490,31.329,19.280,19.496,5.681,0.761,-7.648,0.006,0.973,-0.090,-0.519,-0.885,1.709,73.333,168586.000,1.000
27.479,11.620,31.795,19.311,18.307,5.091,-0.875,-8.981,0.006,0.974,-0.092,-0.305,-0.793,1.770,73.333,168587.000,1.000
28.290,11.641,31.409,19.176,17.269,4.550,-2.010,-9.577,0.007,0.975,-0.096,-0.122,-0.610,1.831,73.333,168588.000,1.000
28.539,11.635,30.287,19.004,16.657,4.189,-2.348,-8.940,0.007,0.979,-0.094,0.031,-0.519,1.801,73.333,168589.000,1.000
28.658,11.818,29.029,19.045,16.596,4.253,-2.083,-7.341,0.007,0.979,-0.095,0.183,-0.366,1.709,73.333,168590.000,1.000
29.167,12.514,28.388,19.489,17.175,5.153,-1.084,-5.272,0.010,0.981,-0.098,0.336,-0.305,1.617,73.333,168591.000,1.000
30.306,13.825,28.778,20.350,18.466,7.107,0.943,-3.098,0.010,0.982,-0.094,0.427,-0.214,1.648,73.333,168592.000,1.000
31.814,15.387,30.012,21.391,20.256,9.646,3.724,-1.208,0.009,0.983,-0.093,0.458,-0.092,1.587,73.333,168593.000,1.000
32.907,16.425,31.310,22.070,21.786,11.475,5.974,-0.268,0.007,0.983,-0.095,0.366,0.000,1.678,73.333,168594.000,1.000
32.795,16.363,31.821,21.859,22.208,11.395,6.243,-0.848,0.006,0.984,-0.094,0.458,0.122,1.678,73.333,168595.000,1.000
31.316,15.396,31.236,20.690,21.391,9.439,4.542,-2.710,0.005,0.985,-0.094,0.427,0.275,1.709,73.333,168596.000,1.000
29.126,14.273,29.961,19.078,20.084,6.717,2.240,-4.789,0.004,0.987,-0.094,0.458,0.305,1.617,73.333,168597.000,1.000
27.143,13.634,28.650,17.690,19.172,4.443,0.666,-5.937,0.002,0.988,-0.094,0.397,0.305,1.617,73.333,168598.000,1.000
25.848,13.576,27.647,16.903,19.063,3.410,0.727,-5.409,0.001,0.994,-0.094,0.397,0.427,1.526,73.333,168599.000,1.000
25.346,13.983,27.116,16.913,19.872,4.135,3.279,-2.827,0.001,0.996,-0.093,0.153,0.397,1.434,73.333,168600.000,1.000
25.588,14.819,27.178,17.736,21.369,6.628,8.176,1.154,0.002,0.996,-0.093,0.000,0.366,1.312,73.333,168601.000,1.000
26.353,15.927,27.732,18.966,22.772,9.888,13.008,4.476,-0.001,0.993,-0.091,-0.275,0.397,1.434,73.333,168602.000,1.000
27.220,16.913,28.376,19.880,23.140,12.208,14.528,4.968,-0.002,0.991,-0.094,-0.427,0.305,1.312,73.333,168603.000,1.000
27.690,17.259,28.573,19.851,22.022,12.289,11.306,1.836,-0.002,0.989,-0.096,-0.488,0.214,1.282,73.333,168604.000,1.000
27.565,16.719,28.111,18.801,19.827,10.232,4.657,-3.833,0.000,0.989,-0.099,-0.549,0.153,1.343,73.333,168605.000,1.000
26.945,15.497,27.197,17.130,17.455,7.332,-2.437,-9.697,0.003,0.991,-0.098,-0.580,0.183,1.312,73.333,168606.000,1.000
26.042,13.984,26.169,15.400,15.650,4.982,-7.294,-13.589,0.005,0.993,-0.094,-0.519,0.122,1.282,73.333,168607.000,1.000
25.218,12.654,25.352,14.149,14.706,3.825,-8.831,-14.666,0.003,0.997,-0.094,-0.519,0.122,1.312,73.333,168608.000,1.000
24.899,11.882,25.005,13.724,14.596,3.663,-7.592,-13.430,0.001,0.995,-0.095,-0.702,0.122,1.434,73.333,168609.000,1.000
25.324,11.810,25.311,14.202,15.320,4.130,-4.879,-10.848,0.002,0.995,-0.096,-0.793,0.122,1.434,73.333,168610.000,1.000
26.333,12.374,26.242,15.318,16.903,5.175,-1.803,-7.788,0.003,0.995,-0.098,-0.702,0.061,1.465,73.333,168611.000,1.000
27.605,13.500,27.619,16.677,19.324,7.020,1.195,-4.828,0.004,0.994,-0.095,-0.671,0.031,1.526,73.333,168612.000,1.000
28.947,15.188,29.252,18.032,22.384,9.694,4.246,-2.127,0.005,0.994,-0.097,-0.824,0.031,1.556,73.333,168613.000,1.000
30.146,17.065,30.759,19.156,25.369,12.356,7.048,0.183,0.001,0.994,-0.094,-0.763,0.031,1.495,73.333,168614.000,1.000
31.052,18.463,31.772,19.905,27.382,13.728,8.629,1.759,0.000,0.996,-0.096,-0.824,0.000,1.465,73.333,168615.000,1.000
31.755,19.046,32.319,20.424,28.056,13.298,8.473,2.405,-0.001,0.995,-0.095,-0.824,0.000,1.526,73.333,168616.000,1.000
32.502,18.997,32.781,21.092,27.791,11.676,7.082,2.454,-0.005,0.993,-0.096,-0.824,-0.061,1.373,73.333,168617.000,1.000
33.485,18.855,33.542,22.224,27.388,10.063,5.682,2.713,-0.005,0.989,-0.096,-0.793,-0.214,1.251,73.333,168618.000,1.000
34.666,19.096,34.670,23.778,27.467,9.368,5.429,3.802,-0.004,0.987,-0.096,-0.671,-0.488,1.160,73.333,168619.000,1.000
35.825,19.798,35.867,25.354,28.107,9.623,6.507,5.606,-0.001,0.986,-0.094,-0.671,-0.610,1.129,73.333,168620.000,1.000
36.612,20.585,36.601,26.412,28.869,10.089,8.166,7.445,0.000,0.985,-0.092,-0.519,-0.793,1.099,73.333,168621.000,1.000
36.848,21.055,36.629,26.782,29.461,10.218,9.853,8.915,0.002,0.986,-0.090,-0.427,-0.824,1.099,73.333,168622.000,1.000
36.911,21.408,36.446,26.991,30.271,10.528,12.152,10.477,0.005,0.985,-0.090,-0.366,-0.763,1.221,73.333,168623.000,1.000
37.578,22.318,36.863,27.829,31.968,12.071,16.072,13.035,0.007,0.983,-0.090,-0.275,-0.763,1.343,73.333,168624.000,1.000
39.520,24.366,38.335,29.721,34.812,15.212,21.466,16.914,0.006,0.983,-0.094,-0.275,-0.732,1.465,73.333,168625.000,1.000
42.855,27.485,40.604,32.326,38.110,18.917,26.421,20.969,0.004,0.980,-0.094,-0.244,-0.580,1.434,73.333,168626.000,1.000
47.231,30.867,42.953,34.784,40.516,21.368,28.351,23.182,0.005,0.977,-0.092,-0.122,-0.702,1.556,73.333,168627.000,1.000
52.075,33.575,44.793,36.331,41.059,21.476,26.097,22.488,0.007,0.977,-0.096,0.122,-0.641,1.587,73.333,168628.000,1.000
56.603,35.001,45.827,36.569,39.717,19.623,20.742,19.335,0.005,0.978,-0.094,0.275,-0.580,1.617,73.333,168629.000,1.000
60.230,35.176,46.108,35.621,37.267,17.123,14.415,14.737,0.005,0.977,-0.096,0.427,-0.580,1.740,73.333,168630.000,1.000
62.993,34.827,46.044,34.156,34.685,15.105,8.655,9.434,0.005,0.979,-0.093,0.580,-0.549,1.770,73.333,168631.000,1.000
65.464,34.977,46.258,33.196,32.843,14.159,4.259,4.295,0.006,0.980,-0.094,0.671,-0.549,1.862,73.333,168632.000,1.000
68.294,36.506,47.357,33.743,32.560,14.958,2.633,1.084,0.006,0.981,-0.094,0.763,-0.519,1.923,73.333,168633.000,1.000
71.694,39.603,49.534,36.205,34.321,18.148,5.719,1.755,0.006,0.981,-0.093,0.946,-0.458,1.984,73.333,168634.000,1.000
75.242,43.448,52.320,40.002,37.651,23.121,13.439,6.622,0.006,0.982,-0.092,1.007,-0.366,1.923,73.333,168635.000,1.000
78.038,46.516,54.601,43.653,40.856,27.473,21.924,13.313,0.007,0.984,-0.090,1.068,-0.397,1.923,73.333,168636.000,1.000
79.318,47.513,55.280,45.659,42.142,28.660,25.908,18.158,0.005,0.986,-0.091,1.129,-0.275,1.801,73.333,168637.000,1.000
79.036,46.330,54.128,45.488,41.061,26.149,23.153,18.912,0.005,0.988,-0.092,1.190,-0.336,1.770,73.333,168638.000,1.000
77.742,43.892,51.815,43.678,38.628,21.588,15.687,15.956,0.003,0.988,-0.088,1.190,-0.336,1.709,73.333,168639.000,1.000
76.248,41.457,49.449,41.481,36.560,17.665,7.919,11.686,0.003,0.989,-0.093,1.068,-0.275,1.709,73.333,168640.000,1.000
75.267,40.025,48.005,40.232,36.332,16.739,4.290,9.085,0.005,0.988,-0.089,1.038,-0.336,1.556,73.333,168641.000,1.000
75.178,39.933,47.934,40.635,38.423,19.506,6.912,10.088,0.005,0.986,-0.093,1.099,-0.336,1.526,73.333,168642.000,1.000
76.009,40.820,49.078,42.438,42.028,24.418,14.173,14.431,0.004,0.988,-0.091,1.007,-0.336,1.465,73.333,168643.000,1.000
77.505,41.863,50.788,44.649,45.431,28.536,21.729,19.737,0.009,0.988,-0.095,0.946,-0.275,1.373,73.333,168644.000,1.000
79.451,42.527,52.499,46.351,47.253,29.817,25.838,23.422,0.008,0.985,-0.095,1.038,-0.214,1.312,73.333,168645.000,1.000
81.772,43.007,54.096,47.290,47.451,28.700,26.398,24.845,0.007,0.987,-0.096,1.099,-0.336,1.251,73.333,168646.000,1.000
84.379,43.852,55.758,47.833,47.206,27.346,26.692,25.641,0.007,0.989,-0.093,1.007,-0.305,1.221,73.333,168647.000,1.000
86.998,45.391,57.564,48.483,47.794,27.621,29.937,27.875,0.009,0.991,-0.093,1.007,-0.366,1.129,73.333,168648.000,1.000
88.955,47.218,59.010,49.133,49.188,29.517,35.391,31.337,0.008,0.990,-0.093,0.885,-0.244,1.068,73.333,168649.000,1.000
89.486,48.415,59.207,49.012,50.019,31.532,38.515,33.173,0.009,0.989,-0.090,0.885,-0.336,1.160,73.333,168650.000,1.000
88.345,48.367,57.636,47.482,48.962,32.374,35.665,30.747,0.007,0.986,-0.091,0.702,-0.214,1.129,73.333,168651.000,1.000
85.985,47.045,54.561,44.688,45.862,31.776,27.272,24.167,0.007,0.985,-0.094,0.702,-0.366,0.977,73.333,168652.000,1.000
83.099,44.654,50.674,41.359,41.436,29.951,16.543,15.728,0.005,0.984,-0.094,0.793,-0.336,1.068,73.333,168653.000,1.000
80.181,41.381,46.619,38.245,36.489,27.147,6.712,7.996,0.004,0.982,-0.097,0.977,-0.427,0.977,73.333,168654.000,1.000
77.805,37.855,43.179,36.007,31.944,24.122,0.129,3.095,0.003,0.984,-0.094,1.007,-0.336,0.885,73.333,168655.000,1.000
76.716,35.200,41.262,35.100,28.779,21.993,-1.719,2.343,0.004,0.983,-0.096,1.129,-0.549,0.885,73.333,168656.000,1.000
77.430,34.278,41.431,35.556,27.515,21.104,1.020,5.499,0.002,0.983,-0.094,1.190,-0.458,0.854,73.333,168657.000,1.000
79.980,35.308,43.730,37.112,28.059,20.898,6.551,10.939,0.001,0.983,-0.096,1.343,-0.641,0.763,73.333,168658.000,1.000
83.983,37.877,47.694,39.402,29.961,20.907,12.689,16.718,0.000,0.984,-0.094,1.312,-0.732,0.793,73.333,168659.000,1.000
88.827,41.104,52.480,42.035,32.594,21.149,17.653,21.328,0.001,0.987,-0.095,1.312,-0.916,0.732,73.333,168660.000,1.000
93.571,43.811,56.852,44.407,34.959,21.411,19.953,23.641,0.000,0.986,-0.096,1.343,-0.885,0.580,73.333,168661.000,1.000
97.013,44.807,59.399,45.723,35.811,20.825,18.446,22.807,0.000,0.986,-0.099,1.404,-1.068,0.488,73.333,168662.000,1.000
98.349,43.588,59.232,45.494,34.380,18.654,13.261,18.688,-0.001,0.985,-0.098,1.404,-1.007,0.336,73.333,168663.000,1.000
97.629,40.663,56.499,43.924,30.915,15.070,6.290,12.460,0.001,0.986,-0.094,1.465,-1.282,0.305,73.333,168664.000,1.000
95.651,37.225,52.344,41.822,26.604,11.100,0.328,6.600,-0.001,0.982,-0.098,1.434,-1.221,0.244,73.333,168665.000,1.000
93.354,34.349,48.163,39.944,22.720,7.890,-2.654,3.318,0.000,0.983,-0.095,1.434,-1.648,0.183,73.333,168666.000,1.000
91.364,32.394,44.824,38.479,19.855,6.136,-2.922,2.725,0.000,0.985,-0.098,1.434,-1.648,0.092,73.333,168667.000,1.000
90.081,31.415,42.730,37.400,18.155,6.372,-2.042,3.334,-0.002,0.986,-0.094,1.465,-1.923,0.061,73.333,168668.000,1.000
89.773,31.679,42.245,37.069,17.999,9.235,-0.614,4.157,0.000,0.985,-0.096,1.495,-1.862,0.153,73.333,168669.000,1.000
90.384,33.389,43.584,38.089,19.902,14.753,2.145,5.621,0.000,0.986,-0.093,1.526,-2.075,0.122,73.333,168670.000,1.000
91.211,35.992,46.187,40.413,23.559,21.449,6.721,8.384,0.002,0.984,-0.096,1.556,-1.984,0.092,73.333,168671.000,1.000
91.381,38.390,48.898,43.139,27.729,27.051,12.176,12.183,-0.001,0.984,-0.095,1.465,-2.075,0.122,73.333,168672.000,1.000
90.718,39.976,50.945,45.307,31.252,30.145,17.062,16.275,0.001,0.984,-0.095,1.465,-2.228,0.305,73.333,168673.000,1.000
89.714,40.738,52.186,46.424,33.594,30.586,20.598,20.162,-0.001,0.983,-0.101,1.465,-2.197,0.305,73.333,168674.000,1.000
88.917,40.723,52.752,46.465,34.702,29.165,22.874,23.516,0.000,0.981,-0.101,1.526,-2.350,0.336,73.333,168675.000,1.000
88.435,39.927,52.750,45.633,34.651,27.231,24.511,25.814,-0.001,0.981,-0.099,1.556,-2.380,0.519,73.333,168676.000,1.000
88.035,38.568,52.274,44.316,33.590,25.932,26.094,26.758,0.001,0.983,-0.098,1.556,-2.472,0.397,73.333,168677.000,1.000
87.545,37.170,51.423,42.957,31.670,25.426,27.591,26.527,-0.001,0.981,-0.099,1.465,-2.319,0.458,73.333,168678.000,1.000
86.820,35.906,49.957,41.525,28.609,24.510,27.507,24.649,-0.001,0.980,-0.094,1.526,-2.533,0.519,73.333,168679.000,1.000
85.722,34.361,47.428,39.544,23.891,21.366,23.295,19.907,0.003,0.978,-0.097,1.465,-2.380,0.580,73.333,168680.000,1.000
84.281,32.129,43.751,36.770,17.657,15.241,13.984,12.135,0.002,0.978,-0.098,1.678,-2.472,0.702,73.333,168681.000,1.000
82.792,29.382,39.588,33.579,11.114,7.487,1.734,3.124,0.003,0.976,-0.102,1.678,-2.319,0.732,73.333,168682.000,1.000
81.669,26.833,36.098,30.651,5.846,0.722,-9.690,-4.747,0.003,0.978,-0.103,1.709,-2.472,0.793,73.333,168683.000,1.000
81.141,25.106,34.188,28.395,2.752,-3.111,-17.376,-10.244,0.004,0.980,-0.102,1.770,-2.380,0.793,73.333,168684.000,1.000
81.338,24.474,34.191,27.028,1.913,-3.696,-20.108,-13.231,0.000,0.980,-0.097,1.770,-2.380,0.885,73.333,168685.000,1.000
82.291,24.939,35.853,26.722,2.930,-1.858,-18.092,-13.831,0.004,0.981,-0.100,1.923,-2.411,0.916,73.333,168686.000,1.000
83.655,26.132,38.296,27.333,5.085,1.308,-12.936,-12.396,0.001,0.982,-0.096,1.831,-2.258,0.977,73.333,168687.000,1.000
84.793,27.521,40.401,28.300,7.569,5.084,-6.948,-9.617,0.003,0.983,-0.097,1.862,-2.289,0.946,73.333,168688.000,1.000
85.277,28.924,41.597,29.142,10.058,9.479,-1.323,-5.812,0.001,0.985,-0.095,1.709,-2.075,0.977,73.333,168689.000,1.000
85.190,30.571,42.202,29.945,12.973,14.879,4.512,-0.575,0.003,0.986,-0.099,1.740,-2.167,0.977,73.333,168690.000,1.000
84.572,32.307,42.556,30.864,16.539,20.887,11.039,5.920,0.005,0.985,-0.100,1.617,-1.923,0.946,73.333,168691.000,1.000
83.067,33.182,42.298,31.573,20.075,26.093,16.877,12.063,0.005,0.988,-0.099,1.617,-1.953,1.038,73.333,168692.000,1.000
80.260,32.141,40.677,31.413,22.403,28.991,19.675,15.851,0.004,0.985,-0.096,1.373,-1.770,1.007,73.333,168693.000,1.000
76.068,28.766,37.155,29.846,22.648,28.718,18.324,16.396,0.004,0.987,-0.101,1.434,-1.709,0.946,73.333,168694.000,1.000
71.133,23.883,32.141,27.128,21.120,25.822,14.257,14.736,0.004,0.985,-0.101,1.282,-1.434,0.946,73.333,168695.000,1.000
66.521,19.182,26.926,24.228,19.070,22.031,10.414,12.883,0.003,0.986,-0.101,1.282,-1.587,1.007,73.333,168696.000,1.000
62.951,15.832,22.824,21.999,17.540,18.691,8.688,11.986,0.002,0.986,-0.101,1.343,-1.434,1.160,73.333,168697.000,1.000
60.657,13.929,20.682,20.884,16.827,16.023,8.950,11.849,0.002,0.988,-0.101,1.221,-1.434,1.160,73.333,168698.000,1.000
59.695,12.904,20.724,21.029,16.641,13.645,10.055,11.708,0.000,0.990,-0.099,1.190,-1.404,1.251,73.333,168699.000,1.000
60.148,12.194,22.637,22.377,16.489,11.177,11.076,11.261,0.000,0.989,-0.101,1.068,-1.343,1.282,73.333,168700.000,1.000
61.904,11.469,25.663,24.524,15.813,8.222,11.562,10.776,0.001,0.988,-0.100,0.916,-1.282,1.190,73.333,168701.000,1.000
64.459,10.395,28.718,26.672,13.967,4.226,10.873,10.188,0.000,0.986,-0.100,0.916,-1.343,1.251,73.333,168702.000,1.000
67.130,8.674,30.730,27.940,10.456,-1.044,8.207,8.769,-0.001,0.986,-0.099,0.885,-1.343,1.282,73.333,168703.000,1.000
69.327,6.311,31.049,27.777,5.342,-6.982,3.441,5.886,0.000,0.983,-0.100,0.824,-1.221,1.343,73.333,168704.000,1.000
70.886,4.002,29.904,26.372,-0.361,-12.100,-2.311,1.920,0.001,0.987,-0.100,0.946,-1.221,1.312,73.333,168705.000,1.000
72.058,2.973,28.267,24.508,-5.034,-14.640,-7.039,-1.774,0.000,0.985,-0.102,0.885,-1.221,1.434,73.333,168706.000,1.000
73.206,4.203,27.227,23.054,-7.270,-13.415,-9.059,-3.774,0.001,0.986,-0.104,0.885,-1.282,1.404,73.333,168707.000,1.000
74.568,7.913,27.582,22.656,-6.403,-8.389,-7.919,-3.401,0.000,0.985,-0.101,0.885,-1.038,1.404,73.333,168708.000,1.000
76.001,13.413,29.475,23.490,-2.747,-0.796,-4.428,-0.986,0.001,0.986,-0.101,0.763,-1.129,1.434,73.333,168709.000,1.000
77.031,19.276,32.226,25.159,2.513,7.463,-0.126,2.407,0.000,0.985,-0.100,0.793,-1.007,1.556,73.333,168710.000,1.000
77.080,23.808,34.519,26.774,7.736,14.653,3.650,5.460,0.000,0.984,-0.105,0.793,-0.885,1.740,73.333,168711.000,1.000
75.798,25.764,35.105,27.485,11.624,19.736,6.601,7.514,0.001,0.985,-0.104,0.916,-0.885,1.709,73.333,168712.000,1.000
73.262,24.937,33.517,26.987,13.723,22.374,9.055,9.037,0.000,0.983,-0.105,1.068,-0.916,1.740,73.333,168713.000,1.000
69.878,22.006,30.177,25.488,14.164,22.625,10.632,10.635,0.002,0.984,-0.103,1.160,-0.946,1.801,73.333,168714.000,1.000
66.367,18.148,26.280,23.646,13.609,21.033,10.458,12.388,0.002,0.984,-0.100,1.312,-0.824,1.831,73.333,168715.000,1.000
63.562,14.501,23.252,22.315,13.038,18.389,8.517,14.097,-0.001,0.982,-0.105,1.343,-0.732,1.740,73.333,168716.000,1.000
62.116,11.703,22.013,22.102,13.191,15.105,5.692,15.485,0.002,0.981,-0.102,1.465,-0.763,1.709,73.333,168717.000,1.000
62.327,10.011,22.713,23.121,14.255,11.365,3.184,16.311,0.002,0.978,-0.104,1.740,-0.549,1.801,73.333,168718.000,1.000
63.897,9.375,24.726,24.858,15.811,7.537,2.070,16.472,0.000,0.980,-0.103,1.892,-0.671,1.862,73.333,168719.000,1.000
66.167,9.621,27.100,26.482,17.196,4.210,2.831,16.187,-0.003,0.979,-0.105,2.075,-0.610,1.831,73.333,168720.000,1.000
68.645,10.687,29.151,27.413,17.979,1.958,5.228,15.799,-0.001,0.979,-0.107,2.258,-0.671,1.984,73.333,168721.000,1.000
71.193,12.472,30.736,27.641,18.226,1.029,8.475,15.301,0.000,0.981,-0.106,2.472,-0.641,1.801,73.333,168722.000,1.000
73.695,14.567,32.052,27.536,18.308,1.118,11.479,14.283,0.001,0.981,-0.106,2.716,-0.671,1.740,73.333,168723.000,1.000
75.622,16.167,33.132,27.324,18.342,1.290,13.088,12.231,0.002,0.981,-0.106,2.747,-0.549,1.801,73.333,168724.000,1.000
76.317,16.565,33.853,26.986,18.099,0.484,12.468,8.885,0.002,0.981,-0.107,2.869,-0.549,1.862,73.333,168725.000,1.000
75.467,15.755,34.179,26.403,17.242,-1.778,9.479,4.322,0.001,0.985,-0.102,3.113,-0.580,1.862,73.333,168726.000,1.000
73.354,14.590,34.318,25.560,15.717,-4.939,4.894,-0.878,0.000,0.988,-0.103,3.143,-0.458,1.862,73.333,168727.000,1.000
70.838,14.342,34.610,24.670,13.861,-7.608,0.382,-5.536,0.003,0.986,-0.103,3.265,-0.336,1.984,73.333,168728.000,1.000
68.797,15.646,35.007,23.802,11.843,-8.640,-2.523,-8.756,0.001,0.985,-0.102,3.174,-0.366,1.892,73.333,168729.000,1.000
67.716,18.161,35.089,22.720,9.466,-7.743,-3.674,-10.625,0.003,0.984,-0.099,3.113,-0.427,1.923,73.333,168730.000,1.000
67.601,21.046,34.503,21.105,6.480,-5.310,-4.145,-11.791,0.003,0.985,-0.100,3.174,-0.427,2.014,73.333,168731.000,1.000
68.008,23.319,33.154,18.852,2.865,-2.131,-5.164,-12.701,0.003,0.986,-0.104,3.174,-0.305,1.984,73.333,168732.000,1.000
68.320,24.290,31.295,16.344,-0.830,1.148,-7.000,-13.132,0.003,0.986,-0.105,2.960,-0.366,2.014,73.333,168733.000,1.000
68.178,24.104,29.648,14.601,-3.165,4.708,-8.390,-11.990,0.002,0.987,-0.104,2.899,-0.427,1.984,73.333,168734.000,1.000
67.850,23.936,29.452,15.107,-2.022,9.633,-7.023,-7.495,0.003,0.992,-0.104,2.838,-0.397,2.136,73.333,168735.000,1.000
67.683,25.038,31.585,18.719,3.885,16.725,-1.220,1.399,0.003,0.994,-0.105,2.808,-0.305,2.045,73.333,168736.000,1.000
67.312,27.363,35.446,24.594,13.565,25.224,8.259,13.509,0.003,0.994,-0.105,2.533,-0.275,1.984,73.333,168737.000,1.000
65.791,29.466,39.056,30.510,24.083,32.958,18.542,25.839,0.001,0.994,-0.103,2.319,-0.244,2.045,73.333,168738.000,1.000
62.237,29.430,40.168,34.100,32.098,37.477,26.528,35.223,0.001,0.992,-0.101,2.014,-0.214,2.045,73.333,168739.000,1.000
56.626,26.222,37.683,34.096,35.516,37.397,30.035,39.629,-0.001,0.989,-0.104,1.801,-0.244,1.984,73.333,168740.000,1.000
50.088,20.511,32.328,30.837,34.281,33.206,28.294,38.666,-0.001,0.988,-0.107,1.617,-0.366,1.831,73.333,168741.000,1.000
44.397,14.138,26.117,25.865,30.004,26.839,22.414,33.636,0.001,0.986,-0.106,1.465,-0.458,1.678,73.333,168742.000,1.000
40.940,8.765,21.053,20.875,24.676,20.177,14.929,26.832,0.002,0.989,-0.105,1.373,-0.549,1.648,73.333,168743.000,1.000
39.891,4.858,18.007,16.795,19.487,13.883,8.316,20.118,0.003,0.990,-0.108,1.312,-0.427,1.678,73.333,168744.000,1.000
40.556,2.114,16.946,13.972,15.043,7.971,4.174,14.521,0.004,0.991,-0.105,1.190,-0.519,1.709,73.333,168745.000,1.000
42.121,0.322,17.589,12.650,11.937,2.737,3.310,10.772,0.007,0.993,-0.106,0.885,-0.458,1.770,73.333,168746.000,1.000
44.088,-0.537,19.627,13.012,10.666,-1.447,5.609,9.451,0.007,0.994,-0.105,0.732,-0.336,1.770,73.333,168747.000,1.000
46.428,-0.463,22.743,14.983,11.266,-4.719,9.821,10.308,0.006,0.990,-0.106,0.427,-0.275,1.648,73.333,168748.000,1.000
49.299,0.353,26.475,17.958,13.042,-7.787,13.743,11.549,0.007,0.984,-0.108,0.244,-0.275,1.709,73.333,168749.000,1.000
52.755,1.447,30.213,20.965,14.894,-11.242,15.040,10.757,0.008,0.980,-0.108,0.183,-0.244,1.801,73.333,168750.000,1.000
56.478,2.179,33.215,23.017,15.773,-15.090,12.333,6.482,0.009,0.979,-0.112,0.122,-0.153,1.923,73.333,168751.000,1.000
59.737,2.097,34.764,23.430,15.099,-18.813,5.746,-1.232,0.009,0.979,-0.113,0.153,0.000,1.953,73.333,168752.000,1.000
61.761,1.530,34.616,22.142,13.193,-21.424,-2.982,-10.777,0.009,0.979,-0.111,0.183,0.000,1.892,73.333,168753.000,1.000
62.134,1.482,33.182,19.668,11.088,-21.797,-11.243,-19.372,0.008,0.982,-0.113,0.305,-0.031,1.862,73.333,168754.000,1.000
61.036,2.922,31.324,16.815,9.834,-19.267,-16.892,-24.403,0.008,0.985,-0.111,0.244,-0.031,1.892,73.333,168755.000,1.000
58.954,6.042,29.743,14.270,9.777,-14.041,-18.878,-24.902,0.007,0.985,-0.112,0.153,0.092,1.862,73.333,168756.000,1.000
56.365,10.220,28.663,12.452,10.614,-6.841,-17.087,-21.580,0.007,0.987,-0.109,0.092,0.122,1.923,73.333,168757.000,1.000
53.846,14.741,28.178,11.689,12.118,1.786,-11.924,-15.560,0.008,0.987,-0.110,0.000,0.153,1.892,73.333,168758.000,1.000
51.884,19.008,28.313,12.127,14.273,11.188,-4.351,-7.722,0.005,0.988,-0.106,-0.031,0.122,1.801,73.333,168759.000,1.000
50.482,22.245,28.769,13.543,16.824,19.953,4.007,1.049,0.004,0.987,-0.106,-0.153,0.000,1.801,73.333,168760.000,1.000
49.025,23.478,28.779,15.317,18.967,26.176,11.445,9.693,0.002,0.986,-0.107,-0.244,-0.061,1.770,73.333,168761.000,1.000
46.736,22.019,27.585,16.795,19.771,28.607,16.651,17.118,0.000,0.989,-0.106,-0.427,-0.122,1.556,73.333,168762.000,1.000
43.214,17.983,25.032,17.615,18.714,27.431,18.628,22.252,-0.002,0.990,-0.106,-0.580,-0.336,1.373,73.333,168763.000,1.000
38.346,11.930,21.235,17.443,15.522,23.692,16.755,24.037,-0.005,0.991,-0.106,-0.671,-0.549,1.221,73.333,168764.000,1.000
32.264,4.449,16.258,15.950,10.276,18.472,11.484,22.155,-0.005,0.991,-0.104,-0.732,-0.549,1.068,73.333,168765.000,1.000
25.537,-3.615,10.468,13.267,3.903,12.760,4.904,17.809,-0.004,0.993,-0.104,-0.916,-0.732,0.763,73.333,168766.000,1.000
19.254,-10.903,4.918,10.280,-1.784,7.590,-0.074,13.425,-0.004,0.992,-0.105,-1.007,-1.038,0.763,73.333,168767.000,1.000
14.555,-15.919,0.961,8.176,-4.926,3.873,-1.240,11.472,-0.002,0.992,-0.104,-1.129,-1.068,0.610,73.333,168768.000,1.000
11.808,-17.992,-0.751,7.451,-4.751,1.938,1.922,13.029,0.000,0.990,-0.100,-1.221,-1.129,0.488,73.333,168769.000,1.000
10.591,-17.633,-0.578,7.554,-1.885,1.381,7.873,17.009,0.000,0.988,-0.101,-1.343,-1.282,0.488,73.333,168770.000,1.000
10.239,-16.173,0.450,7.269,1.902,1.096,13.243,20.336,0.001,0.986,-0.102,-1.434,-1.312,0.458,73.333,168771.000,1.000
10.300,-15.063,1.324,5.588,4.640,-0.159,14.328,19.663,0.003,0.986,-0.100,-1.495,-1.465,0.549,73.333,168772.000,1.000
10.744,-15.063,1.739,2.552,5.452,-2.758,9.724,13.931,0.000,0.983,-0.102,-1.495,-1.434,0.549,73.333,168773.000,1.000
11.819,-16.070,2.074,-0.747,4.931,-6.149,1.605,5.228,0.000,0.983,-0.100,-1.526,-1.617,0.885,73.333,168774.000,1.000
13.872,-17.413,3.037,-2.757,4.543,-9.494,-5.703,-2.727,0.000,0.984,-0.101,-1.404,-1.587,0.946,73.333,168775.000,1.000
16.708,-18.571,4.914,-2.577,5.293,-12.327,-8.780,-7.285,0.001,0.982,-0.098,-1.343,-1.678,1.007,73.333,168776.000,1.000
19.182,-19.733,7.011,-0.737,6.781,-14.843,-7.671,-8.594,0.001,0.982,-0.100,-1.373,-1.801,1.129,73.333,168777.000,1.000
19.871,-21.307,8.159,1.318,7.726,-17.373,-5.511,-8.860,0.003,0.981,-0.095,-1.343,-1.770,1.129,73.333,168778.000,1.000
17.816,-23.458,7.356,2.095,6.894,-19.906,-5.724,-10.438,0.002,0.980,-0.096,-1.282,-1.770,1.221,73.333,168779.000,1.000
12.905,-26.120,4.158,0.638,3.740,-22.068,-9.604,-14.222,0.003,0.979,-0.097,-1.190,-1.831,1.282,73.333,168780.000,1.000
5.914,-28.997,-1.053,-3.119,-1.325,-23.307,-15.687,-19.069,0.002,0.981,-0.098,-1.038,-1.801,1.312,73.333,168781.000,1.000
-1.725,-31.515,-7.060,-8.267,-7.017,-23.110,-20.922,-22.667,0.003,0.982,-0.099,-0.916,-1.770,1.373,73.333,168782.000,1.000
-8.450,-32.889,-12.301,-13.350,-11.817,-21.114,-22.667,-23.320,0.003,0.982,-0.099,-0.824,-1.740,1.404,73.333,168783.000,1.000
-13.463,-32.677,-15.866,-17.266,-14.979,-17.291,-20.450,-21.212,0.004,0.982,-0.097,-0.793,-1.709,1.465,73.333,168784.000,1.000
-17.172,-31.132,-17.971,-19.683,-16.716,-11.982,-16.078,-17.784,0.003,0.983,-0.096,-0.702,-1.770,1.434,73.333,168785.000,1.000
-20.856,-29.054,-19.684,-20.937,-17.688,-5.866,-11.880,-14.297,0.003,0.982,-0.099,-0.671,-1.801,1.404,73.333,168786.000,1.000
-25.832,-27.529,-22.238,-21.740,-18.471,0.075,-8.988,-11.096,0.006,0.981,-0.098,-0.549,-1.770,1.404,73.333,168787.000,1.000
-32.653,-27.472,-26.259,-22.747,-19.232,4.859,-7.001,-7.727,0.007,0.980,-0.100,-0.458,-1.617,1.404,73.333,168788.000,1.000
-40.931,-29.209,-31.428,-24.214,-19.780,7.791,-4.968,-3.743,0.007,0.978,-0.097,-0.366,-1.587,1.343,73.333,168789.000,1.000
-49.530,-32.204,-36.533,-25.808,-19.689,8.711,-2.554,0.750,0.007,0.978,-0.101,-0.275,-1.465,1.312,73.333,168790.000,1.000
-57.025,-35.242,-40.003,-26.825,-18.580,8.017,-0.132,5.161,0.008,0.981,-0.100,-0.244,-1.282,1.251,73.333,168791.000,1.000
-62.249,-37.150,-40.760,-26.725,-16.446,6.339,1.700,8.696,0.007,0.980,-0.099,0.000,-1.282,1.373,73.333,168792.000,1.000
-64.909,-37.642,-38.985,-25.745,-13.944,4.056,2.335,10.495,0.008,0.980,-0.100,0.183,-1.282,1.404,73.333,168793.000,1.000
-65.993,-37.716,-36.317,-25.101,-12.373,1.032,1.327,9.750,0.008,0.981,-0.099,0.244,-1.038,1.312,73.333,168794.000,1.000
-66.919,-38.669,-34.623,-25.981,-12.620,-2.780,-0.975,6.563,0.008,0.982,-0.099,0.305,-0.977,1.312,73.333,168795.000,1.000
-68.429,-40.834,-34.661,-28.470,-14.321,-6.802,-3.124,2.492,0.010,0.982,-0.099,0.366,-0.763,1.373,73.333,168796.000,1.000
-70.335,-43.488,-35.901,-31.633,-16.240,-10.047,-3.549,-0.353,0.012,0.983,-0.097,0.366,-0.610,1.251,73.333,168797.000,1.000
-71.939,-45.522,-37.162,-34.306,-17.254,-11.649,-1.835,-0.805,0.013,0.983,-0.100,0.549,-0.519,1.282,73.333,168798.000,1.000
-72.731,-46.335,-37.573,-35.925,-17.205,-11.563,0.734,0.382,0.010,0.985,-0.100,0.580,-0.397,1.373,73.333,168799.000,1.000
-72.648,-46.159,-36.986,-36.666,-16.764,-10.615,1.872,1.014,0.011,0.986,-0.096,0.641,-0.275,1.373,73.333,168800.000,1.000
-72.130,-45.839,-35.964,-37.215,-16.841,-9.908,-0.047,-0.970,0.011,0.988,-0.100,0.610,-0.092,1.495,73.333,168801.000,1.000
-71.975,-46.362,-35.477,-38.373,-18.037,-10.319,-4.662,-5.850,0.011,0.988,-0.103,0.549,0.031,1.495,73.333,168802.000,1.000
-72.516,-47.864,-35.978,-40.221,-19.902,-11.942,-9.111,-11.191,0.012,0.990,-0.103,0.488,0.061,1.587,73.333,168803.000,1.000
-73.114,-49.191,-36.860,-41.802,-20.924,-13.763,-9.427,-13.250,0.009,0.990,-0.102,0.549,0.183,1.587,73.333,168804.000,1.000
-72.788,-48.877,-37.100,-42.058,-19.791,-14.164,-4.202,-10.480,0.007,0.992,-0.101,0.488,0.336,1.465,73.333,168805.000,1.000
-71.357,-46.561,-36.402,-41.019,-16.713,-12.057,3.606,-5.284,0.007,0.990,-0.099,0.519,0.336,1.312,73.333,168806.000,1.000
-69.542,-43.102,-35.242,-39.518,-12.892,-7.371,9.668,-1.389,0.006,0.989,-0.099,0.397,0.397,1.282,73.333,168807.000,1.000
-68.191,-39.586,-34.058,-38.100,-9.192,-0.854,12.007,-0.449,0.005,0.986,-0.097,0.275,0.458,1.251,73.333,168808.000,1.000
-67.905,-36.754,-33.061,-36.834,-5.973,5.998,11.053,-1.740,0.006,0.984,-0.100,0.275,0.397,1.282,73.333,168809.000,1.000
-68.751,-34.703,-32.154,-35.448,-3.133,11.647,8.304,-3.170,0.008,0.983,-0.102,0.305,0.397,1.373,73.333,168810.000,1.000
-70.254,-32.979,-31.018,-33.556,-0.197,15.345,5.864,-2.272,0.007,0.986,-0.101,0.427,0.458,1.434,73.333,168811.000,1.000
-71.765,-31.186,-29.442,-31.018,3.191,17.158,5.572,2.246,0.007,0.988,-0.105,0.427,0.488,1.373,73.333,168812.000,1.000
-72.615,-29.088,-27.272,-27.882,7.117,17.891,8.103,9.602,0.006,0.990,-0.105,0.427,0.427,1.343,73.333,168813.000,1.000
-72.216,-26.430,-24.329,-24.213,11.532,18.852,13.018,17.646,0.007,0.990,-0.101,0.397,0.397,1.282,73.333,168814.000,1.000
-70.163,-22.941,-20.467,-20.018,16.381,21.138,19.223,24.477,0.006,0.987,-0.100,0.366,0.427,1.282,73.333,168815.000,1.000
-66.511,-18.606,-15.845,-15.464,21.429,24.806,25.406,29.276,0.010,0.985,-0.103,0.366,0.519,1.404,73.333,168816.000,1.000
-62.065,-14.085,-11.234,-11.169,25.978,28.602,30.208,31.940,0.009,0.983,-0.103,0.427,0.519,1.434,73.333,168817.000,1.000
-58.176,-10.688,-7.855,-8.130,28.932,30.716,32.421,32.455,0.010,0.983,-0.103,0.519,0.519,1.526,73.333,168818.000,1.000
-55.970,-9.535,-6.652,-7.139,29.465,30.115,31.762,30.932,0.008,0.985,-0.101,0.549,0.549,1.587,73.333,168819.000,1.000
-55.412,-10.454,-7.386,-8.028,27.998,27.440,29.534,28.298,0.004,0.986,-0.104,0.580,0.610,1.526,73.333,168820.000,1.000
-55.658,-12.218,-8.970,-9.922,25.864,24.311,27.834,25.978,0.000,0.984,-0.101,0.549,0.580,1.465,73.333,168821.000,1.000
-56.138,-13.790,-10.533,-12.022,24.190,22.031,27.904,24.797,0.000,0.982,-0.103,0.549,0.519,1.312,73.333,168822.000,1.000
-56.855,-14.870,-11.786,-13.911,23.449,21.014,29.496,24.703,0.000,0.981,-0.103,0.580,0.336,1.190,73.333,168823.000,1.000
-58.174,-15.821,-12.951,-15.663,23.393,20.652,31.396,24.991,0.000,0.981,-0.104,0.732,0.153,1.038,73.333,168824.000,1.000
-60.058,-16.922,-14.137,-17.431,23.607,20.178,32.579,24.916,0.000,0.982,-0.106,0.763,0.092,0.977,73.333,168825.000,1.000
-61.458,-17.564,-14.736,-18.930,24.141,19.817,33.025,24.281,0.003,0.982,-0.103,0.824,-0.031,0.946,73.333,168826.000,1.000
-60.948,-16.684,-13.841,-19.658,25.418,20.629,33.253,23.418,0.004,0.985,-0.104,0.854,-0.122,0.946,73.333,168827.000,1.000
-58.152,-13.910,-11.252,-19.499,27.612,23.486,33.637,22.847,0.004,0.985,-0.102,0.793,-0.244,1.129,73.333,168828.000,1.000
-54.433,-10.210,-8.052,-19.025,30.120,28.135,34.138,22.818,0.005,0.990,-0.101,0.824,-0.336,1.190,73.333,168829.000,1.000
-51.713,-7.087,-5.723,-18.850,32.082,33.341,34.425,23.332,0.004,0.992,-0.103,0.732,-0.397,1.190,73.333,168830.000,1.000
-50.974,-5.261,-4.903,-18.822,33.338,37.897,34.565,24.596,0.003,0.987,-0.103,0.427,-0.458,1.190,73.333,168831.000,1.000
-52.008,-4.471,-5.254,-18.215,34.421,41.250,35.049,26.968,0.003,0.982,-0.106,0.397,-0.427,1.160,73.333,168832.000,1.000
-54.035,-4.191,-6.168,-16.616,35.719,43.340,35.970,30.365,0.003,0.979,-0.109,0.488,-0.580,1.190,73.333,168833.000,1.000
-56.196,-4.160,-7.258,-14.320,37.019,44.348,36.984,34.150,0.003,0.979,-0.106,0.610,-0.641,1.099,73.333,168834.000,1.000
-57.607,-4.191,-8.094,-11.752,38.124,44.904,38.380,38.021,0.006,0.980,-0.107,0.702,-0.732,1.190,73.333,168835.000,1.000
-57.731,-4.077,-8.297,-9.157,39.176,45.911,41.388,42.362,0.006,0.983,-0.104,0.763,-0.641,1.160,73.333,168836.000,1.000
-56.607,-3.755,-7.877,-6.749,40.366,47.914,46.758,47.482,0.006,0.986,-0.107,0.671,-0.732,1.221,73.333,168837.000,1.000
-54.398,-3.107,-6.935,-4.617,41.797,50.908,53.670,52.922,0.005,0.988,-0.106,0.549,-0.702,1.312,73.333,168838.000,1.000
-51.328,-2.148,-5.566,-2.825,43.261,54.223,60.060,57.346,0.007,0.987,-0.104,0.458,-0.641,1.373,73.333,168839.000,1.000
-48.121,-1.530,-4.245,-1.770,43.867,56.281,62.838,58.747,0.007,0.987,-0.102,0.305,-0.641,1.404,73.333,168840.000,1.000
-46.078,-2.347,-3.971,-2.257,42.159,55.086,58.563,55.059,0.006,0.985,-0.104,0.183,-0.702,1.373,73.333,168841.000,1.000
-45.971,-4.840,-5.238,-4.578,37.631,50.088,46.302,46.017,0.006,0.983,-0.104,0.153,-0.763,1.373,73.333,168842.000,1.000
-46.918,-7.459,-7.001,-7.627,31.998,43.430,29.865,34.546,0.005,0.984,-0.106,0.153,-0.763,1.343,73.333,168843.000,1.000
-47.172,-8.104,-7.595,-9.779,27.862,38.291,15.526,25.011,0.004,0.984,-0.107,0.061,-0.793,1.373,73.333,168844.000,1.000
-45.735,-6.026,-6.314,-10.266,26.591,36.395,7.771,20.355,0.006,0.985,-0.104,0.061,-0.732,1.343,73.333,168845.000,1.000
-43.164,-2.389,-3.937,-9.608,27.559,37.144,7.384,20.664,0.007,0.985,-0.103,-0.031,-0.793,1.343,73.333,168846.000,1.000
-40.973,0.700,-1.981,-8.942,28.993,38.478,12.036,23.661,0.007,0.984,-0.099,-0.031,-0.854,1.190,73.333,168847.000,1.000
-40.173,1.921,-1.278,-8.848,29.635,38.712,18.318,26.820,0.007,0.986,-0.102,-0.031,-0.824,1.190,73.333,168848.000,1.000
-40.556,1.612,-1.384,-8.891,29.628,37.656,23.780,29.111,0.008,0.988,-0.102,-0.061,-0.763,1.068,73.333,168849.000,1.000
-41.066,1.170,-1.123,-8.147,30.061,36.293,27.611,30.983,0.007,0.986,-0.104,-0.092,-0.641,1.099,73.333,168850.000,1.000
-40.846,1.649,0.247,-6.243,31.623,35.554,30.125,33.051,0.007,0.987,-0.107,-0.031,-0.702,1.068,73.333,168851.000,1.000
-39.750,3.022,2.546,-3.668,33.993,35.554,31.832,35.313,0.006,0.987,-0.108,-0.183,-0.671,0.977,73.333,168852.000,1.000
-37.927,4.751,5.334,-1.064,36.577,35.986,33.050,37.539,0.008,0.985,-0.105,-0.275,-0.580,0.946,73.333,168853.000,1.000
-35.772,6.253,8.199,1.131,38.954,36.564,33.904,39.534,0.009,0.985,-0.102,-0.275,-0.580,0.946,73.333,168854.000,1.000
-34.112,6.988,10.620,2.578,40.805,37.088,34.339,41.154,0.009,0.984,-0.103,-0.275,-0.549,0.916,73.333,168855.000,1.000
-33.909,6.674,11.989,3.003,41.833,37.406,34.337,42.369,0.008,0.983,-0.106,-0.244,-0.549,0.916,73.333,168856.000,1.000
-35.561,5.431,11.929,2.371,41.897,37.463,34.025,43.175,0.006,0.983,-0.105,-0.275,-0.610,0.824,73.333,168857.000,1.000
-38.518,3.716,10.594,1.114,41.230,37.473,33.764,43.614,0.006,0.982,-0.108,-0.305,-0.458,0.732,73.333,168858.000,1.000
-42.007,1.766,8.246,-0.232,40.130,37.639,33.965,43.733,0.007,0.981,-0.106,-0.153,-0.427,0.641,73.333,168859.000,1.000
-45.836,-0.783,4.828,-1.530,38.649,37.796,34.605,43.638,0.006,0.982,-0.107,-0.153,-0.366,0.610,73.333,168860.000,1.000
-50.276,-4.434,0.222,-3.047,36.710,37.600,35.346,43.618,0.005,0.984,-0.107,-0.031,-0.397,0.641,73.333,168861.000,1.000
-55.266,-9.067,-5.157,-4.983,34.458,36.940,36.013,44.102,0.006,0.985,-0.104,-0.031,-0.336,0.610,73.333,168862.000,1.000
-60.079,-13.776,-10.322,-7.216,32.275,36.026,36.652,45.252,0.003,0.987,-0.103,-0.061,-0.275,0.580,73.333,168863.000,1.000
-64.015,-17.662,-14.533,-9.694,30.205,34.868,37.092,46.459,0.002,0.990,-0.102,-0.092,-0.153,0.549,73.333,168864.000,1.000
-66.924,-20.496,-17.701,-12.541,27.855,33.086,36.700,46.762,0.002,0.990,-0.102,-0.214,-0.275,0.549,73.333,168865.000,1.000
-69.138,-22.694,-20.211,-15.815,24.790,30.339,34.909,45.676,0.000,0.990,-0.103,-0.244,-0.305,0.641,73.333,168866.000,1.000
-71.072,-24.857,-22.525,-19.318,20.969,26.769,31.750,43.398,0.000,0.991,-0.104,-0.397,-0.427,0.671,73.333,168867.000,1.000
-72.813,-27.137,-24.768,-22.532,16.955,23.137,27.879,40.530,0.001,0.989,-0.102,-0.549,-0.458,0.732,73.333,168868.000,1.000
-74.295,-29.221,-26.806,-24.930,13.500,20.453,24.298,37.681,-0.001,0.988,-0.103,-0.671,-0.427,0.732,73.333,168869.000,1.000
-75.349,-30.657,-28.325,-26.127,11.194,19.495,22.142,35.473,-0.001,0.988,-0.102,-0.732,-0.519,0.854,73.333,168870.000,1.000
-75.755,-31.276,-29.025,-26.030,10.054,20.104,22.169,34.353,-0.001,0.987,-0.102,-0.793,-0.549,0.885,73.333,168871.000,1.000
-75.687,-31.648,-29.149,-25.172,9.116,20.832,23.632,33.981,-0.002,0.988,-0.104,-0.885,-0.671,0.977,73.333,168872.000,1.000
-75.996,-32.886,-29.645,-24.675,6.898,19.893,24.351,33.320,-0.001,0.989,-0.103,-1.007,-0.793,0.916,73.333,168873.000,1.000
-77.672,-35.761,-31.544,-25.561,2.629,16.579,22.780,31.661,0.000,0.989,-0.102,-1.038,-0.793,0.977,73.333,168874.000,1.000
-80.615,-39.809,-34.827,-27.739,-2.741,11.870,19.442,29.544,-0.002,0.987,-0.100,-1.160,-0.854,0.977,73.333,168875.000,1.000
-83.622,-43.693,-38.412,-30.192,-7.309,7.542,15.817,27.928,-0.001,0.988,-0.100,-1.221,-0.977,0.946,73.333,168876.000,1.000
-85.544,-46.441,-41.255,-32.138,-9.939,4.649,12.439,26.589,0.000,0.985,-0.103,-1.282,-1.038,1.007,73.333,168877.000,1.000
-85.931,-47.930,-42.936,-33.460,-10.861,3.042,8.843,24.287,0.000,0.984,-0.102,-1.282,-1.129,1.099,73.333,168878.000,1.000
-85.186,-48.763,-43.794,-34.498,-11.259,1.810,4.690,20.106,0.001,0.985,-0.100,-1.251,-1.099,1.038,73.333,168879.000,1.000
-84.284,-49.742,-44.594,-35.612,-12.295,0.203,0.371,14.354,0.000,0.984,-0.102,-1.221,-1.129,1.129,73.333,168880.000,1.000
-84.231,-51.208,-45.967,-36.970,-14.327,-1.679,-3.098,8.388,0.001,0.986,-0.100,-1.251,-1.099,1.160,73.333,168881.000,1.000
-85.614,-52.961,-48.117,-38.572,-16.864,-3.164,-4.689,3.754,0.001,0.988,-0.098,-1.251,-1.099,1.221,73.333,168882.000,1.000
-88.430,-54.672,-50.866,-40.333,-19.094,-3.802,-4.036,1.438,-0.001,0.988,-0.097,-1.312,-1.129,1.343,73.333,168883.000,1.000
-92.391,-56.433,-54.050,-42.396,-20.754,-4.025,-1.941,1.128,0.001,0.987,-0.101,-1.343,-1.190,1.465,73.333,168884.000,1.000
-97.015,-58.666,-57.475,-45.013,-22.244,-4.793,-0.155,1.219,0.001,0.985,-0.102,-1.404,-1.251,1.404,73.333,168885.000,1.000
-101.516,-61.448,-60.616,-47.972,-23.935,-6.587,0.087,0.195,0.001,0.984,-0.099,-1.282,-1.221,1.526,73.333,168886.000,1.000
-104.852,-64.188,-62.614,-50.392,-25.613,-8.948,-1.098,-2.064,0.002,0.982,-0.097,-1.282,-1.221,1.495,73.333,168887.000,1.000
-106.130,-66.028,-62.756,-51.363,-26.789,-10.982,-3.226,-4.787,0.002,0.984,-0.095,-1.190,-1.190,1.648,73.333,168888.000,1.000
-105.288,-66.630,-61.210,-50.869,-27.496,-12.329,-6.452,-7.629,0.004,0.984,-0.100,-1.129,-1.099,1.678,73.333,168889.000,1.000
-103.127,-66.303,-58.940,-49.700,-28.113,-13.198,-10.804,-10.503,0.005,0.983,-0.099,-1.038,-1.007,1.678,73.333,168890.000,1.000
-100.923,-65.695,-57.136,-48.825,-28.866,-13.774,-15.030,-12.920,0.006,0.986,-0.099,-1.068,-1.007,1.709,73.333,168891.000,1.000
-99.941,-65.541,-56.693,-48.945,-29.804,-14.129,-17.393,-14.360,0.008,0.984,-0.099,-1.038,-0.916,1.770,73.333,168892.000,1.000
-100.762,-66.205,-57.725,-50.150,-30.793,-14.318,-17.250,-14.799,0.008,0.984,-0.096,-0.977,-0.916,1.770,73.333,168893.000,1.000
-103.136,-67.537,-59.649,-51.969,-31.661,-14.426,-15.539,-14.788,0.006,0.982,-0.098,-0.977,-0.793,1.892,73.333,168894.000,1.000
-106.158,-69.084,-61.545,-53.632,-32.258,-14.516,-14.159,-15.041,0.007,0.981,-0.093,-1.007,-0.702,1.923,73.333,168895.000,1.000
-108.680,-70.379,-62.626,-54.502,-32.502,-14.675,-14.497,-15.881,0.005,0.983,-0.096,-0.946,-0.549,1.984,73.333,168896.000,1.000
-109.924,-71.248,-62.703,-54.425,-32.422,-15.027,-16.308,-16.832,0.007,0.985,-0.097,-0.824,-0.549,2.045,73.333,168897.000,1.000
-109.893,-71.839,-62.225,-53.717,-32.126,-15.528,-18.130,-16.859,0.008,0.985,-0.096,-0.793,-0.427,2.075,73.333,168898.000,1.000
-109.342,-72.507,-62.031,-53.078,-31.948,-16.059,-18.824,-15.639,0.007,0.986,-0.094,-0.793,-0.275,2.106,73.333,168899.000,1.000
-109.109,-73.531,-62.749,-53.246,-32.295,-16.596,-18.619,-14.293,0.009,0.987,-0.094,-0.671,-0.183,2.075,73.333,168900.000,1.000
-109.626,-74.894,-64.462,-54.638,-33.426,-17.199,-18.560,-14.480,0.009,0.988,-0.090,-0.671,-0.092,2.014,73.333,168901.000,1.000
-110.796,-76.302,-66.736,-57.070,-35.214,-17.834,-19.258,-16.805,0.009,0.985,-0.091,-0.732,0.031,1.892,73.333,168902.000,1.000
-112.054,-77.268,-68.700,-59.652,-36.954,-18.264,-20.191,-20.101,0.009,0.985,-0.092,-0.641,0.031,1.953,73.333,168903.000,1.000
-112.833,-77.459,-69.539,-61.288,-37.686,-18.158,-19.641,-22.152,0.010,0.987,-0.096,-0.519,0.122,1.984,73.333,168904.000,1.000
-112.747,-76.771,-68.816,-61.153,-36.510,-16.994,-15.335,-20.770,0.009,0.985,-0.095,-0.458,0.275,1.953,73.333,168905.000,1.000
-111.735,-75.427,-66.760,-59.194,-33.288,-14.582,-6.724,-15.439,0.010,0.985,-0.098,-0.427,0.397,1.770,73.333,168906.000,1.000
-110.370,-74.265,-64.475,-56.447,-29.367,-11.959,2.651,-8.675,0.009,0.986,-0.098,-0.427,0.397,1.709,73.333,168907.000,1.000
-109.626,-74.302,-63.366,-54.403,-26.831,-10.797,7.131,-4.500,0.008,0.986,-0.099,-0.427,0.458,1.587,73.333,168908.000,1.000
-110.259,-75.912,-64.261,-54.039,-26.990,-11.906,3.851,-5.191,0.007,0.984,-0.096,-0.366,0.549,1.556,73.333,168909.000,1.000
-112.119,-78.402,-66.762,-55.187,-29.439,-14.571,-5.342,-9.764,0.006,0.984,-0.095,-0.397,0.580,1.526,73.333,168910.000,1.000
-114.322,-80.541,-69.580,-56.861,-32.560,-17.295,-15.779,-15.287,0.006,0.987,-0.095,-0.305,0.671,1.434,73.333,168911.000,1.000
-116.013,-81.494,-71.508,-58.122,-34.714,-18.918,-22.722,-18.985,0.006,0.987,-0.095,-0.275,0.793,1.434,73.333,168912.000,1.000
-116.551,-81.039,-71.831,-58.380,-34.939,-19.006,-23.389,-19.246,0.005,0.989,-0.095,-0.275,0.854,1.404,73.333,168913.000,1.000
-115.542,-79.425,-70.406,-57.464,-33.338,-17.856,-18.195,-16.148,0.007,0.988,-0.094,-0.183,0.763,1.434,73.333,168914.000,1.000
-113.057,-77.310,-67.719,-55.703,-31.030,-16.304,-10.601,-11.697,0.008,0.987,-0.097,-0.183,0.824,1.404,73.333,168915.000,1.000
-109.948,-75.625,-64.915,-53.966,-29.561,-15.391,-4.851,-8.982,0.008,0.986,-0.099,-0.092,0.824,1.343,73.333,168916.000,1.000
-107.445,-75.058,-63.234,-53.125,-29.825,-15.759,-3.164,-10.004,0.008,0.986,-0.097,-0.031,0.824,1.465,73.333,168917.000,1.000
-106.171,-75.441,-63.087,-53.339,-31.401,-17.017,-4.862,-14.144,0.007,0.984,-0.097,-0.092,0.885,1.495,73.333,168918.000,1.000
-105.948,-76.061,-64.086,-54.265,-33.310,-18.131,-7.986,-19.220,0.006,0.984,-0.099,0.061,0.946,1.587,73.333,168919.000,1.000
-106.180,-76.300,-65.517,-55.487,-34.838,-18.195,-11.214,-23.334,0.007,0.986,-0.094,0.092,0.916,1.526,73.333,168920.000,1.000
-106.437,-75.899,-66.740,-56.709,-35.756,-16.852,-13.998,-25.505,0.007,0.985,-0.093,0.122,0.885,1.556,73.333,168921.000,1.000
-106.814,-75.061,-67.509,-57.830,-36.265,-14.448,-15.889,-25.433,0.004,0.984,-0.097,0.153,0.916,1.617,73.333,168922.000,1.000
-107.710,-74.403,-68.000,-58.920,-36.801,-11.940,-16.515,-23.432,0.003,0.982,-0.094,0.305,0.916,1.648,73.333,168923.000,1.000
-109.421,-74.705,-68.682,-60.192,-37.896,-10.635,-16.166,-20.745,0.003,0.983,-0.097,0.366,0.824,1.709,73.333,168924.000,1.000
-111.533,-76.213,-69.688,-61.514,-39.609,-11.403,-15.854,-18.861,0.002,0.986,-0.095,0.488,0.763,1.770,73.333,168925.000,1.000
-113.067,-78.352,-70.585,-62.289,-41.353,-13.994,-16.373,-18.387,0.002,0.987,-0.095,0.488,0.580,1.740,73.333,168926.000,1.000
-113.315,-80.215,-70.863,-62.022,-42.413,-17.086,-17.371,-18.876,0.004,0.986,-0.095,0.549,0.488,1.801,73.333,168927.000,1.000
-112.196,-80.946,-70.213,-60.663,-42.278,-18.878,-17.289,-19.297,0.003,0.984,-0.096,0.427,0.427,1.892,73.333,168928.000,1.000
-110.211,-80.133,-68.792,-58.743,-40.994,-18.363,-14.870,-18.970,0.004,0.982,-0.095,0.549,0.458,1.923,73.333,168929.000,1.000
-108.041,-78.046,-67.132,-57.077,-39.165,-16.195,-10.969,-18.009,0.006,0.981,-0.094,0.397,0.519,1.953,73.333,168930.000,1.000
-106.108,-75.383,-65.677,-56.204,-37.413,-13.967,-7.532,-16.540,0.006,0.983,-0.094,0.488,0.519,2.106,73.333,168931.000,1.000
-104.371,-72.736,-64.414,-56.044,-35.792,-12.655,-5.302,-14.097,0.008,0.987,-0.097,0.488,0.427,2.197,73.333,168932.000,1.000
-102.518,-70.359,-63.014,-56.149,-34.034,-12.263,-4.370,-10.889,0.008,0.987,-0.094,0.549,0.549,2.319,73.333,168933.000,1.000
-100.723,-68.695,-61.636,-56.456,-32.495,-12.871,-5.883,-9.148,0.009,0.988,-0.096,0.519,0.458,2.411,73.333,168934.000,1.000
-99.633,-68.441,-60.913,-57.197,-31.842,-14.712,-10.786,-11.226,0.007,0.988,-0.096,0.458,0.458,2.411,73.333,168935.000,1.000
-99.640,-69.886,-61.181,-58.254,-32.153,-17.374,-17.703,-16.884,0.007,0.986,-0.095,0.214,0.427,2.380,73.333,168936.000,1.000
-100.459,-72.543,-62.125,-59.102,-32.924,-19.905,-23.891,-23.588,0.007,0.986,-0.095,0.153,0.458,2.411,73.333,168937.000,1.000
-101.235,-75.325,-62.932,-59.137,-33.483,-21.508,-27.132,-28.417,0.009,0.986,-0.099,0.214,0.580,2.380,73.333,168938.000,1.000
-101.271,-77.207,-62.955,-58.164,-33.495,-22.110,-26.364,-29.507,0.009,0.983,-0.098,0.214,0.519,2.319,73.333,168939.000,1.000
-100.510,-77.738,-62.134,-56.582,-33.224,-22.339,-22.350,-26.931,0.010,0.986,-0.096,0.183,0.519,2.136,73.333,168940.000,1.000
-99.405,-77.089,-60.933,-55.157,-33.413,-22.996,-17.787,-22.966,0.012,0.985,-0.101,0.183,0.702,2.106,73.333,168941.000,1.000
-98.430,-75.833,-59.895,-54.467,-34.573,-24.350,-15.439,-20.581,0.014,0.987,-0.100,0.153,0.732,2.197,73.333,168942.000,1.000
-97.664,-74.547,-59.122,-54.363,-36.227,-25.839,-15.843,-20.854,0.014,0.986,-0.100,0.092,0.916,2.136,73.333,168943.000,1.000
-96.994,-73.668,-58.415,-54.284,-37.366,-26.694,-17.362,-22.412,0.015,0.986,-0.096,0.122,0.854,2.228,73.333,168944.000,1.000
-96.210,-73.270,-57.451,-53.705,-37.225,-26.426,-18.215,-23.192,0.016,0.982,-0.101,0.000,1.038,2.106,73.333,168945.000,1.000
-95.082,-72.947,-55.954,-52.353,-35.674,-24.844,-17.704,-22.251,0.014,0.977,-0.100,0.092,1.099,1.984,73.333,168946.000,1.000
-93.677,-72.281,-54.028,-50.376,-33.247,-22.241,-16.211,-20.185,0.015,0.974,-0.101,0.183,1.282,1.923,73.333,168947.000,1.000
-92.443,-71.339,-52.206,-48.334,-30.826,-19.444,-14.529,-18.272,0.015,0.973,-0.101,0.305,1.404,1.953,73.333,168948.000,1.000
-92.031,-70.650,-51.173,-46.918,-29.178,-17.337,-12.491,-17.070,0.015,0.978,-0.100,0.397,1.556,1.801,73.333,168949.000,1.000
-92.662,-70.537,-51.114,-46.389,-28.475,-16.300,-9.024,-15.933,0.017,0.983,-0.104,0.397,1.740,1.740,73.333,168950.000,1.000
-93.910,-70.855,-51.731,-46.677,-28.764,-16.510,-4.787,-14.704,0.017,0.987,-0.102,0.427,1.770,1.709,73.333,168951.000,1.000
-95.177,-71.405,-52.804,-47.780,-30.406,-18.270,-3.092,-14.827,0.017,0.989,-0.102,0.397,1.892,1.740,73.333,168952.000,1.000
-96.016,-71.996,-54.147,-49.452,-33.268,-21.368,-6.492,-17.442,0.015,0.990,-0.101,0.183,1.953,1.770,73.333,168953.000,1.000
-96.358,-72.416,-55.463,-51.097,-36.293,-24.816,-13.937,-21.668,0.014,0.989,-0.102,0.031,2.045,1.740,73.333,168954.000,1.000
-96.325,-72.457,-56.364,-52.099,-38.078,-27.263,-21.790,-25.323,0.013,0.988,-0.102,-0.092,2.167,1.709,73.333,168955.000,1.000
-95.926,-71.923,-56.540,-52.193,-37.804,-27.685,-26.306,-26.784,0.012,0.989,-0.101,-0.031,2.197,1.740,73.333,168956.000,1.000
-95.013,-70.700,-55.893,-51.532,-35.711,-26.094,-25.881,-26.046,0.012,0.989,-0.100,-0.122,2.106,1.678,73.333,168957.000,1.000
-93.426,-68.795,-54.482,-50.438,-32.786,-23.470,-22.018,-24.308,0.008,0.993,-0.097,-0.153,2.136,1.770,73.333,168958.000,1.000
-91.360,-66.474,-52.615,-49.291,-30.156,-20.946,-17.717,-22.815,0.006,0.995,-0.097,-0.275,2.136,1.556,73.333,168959.000,1.000
-89.309,-64.173,-50.676,-48.326,-28.280,-18.869,-14.588,-21.753,0.004,0.999,-0.098,-0.427,1.984,1.434,73.333,168960.000,1.000
-87.848,-62.335,-49.041,-47.682,-26.917,-16.772,-11.879,-20.442,0.001,0.997,-0.098,-0.702,1.953,1.251,73.333,168961.000,1.000
-87.416,-61.426,-48.182,-47.606,-25.914,-14.419,-8.585,-18.599,0.001,0.997,-0.097,-0.977,1.770,1.190,73.333,168962.000,1.000
-87.959,-61.749,-48.434,-48.317,-25.616,-12.510,-5.602,-16.892,0.002,0.995,-0.098,-1.099,1.526,1.160,73.333,168963.000,1.000
-88.923,-63.150,-49.707,-49.760,-26.483,-12.113,-4.742,-16.069,0.003,0.993,-0.098,-1.312,1.373,1.038,73.333,168964.000,1.000
-89.441,-64.776,-51.232,-51.216,-28.121,-13.341,-6.261,-15.740,0.002,0.990,-0.098,-1.404,1.221,0.977,73.333,168965.000,1.000
-88.941,-65.596,-52.122,-51.714,-29.476,-15.345,-8.609,-15.068,0.003,0.990,-0.100,-1.495,1.099,0.946,73.333,168966.000,1.000
-87.696,-65.407,-52.316,-51.040,-30.094,-17.455,-10.502,-14.394,0.002,0.989,-0.097,-1.556,0.885,1.099,73.333,168967.000,1.000
-86.451,-64.824,-52.447,-49.808,-30.433,-19.414,-11.984,-14.993,0.001,0.988,-0.097,-1.556,0.824,1.068,73.333,168968.000,1.000
-85.841,-64.552,-53.143,-48.782,-31.237,-21.010,-13.567,-17.595,0.003,0.987,-0.094,-1.556,0.702,1.221,73.333,168969.000,1.000
-85.968,-64.768,-54.412,-48.220,-32.688,-21.982,-15.325,-21.487,0.002,0.985,-0.094,-1.526,0.488,1.221,73.333,168970.000,1.000
-86.416,-64.996,-55.628,-47.844,-34.168,-22.160,-16.585,-24.821,0.004,0.986,-0.093,-1.587,0.336,1.343,73.333,168971.000,1.000
-86.527,-64.442,-55.885,-47.095,-34.579,-21.406,-15.786,-25.411,0.006,0.986,-0.092,-1.556,0.275,1.648,73.333,168972.000,1.000
-85.791,-62.646,-54.550,-45.498,-33.118,-19.668,-11.459,-22.011,0.007,0.985,-0.095,-1.587,0.214,1.862,73.333,168973.000,1.000
-84.463,-60.296,-52.167,-43.476,-30.579,-17.657,-4.848,-16.369,0.006,0.984,-0.094,-1.526,-0.061,1.953,73.333,168974.000,1.000
-83.278,-58.838,-50.218,-42.224,-29.073,-16.662,-0.376,-12.733,0.008,0.983,-0.094,-1.526,-0.122,2.167,73.333,168975.000,1.000
-82.673,-59.162,-49.824,-42.586,-30.099,-17.339,-1.611,-13.893,0.006,0.983,-0.092,-1.465,-0.275,2.319,73.333,168976.000,1.000
-82.614,-61.058,-51.002,-44.430,-33.361,-19.237,-7.944,-18.716,0.008,0.982,-0.094,-1.465,-0.427,2.289,73.333,168977.000,1.000
-82.776,-63.549,-52.851,-46.901,-37.268,-21.348,-15.951,-24.065,0.007,0.979,-0.095,-1.282,-0.397,2.411,73.333,168978.000,1.000
-82.850,-65.535,-54.318,-49.071,-40.251,-22.852,-22.454,-27.959,0.007,0.979,-0.095,-1.129,-0.427,2.441,73.333,168979.000,1.000
-82.581,-66.212,-54.667,-50.212,-41.361,-23.268,-25.743,-30.067,0.008,0.979,-0.096,-0.916,-0.488,2.411,73.333,168980.000,1.000
-81.856,-65.318,-53.729,-50.034,-40.366,-22.252,-25.284,-30.558,0.009,0.978,-0.094,-0.885,-0.580,2.502,73.333,168981.000,1.000
-80.698,-63.112,-51.813,-48.718,-37.607,-19.577,-21.672,-29.468,0.009,0.976,-0.093,-0.641,-0.702,2.502,73.333,168982.000,1.000
-78.921,-59.955,-49.143,-46.477,-33.529,-15.402,-16.536,-26.638,0.012,0.977,-0.092,-0.549,-0.732,2.350,73.333,168983.000,1.000
-76.483,-56.425,-45.990,-43.679,-28.837,-10.865,-11.922,-22.343,0.011,0.976,-0.092,-0.305,-0.763,2.319,73.333,168984.000,1.000
-74.007,-53.694,-43.146,-41.198,-24.826,-7.930,-9.722,-17.988,0.013,0.976,-0.095,-0.275,-0.671,2.350,73.333,168985.000,1.000
-72.568,-53.081,-41.730,-40.134,-22.990,-8.184,-10.891,-15.623,0.014,0.975,-0.093,-0.031,-0.641,2.167,73.333,168986.000,1.000
-72.740,-54.961,-42.233,-40.918,-23.916,-11.580,-14.592,-16.231,0.014,0.977,-0.093,0.275,-0.641,2.136,73.333,168987.000,1.000
-73.902,-58.207,-43.889,-42.806,-26.619,-16.197,-18.350,-18.750,0.016,0.979,-0.091,0.458,-0.519,2.136,73.333,168988.000,1.000
-74.928,-61.123,-45.488,-44.609,-29.481,-19.640,-19.692,-21.218,0.017,0.980,-0.093,0.549,-0.458,1.953,73.333,168989.000,1.000
-75.183,-62.810,-46.413,-45.527,-31.443,-20.781,-18.020,-22.120,0.018,0.980,-0.093,0.488,-0.549,1.862,73.333,168990.000,1.000
-74.902,-63.592,-46.889,-45.418,-32.408,-20.252,-14.849,-20.847,0.018,0.981,-0.094,0.610,-0.397,1.892,73.333,168991.000,1.000
-74.741,-64.304,-47.446,-44.588,-32.812,-19.349,-12.453,-17.868,0.017,0.982,-0.094,0.671,-0.336,1.831,73.333,168992.000,1.000
-74.962,-65.161,-48.127,-43.354,-32.809,-18.421,-11.955,-14.409,0.017,0.982,-0.093,0.641,-0.122,1.862,73.333,168993.000,1.000
-75.387,-65.602,-48.541,-42.009,-32.165,-16.750,-12.398,-11.575,0.017,0.984,-0.097,0.793,-0.031,1.740,73.333,168994.000,1.000
-75.803,-65.028,-48.384,-40.878,-30.677,-13.797,-11.825,-9.509,0.017,0.985,-0.095,0.824,-0.031,1.678,73.333,168995.000,1.000
-76.312,-63.536,-47.910,-40.386,-28.724,-10.230,-8.977,-7.677,0.018,0.985,-0.097,0.885,0.031,1.678,73.333,168996.000,1.000
-77.267,-62.041,-47.901,-40.987,-27.364,-7.745,-4.587,-6.011,0.019,0.988,-0.097,0.793,0.244,1.740,73.333,168997.000,1.000
-78.887,-61.697,-49.049,-42.894,-27.790,-8.057,-1.808,-5.684,0.019,0.990,-0.097,0.824,0.397,1.709,73.333,168998.000,1.000
-81.099,-63.135,-51.475,-46.025,-30.647,-11.833,-4.239,-8.481,0.018,0.993,-0.094,0.824,0.488,1.709,73.333,168999.000,1.000
-83.233,-65.734,-54.297,-49.708,-35.096,-17.746,-12.227,-14.510,0.016,0.993,-0.094,0.702,0.549,1.770,73.333,169000.000,1.000
-84.174,-67.772,-55.946,-52.636,-38.892,-22.947,-21.660,-21.122,0.016,0.995,-0.097,0.488,0.580,1.709,73.333,169001.000,1.000
-83.141,-67.719,-55.262,-53.533,-39.951,-25.066,-27.249,-24.905,0.014,0.993,-0.096,0.336,0.610,1.709,73.333,169002.000,1.000
-80.273,-65.400,-52.391,-52.052,-37.885,-23.739,-26.712,-24.535,0.014,0.990,-0.097,0.153,0.732,1.709,73.333,169003.000,1.000
-76.673,-62.108,-48.840,-49.218,-34.297,-20.568,-21.760,-21.607,0.015,0.990,-0.098,0.122,0.854,1.678,73.333,169004.000,1.000
-73.480,-59.466,-46.224,-46.523,-31.292,-17.649,-16.022,-18.684,0.018,0.990,-0.098,0.122,0.793,1.648,73.333,169005.000,1.000
-71.331,-58.549,-45.340,-45.001,-30.211,-16.444,-12.783,-17.502,0.018,0.991,-0.098,0.092,0.793,1.801,73.333,169006.000,1.000
-70.738,-60.046,-46.511,-45.233,-31.654,-17.765,-14.013,-18.956,0.017,0.992,-0.099,0.031,0.916,1.831,73.333,169007.000,1.000
-72.019,-64.034,-49.666,-47.248,-35.334,-21.537,-19.386,-22.866,0.015,0.996,-0.096,0.000,0.946,1.831,73.333,169008.000,1.000
-74.741,-69.362,-53.871,-50.174,-39.743,-26.329,-25.838,-27.428,0.014,0.997,-0.093,-0.214,1.007,2.014,73.333,169009.000,1.000
