EEG 1,EEG 2,EEG 3,EEG 4,EEG 5,EEG 6,EEG 7,EEG 8,Accelerometer X,Accelerometer Y,Accelerometer Z,Gyroscope X,Gyroscope Y,Gyroscope Z,Battery Level,Counter,Validation Indicator
-7565.133,-7621.967,-2974.648,-4694.152,-3809.340,-7424.654,-14.010,-5814.221,-0.007,0.917,-0.327,0.000,0.000,0.000,73.333,1.000,1.000
-51524.831,-52791.242,-11738.274,-34592.448,-27059.033,-51531.204,4987.497,-36366.216,-0.009,0.927,-0.341,0.000,0.000,0.000,73.333,2.000,1.000
-168803.049,-175797.442,-37316.375,-124080.000,-91043.657,-171951.063,35199.148,-105732.112,-0.010,0.933,-0.344,0.000,0.000,0.000,73.333,3.000,1.000
-360998.122,-378656.725,-84198.249,-293001.094,-195825.054,-374623.275,116142.890,-193976.866,-0.011,0.936,-0.344,0.000,0.000,0.000,73.333,4.000,1.000
-578614.711,-601199.958,-146058.274,-522370.078,-306819.522,-613602.545,240857.951,-258416.999,-0.010,0.938,-0.348,-0.641,0.488,0.519,73.333,5.000,1.000
-754602.655,-752311.413,-205867.734,-754077.492,-375224.994,-815153.196,353934.577,-272993.263,-0.008,0.938,-0.351,-2.899,5.981,3.784,73.333,6.000,1.000
-843222.665,-762377.211,-237727.828,-906280.091,-369267.993,-909719.631,385744.713,-254151.149,-0.007,0.936,-0.354,1.740,4.791,0.946,73.333,7.000,1.000
-830059.632,-620172.725,-215100.108,-905537.867,-290193.016,-861168.067,292355.735,-255474.821,-0.006,0.934,-0.356,2.502,4.578,0.336,73.333,8.000,1.000
-727932.878,-378625.476,-127506.690,-730548.371,-168093.437,-688022.210,68625.434,-324574.956,-0.004,0.933,-0.358,3.113,4.395,-0.214,73.333,9.000,1.000
-573036.783,-128249.037,8871.017,-433012.689,-45913.714,-456191.083,-244388.984,-456639.434,-0.004,0.932,-0.361,3.296,4.333,-0.244,73.333,10.000,1.000
-409018.895,49901.313,159137.777,-110389.529,40554.736,-242121.142,-558827.631,-592428.244,0.000,0.930,-0.361,3.326,4.425,-0.305,73.333,11.000,1.000
-264728.075,124384.855,288063.863,148088.313,79406.891,-94132.395,-775942.663,-657677.664,0.003,0.929,-0.368,3.235,4.456,-0.092,73.333,12.000,1.000
-149745.681,117994.118,373660.750,299239.861,83653.404,-19437.473,-840542.949,-610454.829,0.005,0.928,-0.368,3.296,4.669,0.153,73.333,13.000,1.000
-67611.515,76682.428,411740.175,349495.229,74358.067,1419.663,-763325.453,-468157.997,0.007,0.928,-0.369,3.357,4.944,0.275,73.333,14.000,1.000
-23629.483,34367.878,413513.570,335609.807,63631.953,-7027.647,-599791.925,-296047.877,0.010,0.923,-0.375,3.357,5.157,0.427,73.333,15.000,1.000
-16700.162,2648.500,397478.927,299689.609,53415.072,-25870.435,-415631.125,-162537.414,0.011,0.920,-0.371,3.540,5.463,0.549,73.333,16.000,1.000
-30842.718,-17262.455,379576.376,270480.128,44842.439,-41733.426,-263475.565,-96451.503,0.010,0.917,-0.376,3.937,5.768,0.610,73.333,17.000,1.000
-43352.517,-23808.533,367718.641,257823.197,42349.014,-46213.126,-171937.577,-81499.914,0.007,0.912,-0.379,4.211,5.951,0.793,73.333,18.000,1.000
-42565.908,-17535.870,362796.605,258762.172,48018.875,-38603.155,-141222.001,-85800.605,0.004,0.908,-0.377,4.639,6.134,0.977,73.333,19.000,1.000
-33970.661,-6475.136,362706.855,266553.424,56670.164,-26097.958,-147816.163,-91124.351,0.002,0.903,-0.374,5.096,6.317,1.007,73.333,20.000,1.000
-28198.543,-1609.041,364990.417,275432.983,60376.455,-17459.705,-160948.258,-95422.588,0.000,0.900,-0.377,5.829,6.287,1.007,73.333,21.000,1.000
-27030.629,-6210.508,367225.237,281142.504,57071.340,-15451.100,-161640.870,-97852.906,-0.005,0.901,-0.377,6.439,6.226,0.977,73.333,22.000,1.000
-23951.755,-13139.111,367227.309,281139.637,52029.196,-16077.282,-149390.022,-92069.062,-0.010,0.901,-0.377,7.019,6.042,0.946,73.333,23.000,1.000
-15462.001,-14032.228,364178.389,275890.494,50729.290,-14697.862,-133077.991,-74975.580,-0.014,0.901,-0.378,7.599,5.890,0.763,73.333,24.000,1.000
-6476.559,-8738.271,359339.552,268931.342,52685.966,-11135.743,-118516.031,-54480.014,-0.017,0.902,-0.378,8.087,5.676,0.671,73.333,25.000,1.000
-3365.112,-3755.892,354934.832,264164.585,53559.048,-8279.430,-105493.946,-42654.701,-0.020,0.902,-0.379,8.575,5.371,0.397,73.333,26.000,1.000
-5376.747,-3210.266,352126.289,262691.154,51543.573,-7387.963,-93301.442,-42529.806,-0.023,0.901,-0.382,9.003,5.005,0.214,73.333,27.000,1.000
-6082.960,-4553.128,350300.265,262595.090,49288.656,-6655.485,-84255.494,-45761.455,-0.024,0.899,-0.381,9.521,4.669,0.031,73.333,28.000,1.000
-1963.753,-3388.680,348282.397,261690.209,49649.733,-4206.526,-80476.351,-43562.178,-0.026,0.896,-0.380,9.979,4.211,-0.244,73.333,29.000,1.000
3726.542,304.287,345785.100,259806.904,51756.909,-793.429,-79814.227,-36336.110,-0.029,0.896,-0.379,10.468,3.693,-0.702,73.333,30.000,1.000
6115.128,2734.871,343386.829,258167.273,52503.429,1354.865,-77526.986,-30733.044,-0.030,0.899,-0.379,10.803,3.204,-1.160,73.333,31.000,1.000
5067.820,1816.311,341423.602,257241.543,50787.838,1515.278,-71591.973,-29894.477,-0.029,0.903,-0.378,11.230,2.655,-1.556,73.333,32.000,1.000
4548.788,-255.211,339455.058,256096.981,48654.876,1192.629,-64505.442,-30106.242,-0.029,0.909,-0.384,11.475,2.167,-1.831,73.333,33.000,1.000
6940.026,-249.617,336931.578,253860.549,48311.481,1999.787,-59560.301,-26854.563,-0.026,0.914,-0.381,11.719,1.770,-2.045,73.333,34.000,1.000
10341.349,2012.704,333996.826,251049.844,49409.235,3782.394,-56905.584,-20956.733,-0.025,0.917,-0.383,11.902,1.343,-2.228,73.333,35.000,1.000
11733.744,3979.585,331304.872,248939.140,49944.863,5216.307,-54230.979,-16898.547,-0.026,0.918,-0.386,12.024,0.977,-2.350,73.333,36.000,1.000
10972.155,3929.022,329170.723,247917.502,49017.322,5641.512,-50302.306,-16683.034,-0.025,0.921,-0.385,12.054,0.671,-2.441,73.333,37.000,1.000
10451.618,2825.002,327225.329,247064.893,47688.876,5668.842,-46300.288,-17650.658,-0.024,0.918,-0.387,12.115,0.305,-2.441,73.333,38.000,1.000
11700.898,2587.550,324962.784,245407.347,47278.915,6147.573,-43702.058,-16373.507,-0.021,0.915,-0.393,12.177,0.061,-2.472,73.333,39.000,1.000
13738.150,3636.399,322374.443,243106.597,47721.696,7134.381,-42171.878,-12826.398,-0.020,0.913,-0.397,12.207,0.031,-2.350,73.333,40.000,1.000
14815.806,4777.770,319863.767,241094.967,47962.610,8053.414,-40250.323,-9736.882,-0.017,0.909,-0.400,12.085,0.061,-2.472,73.333,41.000,1.000
14653.087,4971.772,317665.319,239799.684,47428.584,8506.173,-37412.300,-8833.811,-0.014,0.907,-0.405,12.177,0.061,-2.563,73.333,42.000,1.000
14372.571,4449.651,315580.688,238674.732,46557.472,8631.810,-34527.755,-9066.547,-0.012,0.906,-0.403,12.482,0.153,-2.625,73.333,43.000,1.000
14850.617,4124.581,313307.242,237025.071,46033.246,8808.716,-32446.242,-8422.139,-0.011,0.903,-0.403,12.695,0.153,-2.625,73.333,44.000,1.000
15859.714,4469.542,310839.507,234913.610,45986.785,9254.518,-30950.320,-6402.563,-0.007,0.904,-0.406,13.000,0.244,-2.563,73.333,45.000,1.000
16690.198,5191.204,308424.953,232992.991,46046.397,9903.589,-29338.998,-4212.814,-0.004,0.902,-0.405,13.184,0.427,-2.472,73.333,46.000,1.000
17010.033,5704.815,306212.554,231612.224,45858.784,10501.630,-27451.485,-3059.999,-0.001,0.898,-0.408,13.397,0.641,-2.289,73.333,47.000,1.000
16990.992,5691.687,304090.566,230415.661,45375.473,10805.832,-25657.455,-2889.106,0.002,0.898,-0.410,13.702,0.916,-2.197,73.333,48.000,1.000
16988.787,5327.499,301874.535,228872.235,44792.067,10828.071,-24140.394,-2710.323,0.005,0.897,-0.411,13.855,1.251,-2.045,73.333,49.000,1.000
17299.482,5132.467,299540.309,226952.065,44377.700,10895.232,-22704.303,-1742.157,0.008,0.896,-0.409,14.221,1.617,-1.953,73.333,50.000,1.000
17972.337,5494.578,297211.932,225093.876,44272.754,11324.005,-21237.967,-123.910,0.011,0.895,-0.413,14.496,2.075,-1.862,73.333,51.000,1.000
18660.592,6200.923,294981.704,223604.660,44308.741,11995.426,-19911.668,1305.240,0.015,0.898,-0.412,14.709,2.625,-1.678,73.333,52.000,1.000
18866.028,6568.407,292818.192,222307.644,44103.871,12422.808,-18789.195,1864.562,0.019,0.901,-0.411,14.954,3.082,-1.373,73.333,53.000,1.000
18563.685,6236.968,290638.909,220827.245,43498.695,12360.870,-17610.127,1769.243,0.022,0.905,-0.410,15.137,3.662,-1.099,73.333,54.000,1.000
18402.585,5718.760,288410.718,219068.715,42839.555,12190.748,-16202.701,1974.980,0.025,0.908,-0.411,15.167,4.181,-0.946,73.333,55.000,1.000
18962.994,5849.048,286162.194,217288.535,42614.654,12475.285,-14855.449,3122.323,0.024,0.910,-0.410,15.228,4.852,-0.641,73.333,56.000,1.000
19907.086,6683.333,283936.508,215738.405,42793.439,13194.005,-13940.900,4695.228,0.024,0.914,-0.414,15.106,5.432,-0.366,73.333,57.000,1.000
20292.048,7319.709,281756.459,214370.726,42781.352,13714.369,-13291.815,5541.422,0.021,0.921,-0.416,14.984,6.104,-0.122,73.333,58.000,1.000
19824.156,7042.695,279613.908,212938.046,42178.510,13623.293,-12346.016,5316.963,0.019,0.927,-0.414,14.740,6.622,0.000,73.333,59.000,1.000
19363.383,6332.878,277463.906,211299.819,41359.389,13318.630,-10960.677,5038.384,0.015,0.933,-0.418,14.282,7.050,0.122,73.333,60.000,1.000
19833.586,6298.688,275213.800,209520.571,40978.113,13505.637,-9696.438,5851.156,0.011,0.938,-0.416,13.824,7.538,0.183,73.333,61.000,1.000
20925.846,7187.275,272714.815,207646.423,40949.302,14235.119,-9055.177,7491.059,0.008,0.944,-0.416,13.275,7.904,0.183,73.333,62.000,1.000
21438.172,7995.249,269786.735,205483.449,40321.200,14806.656,-8720.104,8536.311,0.003,0.950,-0.415,12.634,8.179,0.214,73.333,63.000,1.000
20902.690,7794.380,266278.856,202690.888,38348.419,14711.274,-7945.526,8268.354,-0.004,0.953,-0.417,11.932,8.331,0.427,73.333,64.000,1.000
20279.686,7012.911,262132.058,199093.104,35392.746,14338.601,-6610.850,7692.831,-0.007,0.956,-0.411,11.139,8.331,0.610,73.333,65.000,1.000
20684.479,6887.813,257439.488,194879.909,32452.587,14459.860,-5432.237,8252.100,-0.012,0.957,-0.410,10.315,8.362,0.702,73.333,66.000,1.000
21844.363,7785.024,252483.172,190506.400,29964.959,15176.533,-4973.516,9876.957,-0.014,0.957,-0.408,9.369,8.240,0.793,73.333,67.000,1.000
22437.274,8682.287,247647.705,186384.274,27477.079,15778.411,-4830.718,11033.602,-0.016,0.955,-0.405,8.423,7.996,0.854,73.333,68.000,1.000
21895.315,8551.836,243200.785,182638.438,24554.427,15713.726,-4170.835,10776.807,-0.017,0.952,-0.400,7.416,7.721,0.793,73.333,69.000,1.000
21197.505,7764.236,239132.849,179137.621,21591.096,15340.809,-2897.934,10047.787,-0.019,0.951,-0.395,6.470,7.599,0.793,73.333,70.000,1.000
21537.111,7584.219,235243.595,175733.083,19359.512,15431.128,-1803.307,10418.886,-0.020,0.946,-0.393,5.463,7.294,0.671,73.333,71.000,1.000
22685.769,8445.285,231389.147,172430.502,17929.921,16113.260,-1468.041,11962.314,-0.018,0.943,-0.389,4.486,7.111,0.732,73.333,72.000,1.000
23309.749,9367.451,227605.616,169319.367,16498.504,16707.450,-1448.726,13148.654,-0.016,0.940,-0.385,3.571,6.836,0.916,73.333,73.000,1.000
22800.291,9305.054,223985.590,166387.870,14412.602,16663.161,-890.913,12924.363,-0.017,0.937,-0.384,2.625,6.409,0.946,73.333,74.000,1.000
22095.953,8564.369,220503.974,163489.521,12011.852,16302.044,285.727,12136.491,-0.017,0.935,-0.378,1.709,6.256,0.977,73.333,75.000,1.000
22381.177,8360.559,217039.217,160518.450,10140.810,16360.621,1284.374,12368.077,-0.015,0.933,-0.374,0.793,6.012,1.129,73.333,76.000,1.000
23471.249,9152.727,213550.961,157559.297,9004.444,16984.166,1543.704,13789.342,-0.013,0.931,-0.375,-0.031,5.707,1.190,73.333,77.000,1.000
24094.104,10044.743,210152.700,154795.559,7921.292,17550.590,1508.454,14953.743,-0.011,0.929,-0.372,-0.793,5.493,1.251,73.333,78.000,1.000
23642.716,10035.260,206966.407,152278.690,6278.704,17535.342,1998.527,14782.622,-0.010,0.927,-0.369,-1.617,5.310,1.373,73.333,79.000,1.000
22976.827,9370.097,203955.277,149858.148,4358.330,17211.846,3075.545,14007.726,-0.009,0.921,-0.369,-2.289,5.005,1.556,73.333,80.000,1.000
23213.280,9166.314,200966.858,147371.427,2918.423,17249.702,3978.985,14135.667,-0.008,0.921,-0.368,-2.930,4.700,1.801,73.333,81.000,1.000
24209.823,9877.566,197930.452,144848.713,2143.135,17798.708,4190.790,15400.519,-0.007,0.920,-0.370,-3.601,4.486,1.862,73.333,82.000,1.000
24805.893,10713.423,194941.002,142462.420,1406.024,18313.715,4134.857,16495.506,-0.006,0.920,-0.361,-4.272,4.333,2.106,73.333,83.000,1.000
24426.773,10753.824,192119.189,140289.749,138.382,18320.091,4566.459,16383.870,-0.007,0.918,-0.364,-4.730,4.120,2.380,73.333,84.000,1.000
23829.750,10185.711,189443.377,138206.415,-1413.425,18045.538,5533.382,15677.109,-0.005,0.916,-0.360,-5.402,3.937,2.747,73.333,85.000,1.000
24025.100,9997.126,186781.532,136052.677,-2557.794,18078.639,6342.000,15747.217,-0.004,0.918,-0.360,-6.012,3.815,2.991,73.333,86.000,1.000
24909.327,10615.958,184072.189,133845.749,-3107.156,18564.324,6531.625,16859.636,-0.004,0.917,-0.366,-6.409,3.571,3.387,73.333,87.000,1.000
25462.038,11370.643,181402.901,131752.050,-3604.799,19037.690,6487.426,17872.245,-0.003,0.917,-0.364,-6.897,3.418,3.571,73.333,88.000,1.000
25160.252,11448.327,178883.166,129859.236,-4562.599,19079.873,6877.577,17828.519,-0.004,0.917,-0.362,-7.263,3.235,3.815,73.333,89.000,1.000
24647.866,10984.968,176491.998,128057.143,-5783.734,18870.602,7736.487,17220.815,-0.003,0.918,-0.363,-7.721,2.991,4.028,73.333,90.000,1.000
24806.973,10825.516,174107.675,126185.426,-6671.093,18908.482,8453.124,17255.168,-0.001,0.918,-0.363,-8.209,2.808,4.364,73.333,91.000,1.000
25567.532,11355.942,171671.955,124244.589,-7050.723,19327.111,8630.322,18208.049,0.002,0.917,-0.359,-8.514,2.655,4.700,73.333,92.000,1.000
26061.920,12021.436,169261.823,122387.093,-7379.305,19744.190,8606.121,19116.321,0.005,0.914,-0.361,-8.881,2.594,4.944,73.333,93.000,1.000
25832.040,12126.181,166977.054,120707.105,-8098.141,19806.128,8955.411,19132.629,0.007,0.914,-0.363,-9.094,2.502,5.188,73.333,94.000,1.000
25410.194,11764.250,164803.806,119115.706,-9050.472,19654.086,9705.474,18640.372,0.007,0.914,-0.360,-9.308,2.472,5.524,73.333,95.000,1.000
25543.373,11637.402,162637.936,117464.482,-9733.139,19699.538,10337.233,18663.639,0.013,0.917,-0.360,-9.521,2.380,5.951,73.333,96.000,1.000
26188.152,12083.165,160427.388,115743.105,-9989.635,20060.266,10517.611,19469.103,0.017,0.920,-0.361,-9.857,2.350,6.195,73.333,97.000,1.000
26627.831,12658.846,158236.047,114084.752,-10193.045,20429.179,10530.847,20267.959,0.021,0.918,-0.362,-10.071,2.441,6.470,73.333,98.000,1.000
26470.903,12786.839,156148.619,112580.399,-10715.033,20513.053,10852.998,20333.024,0.023,0.912,-0.360,-10.284,2.472,6.714,73.333,99.000,1.000
26139.932,12524.028,154153.939,111157.746,-11438.720,20414.898,11502.242,19950.634,0.027,0.909,-0.360,-10.406,2.502,6.927,73.333,100.000,1.000
26246.598,12432.298,152164.142,109682.938,-11955.084,20462.754,12050.356,19964.753,0.027,0.906,-0.363,-10.345,2.563,7.141,73.333,101.000,1.000
26770.810,12797.850,150134.918,108139.013,-12127.146,20760.131,12228.311,20624.493,0.028,0.901,-0.363,-10.193,2.686,7.324,73.333,102.000,1.000
27143.195,13281.705,148119.567,106640.348,-12247.380,21072.848,12270.617,21307.309,0.031,0.896,-0.366,-9.949,2.899,7.446,73.333,103.000,1.000
27042.210,13420.518,146189.851,105272.922,-12616.930,21167.632,12561.542,21408.227,0.032,0.893,-0.369,-9.552,3.052,7.568,73.333,104.000,1.000
26792.655,13242.557,144338.606,103981.557,-13151.766,21115.174,13113.443,21128.680,0.037,0.892,-0.371,-9.216,3.143,7.568,73.333,105.000,1.000
26879.403,13182.342,142494.297,102650.102,-13530.320,21165.946,13584.680,21140.778,0.037,0.899,-0.371,-8.636,3.296,7.660,73.333,106.000,1.000
27298.421,13474.555,140619.137,101256.696,-13637.680,21405.462,13764.132,21668.046,0.037,0.903,-0.372,-8.301,3.571,7.721,73.333,107.000,1.000
27611.489,13870.274,138754.288,99894.673,-13696.115,21661.335,13837.273,22237.830,0.041,0.908,-0.372,-7.996,3.723,7.690,73.333,108.000,1.000
27561.619,14011.222,136957.187,98640.557,-13942.916,21755.218,14103.008,22363.731,0.042,0.909,-0.373,-7.782,3.784,7.721,73.333,109.000,1.000
27387.293,13904.944,135223.217,97453.399,-14322.324,21733.820,14569.412,22177.917,0.043,0.912,-0.376,-7.599,4.089,7.629,73.333,110.000,1.000
27458.768,13873.813,133496.317,96235.652,-14590.902,21782.722,14974.017,22196.746,0.046,0.915,-0.376,-7.263,4.150,7.690,73.333,111.000,1.000
27784.118,14103.930,131746.255,94963.955,-14654.196,21972.367,15157.608,22613.667,0.045,0.918,-0.377,-7.050,4.425,7.660,73.333,112.000,1.000
28041.129,14422.804,130004.727,93713.095,-14672.171,22183.210,15261.399,23085.307,0.045,0.922,-0.377,-6.897,4.578,7.599,73.333,113.000,1.000
28031.648,14564.146,128316.889,92549.834,-14824.012,22282.634,15507.720,23232.564,0.047,0.925,-0.376,-6.683,4.791,7.538,73.333,114.000,1.000
27920.212,14519.159,126680.193,91445.612,-15076.760,22294.217,15899.607,23130.092,0.049,0.930,-0.379,-6.592,4.974,7.355,73.333,115.000,1.000
27976.648,14513.807,125051.759,90320.664,-15255.228,22345.213,16242.880,23156.544,0.050,0.938,-0.380,-6.378,5.127,7.233,73.333,116.000,1.000
28217.268,14690.703,123407.459,89151.142,-15284.960,22490.910,16423.092,23474.302,0.050,0.946,-0.380,-6.348,5.249,7.019,73.333,117.000,1.000
28418.764,14940.705,121770.229,87994.371,-15274.171,22656.381,16543.990,23850.276,0.051,0.949,-0.380,-6.561,5.371,6.836,73.333,118.000,1.000
28435.709,15076.582,120174.249,86906.548,-15351.930,22751.045,16764.720,24002.910,0.053,0.951,-0.379,-6.622,5.341,6.683,73.333,119.000,1.000
28373.562,15079.256,118618.848,85869.402,-15502.916,22784.442,17087.525,23964.945,0.053,0.948,-0.379,-6.805,5.463,6.378,73.333,120.000,1.000
28418.621,15095.598,117072.878,84819.946,-15609.017,22837.888,17378.077,23999.739,0.053,0.944,-0.377,-7.019,5.524,6.042,73.333,121.000,1.000
28592.104,15229.612,115517.557,83734.991,-15613.998,22951.886,17558.621,24238.733,0.052,0.942,-0.377,-7.080,5.646,5.798,73.333,122.000,1.000
28750.946,15421.492,113967.953,82656.181,-15584.403,23084.009,17698.930,24536.782,0.052,0.939,-0.374,-7.080,5.554,5.371,73.333,123.000,1.000
28793.294,15549.703,112448.567,81629.391,-15607.192,23176.116,17903.614,24694.181,0.048,0.937,-0.372,-7.141,5.371,4.944,73.333,124.000,1.000
28776.493,15590.237,110960.508,80645.156,-15679.550,23227.337,18173.393,24711.844,0.046,0.934,-0.372,-6.958,5.341,4.333,73.333,125.000,1.000
28817.145,15627.479,109483.226,79656.382,-15728.857,23283.517,18422.898,24758.171,0.043,0.932,-0.373,-6.836,5.219,3.784,73.333,126.000,1.000
28937.653,15732.538,108003.338,78642.157,-15714.113,23373.977,18604.637,24936.208,0.042,0.932,-0.367,-6.744,4.913,3.052,73.333,127.000,1.000
29057.981,15881.932,106529.686,77630.853,-15669.274,23481.574,18760.716,25170.284,0.039,0.928,-0.370,-6.622,4.761,2.350,73.333,128.000,1.000
29111.643,16003.777,105077.784,76657.627,-15648.280,23571.798,18950.092,25327.697,0.036,0.927,-0.370,-6.439,4.486,1.617,73.333,129.000,1.000
29119.430,16068.779,103648.491,75718.201,-15658.753,23632.971,19170.144,25385.477,0.030,0.925,-0.370,-6.195,4.089,0.854,73.333,130.000,1.000
29144.794,16112.279,102228.931,74778.283,-15664.659,23681.788,19374.459,25436.148,0.030,0.923,-0.368,-6.165,3.662,0.122,73.333,131.000,1.000
29212.919,16181.053,100810.489,73819.981,-15637.519,23739.478,19542.103,25558.530,0.030,0.921,-0.366,-5.920,3.113,-0.824,73.333,132.000,1.000
29295.295,16282.691,99398.364,72862.084,-15585.345,23811.229,19697.447,25731.371,0.028,0.919,-0.366,-5.554,2.594,-1.617,73.333,133.000,1.000
29355.876,16388.609,98002.570,71932.044,-15534.251,23885.941,19867.987,25877.985,0.031,0.917,-0.365,-5.371,2.106,-2.472,73.333,134.000,1.000
29388.758,16470.534,96625.070,71030.786,-15497.303,23949.276,20050.749,25961.753,0.031,0.916,-0.370,-5.035,1.648,-3.265,73.333,135.000,1.000
29413.810,16527.065,95259.140,70134.896,-15465.960,23997.432,20227.513,26017.403,0.034,0.913,-0.370,-4.669,1.190,-3.937,73.333,136.000,1.000
29452.179,16581.427,93898.741,69228.317,-15423.437,24042.056,20393.065,26101.079,0.040,0.914,-0.371,-4.333,0.732,-4.639,73.333,137.000,1.000
29509.085,16657.532,92544.475,68320.402,-15361.037,24099.603,20554.165,26228.908,0.042,0.914,-0.368,-3.906,0.397,-5.280,73.333,138.000,1.000
29569.757,16754.566,91200.447,67430.249,-15285.539,24171.897,20712.024,26365.780,0.039,0.913,-0.367,-3.632,0.092,-6.073,73.333,139.000,1.000
29610.437,16844.736,89868.554,66561.654,-15213.820,24240.396,20862.434,26465.915,0.037,0.915,-0.365,-3.204,-0.244,-6.744,73.333,140.000,1.000
29622.822,16902.473,88547.185,65700.491,-15156.571,24286.406,21009.207,26521.420,0.034,0.919,-0.367,-2.808,-0.671,-7.263,73.333,141.000,1.000
29628.631,16936.764,87233.659,64834.009,-15104.818,24315.519,21161.328,26571.036,0.027,0.922,-0.367,-2.472,-1.129,-7.874,73.333,142.000,1.000
29659.543,16984.986,85926.567,63965.564,-15037.339,24352.876,21315.581,26658.670,0.024,0.925,-0.364,-2.289,-1.404,-8.148,73.333,143.000,1.000
29717.593,17068.132,84626.498,63108.169,-14946.130,24411.044,21456.820,26782.881,0.016,0.928,-0.367,-2.136,-2.014,-8.850,73.333,144.000,1.000
29766.979,17160.989,83335.403,62267.712,-14849.657,24471.337,21581.379,26895.589,0.008,0.929,-0.367,-1.862,-2.686,-9.552,73.333,145.000,1.000
29776.860,17220.715,82054.667,61436.811,-14772.295,24506.300,21707.348,26958.303,0.002,0.931,-0.367,-1.709,-3.265,-10.223,73.333,146.000,1.000
29763.687,17242.638,80782.982,60604.701,-14712.267,24516.423,21850.259,26991.479,-0.006,0.932,-0.365,-1.587,-4.211,-10.925,73.333,147.000,1.000
29773.349,17269.444,79516.876,59769.677,-14641.445,24531.383,21997.202,27051.840,-0.011,0.933,-0.365,-1.282,-5.035,-11.658,73.333,148.000,1.000
29820.147,17336.346,78254.527,58939.826,-14541.663,24571.531,22120.997,27159.481,-0.016,0.930,-0.362,-1.221,-6.012,-12.451,73.333,149.000,1.000
29864.576,17422.953,76998.684,58122.892,-14430.502,24620.678,22219.149,27268.121,-0.019,0.926,-0.356,-1.068,-6.897,-13.245,73.333,150.000,1.000
29865.890,17479.540,75754.213,57317.888,-14339.143,24648.763,22321.844,27323.840,-0.025,0.923,-0.356,-0.885,-8.026,-14.069,73.333,151.000,1.000
29840.379,17495.301,74522.164,56517.256,-14269.717,24654.619,22452.946,27338.890,-0.029,0.918,-0.352,-0.824,-9.094,-14.832,73.333,152.000,1.000
29842.765,17515.038,73297.811,55715.891,-14190.814,24669.221,22596.167,27379.594,-0.032,0.915,-0.351,-0.580,-10.193,-15.472,73.333,153.000,1.000
29891.635,17578.803,72076.024,54916.446,-14079.786,24713.557,22715.755,27478.920,-0.031,0.911,-0.350,-0.488,-11.200,-16.113,73.333,154.000,1.000
29941.028,17665.629,70857.469,54125.254,-13955.063,24768.432,22805.262,27589.686,-0.033,0.906,-0.352,-0.061,-12.299,-16.724,73.333,155.000,1.000
29940.437,17719.517,69647.177,53343.976,-13852.950,24798.428,22896.127,27644.723,-0.035,0.901,-0.352,0.244,-13.245,-17.212,73.333,156.000,1.000
29902.916,17724.303,68447.211,52567.127,-13778.888,24798.658,23013.037,27646.209,-0.036,0.898,-0.353,0.671,-14.160,-17.426,73.333,157.000,1.000
29888.285,17726.093,67253.596,51788.765,-13699.564,24801.135,23138.743,27663.985,-0.034,0.894,-0.352,1.251,-14.954,-17.670,73.333,158.000,1.000
29922.733,17771.885,66061.920,51010.206,-13587.650,24831.917,23238.428,27742.888,-0.036,0.891,-0.356,1.862,-15.778,-17.731,73.333,159.000,1.000
29964.054,17847.177,64873.891,50238.893,-13458.612,24877.210,23309.871,27843.188,-0.035,0.887,-0.357,2.594,-16.510,-17.731,73.333,160.000,1.000
29960.290,17897.149,63695.485,49479.338,-13349.294,24903.941,23388.576,27895.115,-0.036,0.884,-0.363,3.326,-17.242,-17.792,73.333,161.000,1.000
29920.628,17901.654,62528.742,48727.211,-13267.762,24905.297,23499.426,27893.277,-0.038,0.878,-0.367,4.211,-17.944,-17.822,73.333,162.000,1.000
29901.829,17901.551,61368.469,47974.375,-13183.017,24908.632,23621.968,27903.077,-0.039,0.875,-0.370,5.249,-18.585,-17.761,73.333,163.000,1.000
29929.774,17941.884,60208.814,47218.942,-13068.018,24936.472,23718.007,27971.266,-0.042,0.869,-0.369,6.165,-19.226,-17.639,73.333,164.000,1.000
29964.212,18010.707,59050.925,46467.491,-12936.556,24975.166,23783.215,28062.873,-0.046,0.866,-0.372,7.141,-19.623,-17.487,73.333,165.000,1.000
29954.375,18056.617,57901.141,45726.277,-12823.972,24993.686,23851.441,28109.725,-0.048,0.863,-0.372,8.270,-20.447,-17.487,73.333,166.000,1.000
29907.701,18059.095,56762.158,44992.832,-12739.060,24985.828,23946.898,28102.953,-0.051,0.859,-0.375,9.430,-20.966,-17.426,73.333,167.000,1.000
29878.258,18054.749,55629.359,44259.155,-12652.986,24977.903,24051.145,28103.675,-0.053,0.856,-0.375,10.559,-21.576,-17.395,73.333,168.000,1.000
29892.438,18085.538,54497.186,43522.330,-12539.288,24992.592,24129.670,28159.073,-0.057,0.854,-0.375,11.780,-22.156,-17.242,73.333,169.000,1.000
29914.538,18141.892,53366.631,42788.358,-12409.422,25019.084,24179.935,28239.378,-0.060,0.855,-0.374,12.970,-22.705,-17.365,73.333,170.000,1.000
29897.574,18177.646,52243.705,42064.127,-12295.958,25029.403,24234.486,28280.192,-0.063,0.857,-0.375,14.130,-23.346,-17.303,73.333,171.000,1.000
29847.121,18173.940,51131.208,41348.270,-12207.957,25017.156,24316.322,28269.916,-0.068,0.862,-0.375,15.045,-23.895,-17.365,73.333,172.000,1.000
29812.023,18164.297,50025.147,40633.121,-12119.729,25005.663,24408.868,28263.577,-0.070,0.868,-0.378,15.869,-24.445,-17.303,73.333,173.000,1.000
29817.167,18188.432,48920.394,39915.027,-12006.763,25015.814,24480.350,28306.865,-0.073,0.872,-0.378,16.541,-24.994,-17.334,73.333,174.000,1.000
29831.161,18239.368,47817.642,39199.147,-11878.462,25038.557,24527.171,28375.609,-0.071,0.879,-0.380,17.090,-25.574,-17.242,73.333,175.000,1.000
29810.961,18274.919,46722.297,38492.511,-11763.803,25048.495,24576.958,28411.313,-0.072,0.885,-0.384,17.700,-26.093,-17.090,73.333,176.000,1.000
29759.314,18274.922,45637.065,37794.724,-11671.563,25037.999,24649.127,28400.549,-0.071,0.888,-0.382,18.005,-26.581,-16.998,73.333,177.000,1.000
29717.929,18265.594,44558.368,37098.654,-11579.757,25025.311,24728.574,28390.174,-0.068,0.894,-0.382,18.402,-26.978,-16.907,73.333,178.000,1.000
29709.199,18281.084,43481.227,36399.907,-11466.845,25028.039,24787.659,28421.494,-0.068,0.900,-0.384,18.585,-27.344,-16.693,73.333,179.000,1.000
29707.636,18317.617,42405.770,35702.332,-11340.548,25039.869,24824.358,28475.547,-0.065,0.908,-0.384,18.524,-27.588,-16.541,73.333,180.000,1.000
29677.485,18341.705,41336.626,35012.448,-11225.928,25041.142,24864.107,28501.744,-0.062,0.913,-0.387,18.402,-27.832,-16.327,73.333,181.000,1.000
29621.324,18337.333,40276.313,34330.473,-11131.229,25026.511,24924.644,28486.573,-0.057,0.920,-0.386,18.188,-27.863,-15.961,73.333,182.000,1.000
29574.449,18326.360,39221.797,33650.062,-11038.293,25011.403,24993.224,28469.062,-0.054,0.924,-0.385,17.883,-27.985,-15.564,73.333,183.000,1.000
29555.996,18336.945,38168.773,32966.909,-10928.504,25010.221,25045.826,28486.041,-0.051,0.929,-0.387,17.517,-28.107,-15.045,73.333,184.000,1.000
29544.670,18365.586,37117.471,32284.409,-10807.394,25017.219,25079.830,28524.163,-0.042,0.933,-0.393,17.151,-28.107,-14.587,73.333,185.000,1.000
29509.915,18383.699,36072.055,31608.849,-10695.517,25015.211,25115.684,28541.523,-0.037,0.940,-0.395,16.510,-27.771,-14.130,73.333,186.000,1.000
29452.779,18376.756,35034.774,30940.923,-10600.240,24998.663,25167.662,28524.971,-0.032,0.948,-0.397,15.778,-27.130,-13.641,73.333,187.000,1.000
29402.003,18361.976,34003.081,30275.060,-10507.098,24979.715,25225.179,28505.148,-0.026,0.953,-0.397,14.862,-26.520,-13.306,73.333,188.000,1.000
29373.891,18363.256,32973.390,29607.126,-10400.534,24970.682,25268.761,28512.764,-0.023,0.958,-0.397,14.008,-25.940,-12.848,73.333,189.000,1.000
29351.887,18379.795,31945.986,28939.863,-10284.307,24967.901,25296.581,28538.332,-0.021,0.962,-0.398,12.970,-25.269,-12.268,73.333,190.000,1.000
29311.424,18389.960,30924.480,28279.005,-10174.750,24958.000,25325.454,28548.345,-0.019,0.963,-0.399,11.993,-24.384,-11.627,73.333,191.000,1.000
29252.941,18381.796,29910.840,27625.598,-10078.206,24936.206,25367.017,28531.698,-0.021,0.965,-0.400,11.017,-23.651,-11.078,73.333,192.000,1.000
29199.196,18367.721,28902.832,26974.811,-9983.751,24911.528,25412.792,28512.694,-0.020,0.964,-0.399,9.918,-22.858,-10.498,73.333,193.000,1.000
29163.508,18365.839,27897.094,26322.465,-9879.282,24893.720,25447.285,28516.243,-0.021,0.961,-0.399,8.911,-22.064,-10.010,73.333,194.000,1.000
29133.259,18375.520,26893.457,25670.322,-9767.587,24880.844,25469.233,28534.894,-0.021,0.960,-0.401,7.935,-21.423,-9.521,73.333,195.000,1.000
29088.928,18379.664,25894.805,25023.325,-9661.312,24863.188,25491.921,28540.778,-0.022,0.957,-0.399,6.989,-20.691,-9.155,73.333,196.000,1.000
29030.035,18368.332,24903.076,24382.983,-9565.453,24836.800,25524.372,28522.993,-0.022,0.954,-0.400,5.920,-19.806,-8.698,73.333,197.000,1.000
28974.122,18351.149,23917.028,23745.882,-9471.418,24808.328,25560.395,28500.041,-0.026,0.952,-0.402,5.127,-18.890,-8.423,73.333,198.000,1.000
28932.497,18343.282,22934.357,23108.713,-9369.370,24785.671,25588.627,28493.334,-0.027,0.947,-0.405,4.364,-18.219,-8.148,73.333,199.000,1.000
28896.417,18345.530,21954.787,22472.543,-9261.067,24767.848,25607.933,28499.562,-0.029,0.943,-0.406,3.571,-17.578,-7.996,73.333,200.000,1.000
28850.715,18345.020,20979.990,21840.805,-9156.521,24747.496,25627.744,28497.825,-0.032,0.938,-0.405,2.960,-16.907,-7.812,73.333,201.000,1.000
28793.700,18333.267,20010.867,21214.260,-9060.514,24721.242,25654.472,28478.403,-0.034,0.932,-0.404,2.472,-16.113,-7.690,73.333,202.000,1.000
28737.347,18316.319,19046.187,20589.948,-8967.365,24693.315,25683.249,28453.920,-0.037,0.928,-0.401,2.045,-15.594,-7.751,73.333,203.000,1.000
28689.824,18304.989,18084.337,19965.269,-8869.552,24668.662,25705.220,28440.649,-0.041,0.924,-0.399,1.617,-14.984,-7.660,73.333,204.000,1.000
28645.127,18300.255,17125.586,19341.466,-8767.402,24645.903,25719.103,28437.400,-0.045,0.920,-0.401,1.312,-14.526,-7.660,73.333,205.000,1.000
28592.613,18293.099,16171.717,18721.892,-8667.446,24619.315,25731.599,28429.264,-0.048,0.916,-0.399,1.068,-14.130,-7.751,73.333,206.000,1.000
28531.259,18276.949,15223.646,18107.585,-8573.202,24586.226,25747.557,28408.035,-0.052,0.914,-0.401,0.854,-13.794,-7.904,73.333,207.000,1.000
28470.220,18255.478,14280.381,17496.196,-8481.082,24549.968,25764.159,28381.513,-0.055,0.911,-0.398,0.702,-13.489,-7.965,73.333,208.000,1.000
28416.509,18236.870,13340.548,16885.397,-8385.846,24515.539,25776.168,28361.481,-0.056,0.909,-0.398,0.519,-13.275,-8.148,73.333,209.000,1.000
28367.000,18223.772,12404.169,16275.893,-8287.376,24484.347,25783.763,28348.505,-0.059,0.907,-0.399,0.488,-12.970,-8.301,73.333,210.000,1.000
28314.221,18211.803,11472.385,15670.179,-8190.080,24454.249,25792.188,28333.250,-0.059,0.906,-0.397,0.336,-12.634,-8.514,73.333,211.000,1.000
28255.913,18196.453,10545.768,15069.068,-8096.830,24423.435,25804.568,28309.886,-0.060,0.906,-0.396,0.275,-12.421,-8.698,73.333,212.000,1.000
28196.487,18178.481,9623.638,14470.744,-8005.781,24392.631,25818.119,28283.089,-0.060,0.906,-0.392,0.153,-12.085,-8.850,73.333,213.000,1.000
28140.100,18161.684,8705.084,13873.285,-7913.474,24363.484,25828.212,28260.764,-0.061,0.907,-0.394,0.122,-11.780,-9.094,73.333,214.000,1.000
28085.273,18147.087,7790.104,13277.038,-7819.319,24335.893,25833.942,28243.572,-0.062,0.909,-0.397,0.031,-11.475,-9.338,73.333,215.000,1.000
28027.588,18131.619,6879.493,12683.967,-7725.692,24307.825,25838.024,28224.875,-0.062,0.910,-0.396,-0.122,-11.139,-9.308,73.333,216.000,1.000
27965.241,18112.339,5973.817,12095.135,-7634.412,24277.550,25842.369,28199.429,-0.062,0.913,-0.399,-0.244,-10.742,-9.399,73.333,217.000,1.000
27900.725,18090.097,5072.824,11509.598,-7544.627,24245.306,25846.035,28169.167,-0.063,0.917,-0.395,-0.305,-10.406,-9.491,73.333,218.000,1.000
27837.378,18068.353,4175.894,10925.876,-7454.337,24212.708,25847.494,28139.727,-0.063,0.921,-0.398,-0.427,-10.162,-9.430,73.333,219.000,1.000
27775.842,18049.286,3282.834,10343.866,-7362.908,24180.920,25847.076,28113.515,-0.064,0.925,-0.399,-0.671,-9.796,-9.460,73.333,220.000,1.000
27714.463,18031.885,2393.997,9764.754,-7271.483,24149.627,25846.273,28088.061,-0.064,0.929,-0.399,-0.854,-9.338,-9.216,73.333,221.000,1.000
27651.551,18013.335,1509.665,9189.241,-7181.431,24117.495,25845.453,28059.980,-0.065,0.932,-0.399,-1.251,-8.972,-9.125,73.333,222.000,1.000
27586.972,17991.615,629.622,8616.583,-7092.997,24083.338,25843.445,28028.885,-0.065,0.935,-0.397,-1.526,-8.606,-9.003,73.333,223.000,1.000
27521.556,17966.757,-246.603,8045.548,-7005.423,24046.953,25839.165,27996.968,-0.067,0.938,-0.396,-1.984,-8.453,-8.759,73.333,224.000,1.000
27455.605,17940.040,-1119.294,7475.822,-6918.018,24008.912,25832.737,27965.773,-0.068,0.938,-0.396,-2.350,-7.965,-8.575,73.333,225.000,1.000
27388.455,17912.205,-1988.393,6908.162,-6830.879,23969.502,25824.868,27934.293,-0.068,0.936,-0.394,-2.777,-7.538,-8.362,73.333,226.000,1.000
27318.877,17882.514,-2853.641,6343.355,-6744.683,23927.996,25815.815,27899.927,-0.070,0.933,-0.394,-3.235,-7.263,-8.118,73.333,227.000,1.000
27246.705,17849.921,-3714.777,5781.390,-6659.898,23883.459,25805.572,27861.240,-0.072,0.931,-0.394,-3.693,-6.897,-7.751,73.333,228.000,1.000
27173.759,17815.059,-4571.674,5221.764,-6576.145,23836.340,25794.575,27819.563,-0.072,0.929,-0.392,-4.059,-6.439,-7.538,73.333,229.000,1.000
27102.519,17780.348,-5424.354,4664.323,-6492.394,23788.703,25783.518,27777.681,-0.071,0.927,-0.390,-4.364,-6.073,-7.233,73.333,230.000,1.000
27033.845,17747.766,-6272.929,4109.474,-6407.991,23742.420,25772.671,27736.938,-0.071,0.924,-0.390,-4.852,-5.554,-7.080,73.333,231.000,1.000
26965.669,17716.521,-7117.573,3557.492,-6323.570,23697.174,25761.785,27695.493,-0.073,0.923,-0.385,-4.974,-5.096,-6.592,73.333,232.000,1.000
26895.059,17683.605,-7958.508,3007.970,-6240.602,23650.762,25750.724,27650.272,-0.071,0.920,-0.384,-5.005,-4.913,-6.226,73.333,233.000,1.000
26821.399,17647.039,-8795.929,2460.171,-6159.797,23601.589,25739.614,27600.775,-0.072,0.918,-0.385,-5.249,-4.517,-5.859,73.333,234.000,1.000
26746.823,17607.934,-9629.860,1913.859,-6080.223,23550.129,25728.039,27549.999,-0.072,0.917,-0.387,-5.432,-4.059,-5.463,73.333,235.000,1.000
26673.486,17568.871,-10460.049,1369.626,-6000.340,23497.661,25714.697,27501.185,-0.070,0.915,-0.387,-5.707,-3.479,-5.005,73.333,236.000,1.000
26600.698,17530.713,-11286.012,828.379,-5919.771,23444.344,25698.614,27454.191,-0.070,0.916,-0.386,-5.890,-3.082,-4.669,73.333,237.000,1.000
26526.226,17492.100,-12107.252,290.611,-5839.501,23389.308,25680.542,27406.301,-0.071,0.920,-0.387,-5.951,-2.594,-4.211,73.333,238.000,1.000
26449.624,17452.083,-12923.589,-243.880,-5760.274,23332.503,25662.253,27356.162,-0.070,0.922,-0.388,-6.042,-2.014,-3.571,73.333,239.000,1.000
26372.856,17412.013,-13735.347,-775.659,-5681.426,23275.602,25644.353,27305.585,-0.067,0.926,-0.386,-6.287,-1.373,-2.991,73.333,240.000,1.000
26297.761,17374.086,-14543.142,-1305.143,-5601.845,23220.679,25625.800,27257.143,-0.066,0.928,-0.391,-6.439,-0.793,-2.441,73.333,241.000,1.000
26223.539,17338.451,-15347.453,-1832.441,-5521.826,23168.293,25605.823,27210.689,-0.062,0.929,-0.391,-6.653,-0.183,-1.740,73.333,242.000,1.000
26148.201,17302.816,-16148.356,-2357.576,-5443.116,23117.236,25585.452,27163.725,-0.062,0.931,-0.392,-6.714,0.488,-1.068,73.333,243.000,1.000
26071.651,17265.183,-16945.672,-2880.690,-5366.865,23066.221,25566.410,27115.070,-0.059,0.932,-0.392,-6.989,1.160,-0.244,73.333,244.000,1.000
25995.984,17226.180,-17739.323,-3401.974,-5292.183,23015.299,25548.853,27066.707,-0.059,0.933,-0.394,-7.172,1.862,0.427,73.333,245.000,1.000
25922.744,17188.000,-18529.382,-3921.366,-5217.264,22965.201,25530.978,27021.111,-0.055,0.930,-0.394,-7.385,2.655,1.221,73.333,246.000,1.000
25850.310,17151.195,-19315.841,-4438.501,-5141.672,22915.603,25510.952,26977.148,-0.057,0.926,-0.396,-7.416,3.418,1.892,73.333,247.000,1.000
25775.571,17113.748,-20098.485,-4953.031,-5066.751,22864.910,25488.726,26930.526,-0.057,0.923,-0.395,-7.355,4.059,2.686,73.333,248.000,1.000
25697.592,17073.723,-20877.084,-5464.945,-4993.637,22812.061,25465.405,26878.661,-0.058,0.922,-0.394,-7.202,4.791,3.326,73.333,249.000,1.000
25618.484,17031.714,-21651.631,-5974.491,-4921.605,22757.777,25441.271,26823.806,-0.058,0.920,-0.391,-7.050,5.463,4.028,73.333,250.000,1.000
25540.785,16989.949,-22422.254,-6481.771,-4848.953,22703.514,25415.431,26770.621,-0.063,0.917,-0.394,-6.775,5.981,4.578,73.333,251.000,1.000
25464.373,16949.414,-23188.927,-6986.514,-4775.223,22649.639,25387.648,26721.053,-0.065,0.911,-0.395,-6.531,6.531,5.127,73.333,252.000,1.000
25387.303,16908.911,-23951.393,-7488.340,-4701.728,22595.363,25359.600,26673.108,-0.071,0.907,-0.396,-6.256,7.111,5.646,73.333,253.000,1.000
25308.803,16867.092,-24709.510,-7987.247,-4629.770,22540.325,25333.216,26624.349,-0.075,0.901,-0.389,-5.798,7.385,6.256,73.333,254.000,1.000
25230.001,16824.373,-25463.602,-8483.753,-4559.034,22485.218,25307.981,26574.808,-0.075,0.898,-0.391,-5.066,7.294,6.744,73.333,255.000,1.000
25151.733,16782.055,-26214.336,-8978.495,-4488.336,22430.504,25281.008,26525.639,-0.075,0.895,-0.392,-4.517,7.416,7.111,73.333,256.000,1.000
25072.382,16739.915,-26962.211,-9471.744,-4417.581,22375.231,25250.065,26475.831,-0.077,0.893,-0.394,-3.815,7.446,7.507,73.333,257.000,1.000
24989.741,16696.061,-27707.147,-9963.281,-4348.054,22317.933,25216.028,26422.578,-0.080,0.890,-0.394,-3.021,7.416,7.996,73.333,258.000,1.000
24904.285,16649.521,-28448.586,-10452.697,-4280.586,22258.667,25181.822,26365.084,-0.081,0.889,-0.394,-2.380,7.385,8.392,73.333,259.000,1.000
24819.107,16601.854,-29185.959,-10939.698,-4214.173,22199.555,25149.372,26306.342,-0.079,0.890,-0.394,-1.465,7.355,8.820,73.333,260.000,1.000
24736.770,16555.580,-29919.005,-11424.097,-4146.993,22143.020,25118.361,26250.303,-0.081,0.891,-0.396,-0.580,7.172,9.125,73.333,261.000,1.000
24656.754,16511.469,-30647.745,-11905.706,-4078.553,22089.590,25087.730,26197.725,-0.079,0.893,-0.397,0.214,7.050,9.552,73.333,262.000,1.000
24576.910,16468.168,-31372.307,-12384.419,-4010.163,22037.580,25057.363,26145.926,-0.078,0.895,-0.393,1.068,6.744,9.766,73.333,263.000,1.000
24496.159,16424.186,-32092.927,-12860.467,-3943.253,21984.792,25027.556,26092.225,-0.080,0.896,-0.393,1.770,6.561,10.101,73.333,264.000,1.000
24414.897,16379.367,-32809.996,-13334.421,-3877.738,21930.000,24997.355,26036.576,-0.080,0.895,-0.389,2.289,6.226,10.406,73.333,265.000,1.000
24333.540,16334.307,-33523.856,-13806.723,-3812.434,21872.932,24964.734,25980.705,-0.079,0.894,-0.385,2.838,6.134,10.834,73.333,266.000,1.000
24251.325,16289.058,-34234.516,-14277.269,-3746.798,21813.712,24928.788,25925.276,-0.077,0.888,-0.380,3.296,5.768,11.078,73.333,267.000,1.000
24167.725,16243.292,-34941.614,-14745.527,-3681.560,21752.973,24891.082,25869.300,-0.078,0.885,-0.380,3.784,5.554,11.169,73.333,268.000,1.000
24083.981,16197.458,-35644.722,-15211.067,-3617.508,21692.284,24854.126,25812.091,-0.074,0.884,-0.378,4.303,5.188,11.292,73.333,269.000,1.000
24002.097,16152.789,-36343.711,-15673.925,-3554.293,21633.694,24818.848,25754.537,-0.073,0.883,-0.378,4.700,4.730,11.414,73.333,270.000,1.000
23922.646,16109.888,-37038.797,-16134.442,-3490.921,21578.432,24784.161,25697.901,-0.069,0.886,-0.374,5.066,4.395,11.414,73.333,271.000,1.000
23843.726,16067.667,-37730.271,-16592.856,-3427.163,21525.903,24748.707,25641.716,-0.068,0.895,-0.375,5.249,3.998,11.353,73.333,272.000,1.000
23763.027,16024.289,-38418.236,-17049.116,-3363.899,21474.060,24712.413,25584.052,-0.066,0.906,-0.375,5.310,3.754,11.261,73.333,273.000,1.000
23680.087,15978.875,-39102.670,-17503.148,-3302.028,21420.819,24675.965,25523.768,-0.063,0.915,-0.374,5.219,3.540,11.322,73.333,274.000,1.000
23595.920,15931.815,-39783.661,-17955.141,-3241.436,21364.993,24639.208,25461.704,-0.061,0.927,-0.380,4.944,3.326,11.353,73.333,275.000,1.000
23511.412,15883.871,-40461.343,-18405.339,-3181.249,21306.266,24600.976,25399.636,-0.054,0.937,-0.381,4.578,3.143,11.322,73.333,276.000,1.000
23426.327,15835.342,-41135.664,-18853.653,-3120.952,21244.948,24560.562,25338.290,-0.048,0.944,-0.382,4.150,3.174,11.414,73.333,277.000,1.000
23340.437,15786.221,-41806.294,-19299.636,-3060.849,21182.072,24518.886,25277.182,-0.041,0.947,-0.383,3.448,3.113,11.536,73.333,278.000,1.000
23254.709,15737.075,-42472.850,-19742.874,-3001.354,21119.519,24477.755,25216.104,-0.034,0.950,-0.381,2.747,3.204,11.719,73.333,279.000,1.000
23170.570,15689.182,-43135.248,-20183.366,-2942.269,21059.221,24438.036,25155.786,-0.029,0.950,-0.383,1.984,3.387,11.810,73.333,280.000,1.000
23088.353,15643.438,-43793.785,-20621.445,-2883.062,21001.743,24398.950,25096.867,-0.024,0.952,-0.387,1.251,3.723,11.963,73.333,281.000,1.000
23006.535,15599.242,-44448.844,-21057.404,-2823.702,20945.816,24359.146,25038.464,-0.021,0.953,-0.385,0.732,3.906,12.024,73.333,282.000,1.000
22923.290,15554.868,-45100.531,-21491.236,-2764.788,20889.530,24318.172,24978.622,-0.018,0.954,-0.384,0.031,4.272,12.146,73.333,283.000,1.000
22838.139,15508.815,-45748.680,-21922.788,-2706.817,20831.806,24276.379,24916.107,-0.016,0.952,-0.385,-0.732,4.639,12.115,73.333,284.000,1.000
22751.864,15460.777,-46393.161,-22352.075,-2649.623,20772.818,24233.888,24851.425,-0.013,0.948,-0.385,-1.465,5.127,12.115,73.333,285.000,1.000
22665.690,15411.757,-47034.029,-22779.269,-2592.641,20713.596,24190.599,24786.366,-0.013,0.946,-0.387,-2.136,5.615,12.207,73.333,286.000,1.000
22580.233,15363.168,-47671.398,-23204.466,-2535.654,20655.125,24146.836,24722.393,-0.012,0.940,-0.389,-2.625,6.012,12.085,73.333,287.000,1.000
22495.465,15315.601,-48305.297,-23627.576,-2479.035,20597.535,24103.262,24659.664,-0.013,0.935,-0.387,-3.204,6.348,12.054,73.333,288.000,1.000
22411.177,15268.572,-48935.703,-24048.471,-2423.231,20540.292,24060.142,24597.574,-0.013,0.927,-0.389,-3.479,6.836,11.993,73.333,289.000,1.000
22327.256,15221.296,-49562.655,-24467.149,-2368.212,20482.907,24016.898,24535.805,-0.014,0.923,-0.389,-3.754,7.294,11.932,73.333,290.000,1.000
22243.723,15173.357,-50186.229,-24883.699,-2313.573,20425.092,23972.483,24474.505,-0.014,0.917,-0.385,-3.967,7.660,11.841,73.333,291.000,1.000
22160.088,15124.597,-50806.402,-25298.109,-2259.057,20366.335,23926.093,24413.245,-0.015,0.910,-0.385,-4.028,8.118,11.780,73.333,292.000,1.000
22075.719,15075.119,-51422.995,-25710.194,-2204.767,20305.834,23877.671,24350.766,-0.015,0.906,-0.382,-4.028,8.545,11.566,73.333,293.000,1.000
21990.669,15025.542,-52035.812,-26119.791,-2150.902,20243.243,23827.974,24286.057,-0.016,0.903,-0.378,-3.967,8.942,11.475,73.333,294.000,1.000
21905.553,14976.738,-52644.835,-26526.968,-2097.431,20179.272,23778.154,24219.401,-0.020,0.899,-0.378,-3.906,9.369,11.139,73.333,295.000,1.000
21820.853,14929.225,-53250.210,-26931.917,-2044.116,20115.352,23729.193,24152.288,-0.021,0.896,-0.381,-3.876,9.735,10.834,73.333,296.000,1.000
21735.982,14882.575,-53852.094,-27334.734,-1990.833,20052.577,23681.418,24085.909,-0.027,0.892,-0.377,-3.723,10.101,10.559,73.333,297.000,1.000
21649.800,14835.478,-54450.561,-27735.391,-1937.769,19990.888,23634.386,24020.001,-0.028,0.892,-0.376,-3.357,10.071,10.040,73.333,298.000,1.000
21561.832,14786.802,-55045.625,-28133.866,-1885.236,19929.316,23587.207,23953.270,-0.031,0.890,-0.376,-2.991,10.193,9.399,73.333,299.000,1.000
21472.576,14736.515,-55637.285,-28530.226,-1833.349,19866.773,23539.008,23884.715,-0.034,0.886,-0.379,-2.777,10.254,8.911,73.333,300.000,1.000
21383.081,14685.527,-56225.519,-28924.536,-1781.943,19802.686,23489.357,23814.542,-0.035,0.883,-0.378,-2.411,10.284,8.453,73.333,301.000,1.000
21294.065,14634.768,-56810.302,-29316.783,-1730.829,19737.258,23438.529,23743.739,-0.036,0.878,-0.380,-2.045,10.162,7.721,73.333,302.000,1.000
21205.732,14584.484,-57391.687,-29706.954,-1680.075,19671.175,23387.407,23673.255,-0.037,0.874,-0.376,-1.495,10.193,7.080,73.333,303.000,1.000
21117.806,14534.154,-57969.875,-30095.188,-1629.981,19605.069,23336.809,23603.610,-0.036,0.871,-0.381,-1.007,10.101,6.378,73.333,304.000,1.000
21029.630,14482.883,-58545.092,-30481.698,-1580.759,19539.153,23286.788,23534.959,-0.034,0.865,-0.379,-0.397,9.979,5.676,73.333,305.000,1.000
20940.795,14430.119,-59117.302,-30866.486,-1532.234,19473.233,23236.667,23467.234,-0.035,0.863,-0.380,0.366,10.071,4.974,73.333,306.000,1.000
20851.208,14375.962,-59686.164,-31249.258,-1483.982,19406.963,23185.690,23399.772,-0.034,0.860,-0.381,1.160,9.918,4.272,73.333,307.000,1.000
20761.204,14320.880,-60251.331,-31629.658,-1435.726,19340.047,23133.569,23331.379,-0.035,0.859,-0.382,1.892,9.766,3.601,73.333,308.000,1.000
20671.416,14265.382,-60812.792,-32007.618,-1387.577,19272.383,23080.420,23261.071,-0.034,0.858,-0.381,2.686,9.735,2.869,73.333,309.000,1.000
20582.257,14209.877,-61370.868,-32383.434,-1339.891,19204.187,23026.422,23188.749,-0.034,0.855,-0.385,3.448,9.583,2.167,73.333,310.000,1.000
20493.758,14154.619,-61925.879,-32757.450,-1292.910,19136.098,22971.754,23115.333,-0.034,0.852,-0.387,4.303,9.521,1.404,73.333,311.000,1.000
20405.420,14099.651,-62477.885,-33129.740,-1246.564,19068.941,22916.701,23042.027,-0.031,0.851,-0.388,5.188,9.521,0.580,73.333,312.000,1.000
20316.680,14044.838,-63026.661,-33500.052,-1200.556,19003.094,22861.650,22969.682,-0.033,0.850,-0.386,6.134,9.369,-0.183,73.333,313.000,1.000
20227.243,13989.950,-63571.869,-33868.007,-1154.593,18938.153,22806.906,22898.641,-0.034,0.851,-0.386,7.080,9.033,-0.885,73.333,314.000,1.000
20137.044,13934.792,-64113.295,-34233.388,-1108.565,18873.265,22752.581,22828.841,-0.033,0.855,-0.392,7.965,8.850,-1.709,73.333,315.000,1.000
20046.459,13879.442,-64650.990,-34596.284,-1062.604,18807.819,22698.670,22760.100,-0.032,0.858,-0.393,8.759,8.667,-2.289,73.333,316.000,1.000
19955.984,13824.055,-65185.234,-34957.014,-1016.987,18741.839,22645.083,22692.075,-0.034,0.860,-0.392,9.583,8.484,-2.869,73.333,317.000,1.000
19865.990,13768.454,-65716.345,-35315.886,-971.948,18675.671,22591.624,22624.192,-0.035,0.864,-0.393,10.406,8.362,-3.510,73.333,318.000,1.000
19776.414,13712.162,-66244.543,-35673.063,-927.586,18609.400,22537.935,22555.606,-0.035,0.867,-0.397,11.108,8.240,-4.028,73.333,319.000,1.000
19686.661,13654.848,-66769.895,-36028.564,-883.894,18542.713,22483.576,22485.478,-0.035,0.872,-0.398,11.780,8.057,-4.639,73.333,320.000,1.000
19596.252,13596.730,-67292.261,-36382.260,-840.722,18475.354,22428.353,22413.666,-0.036,0.875,-0.399,12.238,7.965,-5.096,73.333,321.000,1.000
19505.067,13538.562,-67811.370,-36733.936,-797.810,18407.481,22372.468,22340.804,-0.039,0.880,-0.398,12.634,7.843,-5.402,73.333,322.000,1.000
19413.487,13481.231,-68326.998,-37083.414,-754.949,18339.517,22316.326,22267.951,-0.042,0.884,-0.399,13.062,7.629,-5.737,73.333,323.000,1.000
19322.186,13425.203,-68839.075,-37430.623,-712.099,18271.858,22260.326,22196.094,-0.047,0.882,-0.398,13.336,7.355,-6.134,73.333,324.000,1.000
19231.811,13370.319,-69347.618,-37775.551,-669.354,18204.742,22204.891,22125.750,-0.050,0.883,-0.395,13.641,7.111,-6.378,73.333,325.000,1.000
19142.987,13316.181,-69852.651,-38118.199,-626.812,18138.282,22150.385,22056.933,-0.053,0.886,-0.395,13.672,6.897,-6.683,73.333,326.000,1.000
19055.690,13262.392,-70354.269,-38458.634,-584.553,18072.463,22096.638,21988.984,-0.059,0.888,-0.397,13.947,6.531,-6.897,73.333,327.000,1.000
18969.295,13208.620,-70852.635,-38796.982,-542.619,18007.168,22042.877,21920.838,-0.063,0.893,-0.392,14.008,6.165,-7.050,73.333,328.000,1.000
18883.190,13154.718,-71347.899,-39133.362,-501.032,17942.307,21988.292,21851.561,-0.068,0.896,-0.390,14.069,5.798,-7.111,73.333,329.000,1.000
18797.049,13100.725,-71840.170,-39467.888,-459.882,17877.798,21932.547,21780.699,-0.071,0.898,-0.392,14.008,5.402,-7.202,73.333,330.000,1.000
18710.976,13046.781,-72329.474,-39800.627,-419.257,17813.466,21875.829,21708.613,-0.075,0.902,-0.392,13.733,4.822,-7.385,73.333,331.000,1.000
18625.057,12993.034,-72815.735,-40131.557,-379.121,17749.041,21818.585,21636.245,-0.077,0.906,-0.394,13.580,4.120,-7.385,73.333,332.000,1.000
18539.248,12939.601,-73298.829,-40460.578,-339.327,17684.253,21761.300,21564.542,-0.082,0.910,-0.393,13.336,3.601,-7.416,73.333,333.000,1.000
18453.219,12886.344,-73778.686,-40787.610,-299.795,17618.897,21704.212,21493.711,-0.082,0.916,-0.394,12.878,2.869,-7.477,73.333,334.000,1.000
18366.240,12832.640,-74255.411,-41112.737,-260.682,17552.848,21647.202,21422.889,-0.085,0.918,-0.394,12.421,2.258,-7.385,73.333,335.000,1.000
18277.854,12777.819,-74729.221,-41436.165,-222.251,17486.090,21590.034,21351.006,-0.085,0.919,-0.396,11.993,1.556,-7.324,73.333,336.000,1.000
18187.998,12721.548,-75200.216,-41757.961,-184.537,17418.350,21532.133,21277.617,-0.085,0.922,-0.397,11.475,0.977,-7.202,73.333,337.000,1.000
18096.897,12663.717,-75668.237,-42077.899,-147.222,17348.981,21472.562,21203.128,-0.084,0.924,-0.395,11.047,0.397,-6.897,73.333,338.000,1.000
18004.953,12604.528,-76132.963,-42395.597,-109.888,17277.937,21411.128,21128.476,-0.083,0.924,-0.400,10.498,-0.244,-6.653,73.333,339.000,1.000
17912.507,12544.537,-76594.122,-42710.774,-72.323,17206.306,21348.941,21054.410,-0.081,0.923,-0.399,9.949,-0.763,-6.317,73.333,340.000,1.000
17819.918,12484.323,-77051.676,-43023.422,-34.592,17135.452,21287.282,20981.026,-0.077,0.920,-0.401,9.369,-1.312,-5.981,73.333,341.000,1.000
17727.546,12424.343,-77505.830,-43333.796,3.096,17066.375,21226.622,20907.864,-0.076,0.918,-0.402,8.850,-1.709,-5.463,73.333,342.000,1.000
17635.959,12365.049,-77956.838,-43642.207,40.569,16999.872,21166.926,20834.459,-0.072,0.917,-0.401,8.453,-2.045,-4.883,73.333,343.000,1.000
17545.437,12306.560,-78404.885,-43948.872,77.692,16936.247,21107.845,20760.275,-0.070,0.913,-0.403,8.148,-2.319,-4.333,73.333,344.000,1.000
17455.462,12248.299,-78850.074,-44253.886,114.314,16874.738,21048.565,20684.448,-0.069,0.911,-0.403,7.935,-2.533,-3.784,73.333,345.000,1.000
17365.465,12189.627,-79292.371,-44557.195,150.370,16814.003,20988.405,20606.513,-0.067,0.908,-0.408,7.751,-2.747,-3.082,73.333,346.000,1.000
17275.243,12130.683,-79731.672,-44858.666,185.936,16753.261,20927.577,20527.071,-0.064,0.906,-0.410,7.538,-2.869,-2.441,73.333,347.000,1.000
17184.929,12072.226,-80167.906,-45158.193,221.176,16692.683,20867.094,20447.715,-0.063,0.906,-0.408,7.568,-2.838,-1.801,73.333,348.000,1.000
17094.534,12014.646,-80601.072,-45455.743,256.208,16632.442,20807.574,20369.994,-0.064,0.906,-0.412,7.568,-2.869,-1.160,73.333,349.000,1.000
17003.724,11957.366,-81031.227,-45751.372,290.993,16571.322,20748.256,20294.178,-0.058,0.906,-0.414,7.751,-2.869,-0.763,73.333,350.000,1.000
16912.501,11899.522,-81458.395,-46045.154,325.437,16506.735,20687.764,20219.327,-0.054,0.911,-0.414,8.118,-2.869,-0.580,73.333,351.000,1.000
16821.298,11840.871,-81882.508,-46337.101,359.546,16436.337,20625.537,20144.277,-0.055,0.914,-0.412,8.179,-2.716,-0.366,73.333,352.000,1.000
16730.841,11782.038,-82303.470,-46627.146,393.448,16359.615,20562.249,20068.721,-0.051,0.915,-0.416,8.423,-2.411,0.305,73.333,353.000,1.000
16641.717,11724.120,-82721.210,-46915.140,427.320,16278.339,20499.193,19993.345,-0.048,0.914,-0.416,8.942,-2.106,0.122,73.333,354.000,1.000
16553.858,11667.761,-83135.624,-47200.842,461.324,16195.582,20437.528,19918.866,-0.045,0.910,-0.417,9.583,-1.831,-0.885,73.333,355.000,1.000
16467.014,11612.660,-83546.538,-47484.003,495.577,16113.689,20378.037,19845.316,-0.046,0.917,-0.419,10.498,-1.709,-2.289,73.333,356.000,1.000
16381.278,11558.316,-83953.792,-47764.508,530.154,16032.239,20321.229,19772.237,-0.044,0.927,-0.424,11.261,-1.373,-3.082,73.333,357.000,1.000
16297.429,11505.011,-84357.232,-48042.308,565.195,15948.792,20267.481,19699.707,-0.049,0.941,-0.428,11.719,-0.732,-3.052,73.333,358.000,1.000
16216.475,11453.556,-84756.722,-48317.351,600.902,15864.087,20216.990,19628.698,-0.048,0.947,-0.429,12.054,-0.397,-3.326,73.333,359.000,1.000
16138.727,11404.130,-85152.272,-48589.659,637.315,15785.647,20169.658,19560.207,-0.050,0.956,-0.435,11.566,-0.610,-4.120,73.333,360.000,1.000
16063.591,11355.801,-85544.142,-48859.435,674.182,15723.459,20124.987,19494.588,-0.059,0.969,-0.443,10.956,-0.305,-3.784,73.333,361.000,1.000
15989.719,11307.124,-85932.844,-49127.097,711.000,15683.719,20081.820,19431.713,-0.060,0.972,-0.445,10.590,-0.031,-2.716,73.333,362.000,1.000
15915.796,11257.120,-86318.958,-49393.176,747.221,15666.900,20038.260,19371.203,-0.059,0.970,-0.441,9.949,-0.397,-2.899,73.333,363.000,1.000
15840.847,11205.932,-86702.922,-49658.135,782.422,15664.806,19991.957,19311.455,-0.057,0.963,-0.447,8.667,-1.068,-3.296,73.333,364.000,1.000
15763.870,11154.585,-87084.995,-49922.273,816.338,15655.420,19940.811,19249.032,-0.043,0.951,-0.438,9.003,-1.190,-4.700,73.333,365.000,1.000
15684.153,11104.213,-87465.244,-50185.663,848.897,15605.459,19884.050,19180.519,-0.062,0.966,-0.447,7.751,-1.312,-5.005,73.333,366.000,1.000
15601.565,11055.443,-87843.513,-50448.134,880.279,15487.622,19822.754,19105.102,-0.067,0.970,-0.453,6.927,-0.702,-2.533,73.333,367.000,1.000
15516.715,11008.200,-88219.487,-50709.367,910.842,15304.738,19759.258,19025.587,-0.076,0.988,-0.451,5.432,-0.885,0.183,73.333,368.000,1.000
15430.529,10961.529,-88592.916,-50969.127,940.841,15096.769,19695.747,18946.405,-0.077,0.984,-0.445,1.648,-2.380,3.693,73.333,369.000,1.000
15343.436,10913.117,-88963.854,-51227.487,970.170,14918.391,19632.889,18870.396,-0.065,0.967,-0.426,-0.397,-2.625,7.416,73.333,370.000,1.000
15255.106,10859.022,-89332.673,-51484.820,998.413,14807.707,19569.402,18798.242,-0.054,0.949,-0.424,-2.014,-2.808,9.277,73.333,371.000,1.000
15164.454,10794.930,-89699.788,-51741.505,1025.199,14769.534,19502.814,18729.338,-0.045,0.929,-0.423,-3.479,-3.387,9.277,73.333,372.000,1.000
15070.626,10719.526,-90065.208,-51997.507,1050.608,14777.267,19431.195,18661.773,-0.042,0.922,-0.422,-3.693,-3.387,9.064,73.333,373.000,1.000
14973.995,10637.072,-90428.357,-52252.241,1075.247,14789.145,19354.673,18592.555,-0.044,0.918,-0.420,-4.028,-3.235,9.308,73.333,374.000,1.000
14876.156,10555.903,-90788.379,-52504.891,1099.916,14771.742,19275.562,18519.006,-0.039,0.914,-0.418,-4.517,-3.296,9.521,73.333,375.000,1.000
14779.424,10484.177,-91144.577,-52754.809,1125.223,14717.279,19197.198,18440.033,-0.038,0.913,-0.414,-4.913,-3.113,9.552,73.333,376.000,1.000
14685.590,10426.076,-91496.716,-53001.765,1151.377,14641.779,19122.332,18356.164,-0.037,0.909,-0.414,-5.341,-2.899,9.644,73.333,377.000,1.000
14595.064,10379.988,-91845.045,-53245.952,1178.185,14566.470,19051.742,18269.372,-0.037,0.906,-0.411,-5.798,-2.838,9.766,73.333,378.000,1.000
14506.689,10339.305,-92190.088,-53487.846,1205.214,14500.757,18983.890,18182.738,-0.036,0.902,-0.409,-6.165,-2.838,9.796,73.333,379.000,1.000
14418.388,10295.806,-92532.325,-53727.941,1232.036,14441.138,18916.332,18099.341,-0.034,0.901,-0.406,-6.561,-2.899,9.888,73.333,380.000,1.000
14328.640,10243.844,-92871.974,-53966.494,1258.452,14381.747,18847.647,18020.672,-0.031,0.899,-0.404,-6.958,-2.716,10.010,73.333,381.000,1.000
14237.045,10182.657,-93208.991,-54203.455,1284.524,14321.649,18777.907,17945.361,-0.027,0.898,-0.403,-7.141,-2.594,9.979,73.333,382.000,1.000
14144.182,10115.726,-93543.203,-54438.615,1310.437,14262.266,18707.975,17869.952,-0.027,0.897,-0.404,-7.538,-2.472,9.857,73.333,383.000,1.000
14051.052,10048.131,-93874.477,-54671.819,1336.321,14202.167,18638.671,17791.427,-0.025,0.900,-0.408,-7.782,-2.441,9.644,73.333,384.000,1.000
13958.667,9983.919,-94202.781,-54903.048,1362.184,14137.848,18570.407,17709.233,-0.024,0.905,-0.412,-8.209,-2.258,9.521,73.333,385.000,1.000
13868.141,9925.033,-94528.120,-55132.341,1387.992,14069.035,18503.448,17625.493,-0.023,0.908,-0.406,-8.453,-2.045,9.399,73.333,386.000,1.000
13780.043,9871.260,-94850.545,-55359.769,1413.679,14000.035,18437.899,17543.229,-0.023,0.908,-0.408,-8.698,-1.862,9.277,73.333,387.000,1.000
13693.917,9820.436,-95170.156,-55585.429,1439.156,13934.548,18373.263,17464.380,-0.022,0.908,-0.411,-9.033,-1.648,8.972,73.333,388.000,1.000
13608.589,9769.309,-95486.996,-55809.330,1464.415,13871.117,18308.501,17389.058,-0.022,0.906,-0.411,-9.491,-1.465,8.789,73.333,389.000,1.000
13523.024,9715.269,-95801.022,-56031.390,1489.552,13805.013,18242.638,17315.860,-0.020,0.903,-0.410,-9.674,-1.251,8.575,73.333,390.000,1.000
13437.175,9657.975,-96112.185,-56251.547,1514.648,13733.606,18175.145,17242.611,-0.019,0.902,-0.409,-9.918,-0.977,8.392,73.333,391.000,1.000
13351.413,9599.258,-96420.567,-56469.890,1539.616,13658.625,18105.979,17166.922,-0.019,0.896,-0.407,-10.010,-0.885,7.965,73.333,392.000,1.000
13265.843,9541.331,-96726.384,-56686.651,1564.198,13583.318,18035.604,17087.159,-0.018,0.886,-0.406,-10.040,-0.671,7.599,73.333,393.000,1.000
13180.324,9485.303,-97029.818,-56902.023,1588.176,13508.842,17964.907,17003.502,-0.018,0.879,-0.407,-9.979,-0.458,7.202,73.333,394.000,1.000
13095.015,9431.177,-97330.808,-57115.930,1611.626,13434.286,17894.966,16918.029,-0.019,0.876,-0.405,-9.979,-0.336,6.805,73.333,395.000,1.000
13010.772,9378.552,-97629.023,-57327.999,1634.958,13359.345,17826.647,16833.501,-0.021,0.874,-0.402,-9.674,-0.214,6.378,73.333,396.000,1.000
12928.160,9326.686,-97924.125,-57537.875,1658.574,13285.308,17759.915,16751.340,-0.022,0.870,-0.401,-9.277,-0.153,5.737,73.333,397.000,1.000
12846.819,9274.454,-98216.076,-57745.558,1682.521,13213.275,17693.744,16670.914,-0.026,0.870,-0.401,-8.972,0.031,5.219,73.333,398.000,1.000
12765.965,9221.165,-98505.132,-57951.353,1706.503,13142.859,17627.107,16590.761,-0.026,0.871,-0.401,-8.667,0.092,4.608,73.333,399.000,1.000
12685.196,9167.315,-98791.568,-58155.544,1730.197,13073.106,17559.773,16510.131,-0.026,0.871,-0.400,-8.423,0.153,3.967,73.333,400.000,1.000
12604.880,9114.293,-99075.466,-58358.181,1753.502,13003.959,17491.999,16429.537,-0.029,0.874,-0.401,-8.209,0.183,3.326,73.333,401.000,1.000
12525.265,9063.337,-99356.731,-58559.130,1776.538,12936.445,17424.028,16350.080,-0.030,0.875,-0.400,-7.965,0.183,2.747,73.333,402.000,1.000
12445.906,9014.659,-99635.202,-58758.195,1799.528,12871.523,17356.121,16272.725,-0.030,0.880,-0.402,-7.690,0.275,2.106,73.333,403.000,1.000
12366.017,8967.498,-99910.776,-58955.265,1822.635,12809.036,17288.618,16198.007,-0.028,0.887,-0.410,-7.385,0.397,1.373,73.333,404.000,1.000
12285.229,8920.973,-100183.518,-59150.436,1845.810,12747.866,17221.724,16125.932,-0.029,0.895,-0.410,-7.141,0.397,0.732,73.333,405.000,1.000
12203.998,8874.619,-100453.636,-59343.967,1868.803,12687.002,17155.433,16055.947,-0.030,0.903,-0.412,-6.927,0.336,0.000,73.333,406.000,1.000
12122.601,8827.911,-100721.385,-59536.137,1891.324,12626.083,17089.512,15986.656,-0.030,0.907,-0.409,-6.989,0.397,-0.671,73.333,407.000,1.000
12040.609,8779.656,-100986.926,-59727.078,1913.214,12564.864,17023.493,15916.142,-0.029,0.910,-0.410,-6.958,0.488,-1.068,73.333,408.000,1.000
11957.432,8728.492,-101250.236,-59916.712,1934.534,12502.834,16956.863,15843.045,-0.028,0.910,-0.408,-7.050,0.580,-1.709,73.333,409.000,1.000
11873.051,8674.036,-101511.147,-60104.832,1955.483,12439.738,16889.442,15767.512,-0.028,0.906,-0.406,-7.141,0.732,-2.258,73.333,410.000,1.000
11788.286,8617.218,-101769.468,-60291.258,1976.254,12376.032,16821.441,15691.177,-0.026,0.901,-0.407,-7.172,0.916,-2.686,73.333,411.000,1.000
11703.906,8559.445,-102025.090,-60475.920,1996.935,12312.573,16753.096,15615.669,-0.026,0.897,-0.403,-7.019,1.099,-3.296,73.333,412.000,1.000
11620.282,8501.924,-102277.959,-60658.807,2017.557,12250.113,16684.647,15541.456,-0.025,0.893,-0.402,-6.927,1.251,-3.754,73.333,413.000,1.000
11537.546,8445.467,-102527.994,-60839.845,2038.211,12189.188,16616.582,15468.110,-0.024,0.891,-0.401,-6.744,1.434,-4.150,73.333,414.000,1.000
11455.533,8390.315,-102775.084,-61018.879,2059.065,12129.952,16549.470,15395.125,-0.024,0.889,-0.400,-6.500,1.617,-4.608,73.333,415.000,1.000
11373.973,8336.264,-103019.203,-61195.835,2080.196,12071.890,16483.591,15322.472,-0.024,0.883,-0.396,-6.256,1.923,-4.944,73.333,416.000,1.000
11292.340,8282.734,-103260.572,-61370.940,2101.379,12013.751,16418.613,15250.207,-0.024,0.879,-0.395,-6.042,2.167,-5.310,73.333,417.000,1.000
11209.941,8228.555,-103499.625,-61544.653,2122.144,11953.859,16353.498,15177.902,-0.022,0.878,-0.396,-5.768,2.472,-5.615,73.333,418.000,1.000
11126.288,8172.368,-103736.779,-61717.380,2142.066,11890.995,16286.933,15104.710,-0.022,0.878,-0.396,-5.402,2.838,-5.890,73.333,419.000,1.000
11041.624,8113.826,-103972.198,-61889.251,2161.013,11825.305,16218.321,15030.085,-0.021,0.881,-0.399,-5.035,3.174,-6.042,73.333,420.000,1.000
10957.361,8054.293,-104205.678,-62060.039,2179.236,11758.172,16148.384,14954.489,-0.022,0.883,-0.399,-4.578,3.448,-6.134,73.333,421.000,1.000
10875.002,7995.819,-104436.754,-62229.297,2197.236,11690.972,16078.498,14878.858,-0.024,0.883,-0.401,-4.120,3.845,-6.317,73.333,422.000,1.000
10794.903,7939.372,-104664.976,-62396.612,2215.467,11624.263,16009.678,14803.675,-0.025,0.888,-0.401,-3.876,4.211,-6.348,73.333,423.000,1.000
10715.962,7884.184,-104890.169,-62561.825,2234.087,11558.150,15942.237,14728.763,-0.025,0.893,-0.402,-3.662,4.547,-6.195,73.333,424.000,1.000
10636.475,7828.602,-105112.481,-62725.065,2252.927,11492.572,15875.795,14653.703,-0.026,0.896,-0.399,-3.418,4.852,-6.104,73.333,425.000,1.000
10555.575,7771.575,-105332.243,-62886.622,2271.657,11426.870,15809.267,14578.307,-0.028,0.893,-0.400,-3.204,5.188,-6.104,73.333,426.000,1.000
10473.244,7713.174,-105549.834,-63046.842,2289.898,11359.645,15741.191,14502.375,-0.029,0.891,-0.398,-2.991,5.341,-6.042,73.333,427.000,1.000
10389.861,7653.966,-105765.539,-63206.012,2307.372,11289.741,15670.767,14425.483,-0.032,0.888,-0.395,-2.655,5.585,-5.981,73.333,428.000,1.000
10306.070,7594.595,-105979.367,-63364.172,2324.076,11217.633,15598.686,14347.237,-0.033,0.885,-0.394,-2.380,5.829,-5.890,73.333,429.000,1.000
10222.710,7535.875,-106191.010,-63521.052,2340.322,11145.400,15526.810,14267.742,-0.036,0.883,-0.391,-2.075,5.951,-5.707,73.333,430.000,1.000
10140.768,7478.662,-106399.981,-63676.171,2356.606,11075.138,15457.093,14188.021,-0.036,0.883,-0.394,-1.678,6.226,-5.646,73.333,431.000,1.000
10060.671,7423.230,-106605.886,-63829.117,2373.348,11007.463,15390.407,14109.479,-0.038,0.886,-0.392,-1.343,6.226,-5.493,73.333,432.000,1.000
9982.038,7368.966,-106808.717,-63979.857,2390.606,10941.387,15325.994,14032.894,-0.042,0.888,-0.392,-1.038,6.165,-5.280,73.333,433.000,1.000
9904.014,7314.861,-107008.893,-64128.785,2408.008,10875.390,15261.997,13957.932,-0.042,0.892,-0.394,-0.793,6.226,-5.157,73.333,434.000,1.000
9825.743,7260.127,-107206.941,-64276.398,2425.047,10808.457,15196.791,13883.618,-0.044,0.894,-0.395,-0.458,6.134,-5.066,73.333,435.000,1.000
9747.016,7204.581,-107403.105,-64422.930,2441.450,10740.331,15130.042,13809.381,-0.046,0.895,-0.395,-0.305,6.073,-4.822,73.333,436.000,1.000
9668.136,7148.741,-107597.296,-64568.313,2457.257,10671.320,15062.625,13735.346,-0.045,0.897,-0.397,-0.122,6.165,-4.608,73.333,437.000,1.000
9589.748,7093.529,-107789.249,-64712.323,2472.702,10602.255,14995.735,13662.023,-0.046,0.898,-0.396,0.153,6.012,-4.395,73.333,438.000,1.000
9512.413,7039.686,-107978.651,-64854.682,2488.095,10534.411,14930.032,13589.782,-0.049,0.899,-0.399,0.458,5.981,-4.211,73.333,439.000,1.000
9436.006,6987.358,-108165.268,-64995.169,2503.685,10468.788,14865.398,13518.475,-0.050,0.901,-0.397,0.610,5.890,-3.876,73.333,440.000,1.000
9359.967,6936.150,-108349.069,-65133.725,2519.534,10405.196,14801.242,13447.731,-0.053,0.902,-0.396,0.671,5.615,-3.815,73.333,441.000,1.000
9283.530,6885.305,-108530.264,-65270.510,2535.479,10342.186,14736.800,13377.133,-0.056,0.906,-0.394,0.854,5.493,-3.662,73.333,442.000,1.000
9206.077,6833.872,-108709.186,-65405.814,2551.235,10277.951,14671.267,13306.165,-0.055,0.907,-0.398,0.854,5.341,-3.479,73.333,443.000,1.000
9127.325,6781.010,-108886.145,-65539.942,2566.522,10211.546,14604.064,13234.237,-0.056,0.909,-0.399,0.916,5.066,-3.326,73.333,444.000,1.000
9047.393,6726.487,-109061.318,-65673.093,2581.173,10143.535,14535.460,13161.074,-0.053,0.912,-0.398,0.977,4.761,-3.113,73.333,445.000,1.000
8967.138,6671.211,-109234.601,-65805.183,2595.296,10075.536,14466.756,13087.268,-0.053,0.913,-0.400,0.916,4.608,-2.838,73.333,446.000,1.000
8887.761,6616.841,-109405.620,-65935.842,2609.253,10009.095,14399.530,13013.992,-0.052,0.912,-0.401,0.916,4.364,-2.502,73.333,447.000,1.000
8810.401,6564.708,-109573.933,-66064.630,2623.437,9945.180,14334.872,12942.380,-0.051,0.911,-0.401,0.916,4.272,-2.350,73.333,448.000,1.000
8735.628,6515.284,-109739.272,-66191.273,2638.054,9884.303,14272.881,12872.851,-0.047,0.909,-0.400,0.977,4.242,-2.106,73.333,449.000,1.000
8662.775,6468.107,-109901.660,-66315.787,2653.060,9826.025,14212.227,12804.480,-0.046,0.906,-0.400,1.129,4.028,-1.923,73.333,450.000,1.000
8590.354,6421.894,-110061.347,-66438.427,2668.257,9768.585,14150.824,12735.512,-0.044,0.905,-0.403,1.312,3.967,-1.709,73.333,451.000,1.000
8517.039,6375.165,-110218.671,-66559.516,2683.408,9710.049,14087.438,12664.621,-0.043,0.904,-0.403,1.556,3.937,-1.282,73.333,452.000,1.000
8442.816,6327.289,-110373.916,-66679.307,2698.313,9649.803,14022.326,12591.786,-0.043,0.901,-0.405,1.953,3.937,-0.946,73.333,453.000,1.000
8368.766,6278.744,-110527.268,-66797.959,2712.817,9588.508,13956.251,12517.992,-0.042,0.900,-0.404,2.228,3.967,-0.671,73.333,454.000,1.000
8295.435,6229.988,-110678.782,-66915.519,2726.836,9526.931,13889.524,12444.128,-0.042,0.904,-0.406,2.502,3.937,-0.305,73.333,455.000,1.000
8222.160,6180.590,-110828.362,-67031.901,2740.406,9465.107,13822.097,12370.389,-0.042,0.906,-0.407,2.930,3.845,0.092,73.333,456.000,1.000
8147.792,6129.833,-110975.873,-67146.995,2753.596,9402.481,13753.970,12296.558,-0.041,0.906,-0.409,3.204,3.876,0.519,73.333,457.000,1.000
8072.118,6077.743,-111121.194,-67260.726,2766.495,9338.838,13685.527,12222.911,-0.040,0.906,-0.408,3.418,3.754,0.916,73.333,458.000,1.000
7996.007,6025.179,-111264.165,-67372.962,2779.280,9275.100,13617.662,12150.373,-0.044,0.909,-0.409,3.784,3.693,1.282,73.333,459.000,1.000
7920.244,5973.177,-111404.654,-67483.566,2792.140,9212.730,13551.326,12079.510,-0.044,0.910,-0.408,3.967,3.662,1.587,73.333,460.000,1.000
7845.014,5922.293,-111542.694,-67592.543,2805.112,9152.224,13486.776,12009.886,-0.045,0.914,-0.410,4.272,3.448,1.862,73.333,461.000,1.000
7769.911,5872.349,-111678.460,-67700.029,2818.067,9092.570,13423.224,11940.392,-0.043,0.916,-0.413,4.425,3.326,2.045,73.333,462.000,1.000
7694.687,5822.946,-111812.082,-67806.113,2830.881,9032.396,13359.425,11870.225,-0.045,0.919,-0.413,4.547,3.204,2.289,73.333,463.000,1.000
7619.708,5774.157,-111943.579,-67910.786,2843.533,8971.418,13294.626,11799.364,-0.045,0.920,-0.411,4.608,3.052,2.563,73.333,464.000,1.000
7545.330,5726.001,-112072.957,-68014.064,2856.021,8910.304,13228.835,11728.061,-0.045,0.924,-0.409,4.608,2.686,2.655,73.333,465.000,1.000
7471.395,5677.472,-112200.276,-68116.055,2868.280,8849.293,13162.314,11656.364,-0.044,0.928,-0.410,4.608,2.533,2.777,73.333,466.000,1.000
7397.287,5627.028,-112325.661,-68216.920,2880.170,8787.663,13095.157,11584.163,-0.046,0.929,-0.413,4.456,2.228,2.960,73.333,467.000,1.000
7322.933,5574.280,-112449.210,-68316.757,2891.579,8724.808,13027.634,11511.803,-0.047,0.931,-0.412,4.303,1.831,3.113,73.333,468.000,1.000
7249.182,5520.814,-112570.847,-68415.442,2902.586,8661.405,12960.600,11440.216,-0.045,0.932,-0.412,4.181,1.556,3.143,73.333,469.000,1.000
7176.760,5468.860,-112690.302,-68512.656,2913.463,8598.928,12895.041,11370.035,-0.043,0.931,-0.412,3.876,1.251,3.357,73.333,470.000,1.000
7105.424,5419.205,-112807.297,-68608.109,2924.474,8538.175,12831.120,11300.922,-0.042,0.927,-0.413,3.693,1.068,3.448,73.333,471.000,1.000
7034.016,5370.865,-112921.774,-68701.762,2935.679,8478.794,12768.008,11231.870,-0.041,0.926,-0.412,3.479,0.763,3.540,73.333,472.000,1.000
6961.714,5322.670,-113033.869,-68793.788,2946.962,8420.235,12704.836,11162.365,-0.041,0.923,-0.408,3.113,0.488,3.571,73.333,473.000,1.000
6888.587,5274.312,-113143.802,-68884.428,2958.152,8362.494,12641.398,11092.837,-0.038,0.921,-0.407,2.838,0.122,3.601,73.333,474.000,1.000
6814.915,5225.795,-113251.853,-68973.975,2969.013,8305.717,12577.929,11023.947,-0.037,0.918,-0.406,2.563,-0.061,3.601,73.333,475.000,1.000
6741.084,5177.109,-113358.220,-69062.620,2979.383,8249.725,12514.851,10956.137,-0.036,0.915,-0.402,2.380,-0.336,3.632,73.333,476.000,1.000
6667.646,5128.558,-113462.764,-69150.207,2989.400,8194.181,12452.489,10889.443,-0.033,0.914,-0.403,2.075,-0.458,3.784,73.333,477.000,1.000
6595.163,5080.605,-113565.079,-69236.307,2999.437,8138.779,12390.597,10823.465,-0.032,0.913,-0.399,1.831,-0.793,3.815,73.333,478.000,1.000
6523.597,5033.129,-113664.862,-69320.596,3009.767,8083.190,12328.229,10757.450,-0.031,0.915,-0.400,1.495,-1.038,3.815,73.333,479.000,1.000
6452.012,4985.080,-113762.122,-69403.072,3020.379,8026.876,12264.126,10690.379,-0.029,0.911,-0.393,1.099,-1.251,3.845,73.333,480.000,1.000
6379.448,4935.266,-113857.131,-69483.984,3031.021,7969.169,12197.386,10621.332,-0.027,0.909,-0.395,0.702,-1.556,3.998,73.333,481.000,1.000
6305.609,4883.455,-113950.287,-69563.706,3041.327,7909.755,12128.070,10549.874,-0.027,0.907,-0.393,0.397,-1.709,4.059,73.333,482.000,1.000
6231.093,4830.492,-114041.859,-69642.513,3051.069,7848.941,12057.302,10476.453,-0.026,0.906,-0.394,0.061,-1.831,4.211,73.333,483.000,1.000
6156.791,4777.501,-114131.809,-69720.430,3060.309,7787.266,11986.476,10402.142,-0.025,0.905,-0.392,-0.336,-1.923,4.181,73.333,484.000,1.000
6083.048,4725.202,-114219.919,-69797.302,3069.242,7724.912,11916.342,10327.719,-0.025,0.903,-0.392,-0.671,-2.075,4.181,73.333,485.000,1.000
6009.949,4673.915,-114305.963,-69872.903,3078.049,7661.744,11847.016,10253.473,-0.025,0.902,-0.390,-1.038,-2.289,4.120,73.333,486.000,1.000
5937.731,4623.856,-114389.761,-69947.001,3086.887,7597.897,11778.588,10179.751,-0.024,0.903,-0.390,-1.587,-2.380,4.089,73.333,487.000,1.000
5866.912,4575.199,-114471.245,-70019.495,3095.842,7533.937,11711.370,10107.403,-0.024,0.904,-0.390,-1.923,-2.625,4.089,73.333,488.000,1.000
5797.747,4527.698,-114550.589,-70090.547,3104.787,7470.356,11645.442,10037.135,-0.022,0.905,-0.386,-2.350,-2.686,4.120,73.333,489.000,1.000
5729.585,4480.406,-114628.131,-70160.473,3113.430,7407.092,11580.289,9968.537,-0.021,0.908,-0.389,-2.777,-2.777,3.998,73.333,490.000,1.000
5661.358,4432.282,-114704.034,-70229.410,3121.644,7343.889,11515.267,9900.457,-0.021,0.911,-0.390,-3.326,-2.960,3.906,73.333,491.000,1.000
5592.274,4383.200,-114778.125,-70297.173,3129.614,7281.096,11450.307,9832.068,-0.020,0.913,-0.389,-3.815,-2.991,3.906,73.333,492.000,1.000
5522.445,4334.061,-114850.053,-70363.411,3137.687,7219.728,11385.968,9763.468,-0.018,0.916,-0.383,-4.333,-3.143,3.967,73.333,493.000,1.000
5452.667,4285.899,-114919.549,-70427.865,3146.109,7160.541,11322.684,9695.300,-0.017,0.915,-0.385,-4.944,-3.174,3.815,73.333,494.000,1.000
5383.572,4239.162,-114986.604,-70490.554,3154.866,7103.219,11260.220,9628.019,-0.017,0.916,-0.385,-5.432,-3.204,3.784,73.333,495.000,1.000
5315.360,4193.738,-115051.434,-70551.729,3163.726,7046.710,11198.085,9561.774,-0.018,0.914,-0.388,-6.012,-3.265,3.632,73.333,496.000,1.000
5247.588,4149.052,-115114.296,-70611.690,3172.424,6990.017,11135.929,9496.384,-0.019,0.914,-0.388,-6.500,-3.143,3.632,73.333,497.000,1.000
5179.634,4104.325,-115175.338,-70670.603,3180.828,6932.543,11073.482,9431.467,-0.016,0.912,-0.387,-6.989,-3.204,3.510,73.333,498.000,1.000
5111.355,4059.209,-115234.632,-70728.496,3188.924,6874.273,11010.556,9366.680,-0.015,0.914,-0.388,-7.446,-3.174,3.479,73.333,499.000,1.000
5043.103,4013.962,-115292.251,-70785.381,3196.695,6815.810,10947.194,9301.766,-0.016,0.913,-0.388,-7.935,-3.082,3.204,73.333,500.000,1.000
4975.571,3968.868,-115348.208,-70841.231,3204.155,6757.887,10883.537,9236.602,-0.015,0.913,-0.388,-8.362,-2.899,3.021,73.333,501.000,1.000
4909.078,3923.682,-115402.388,-70895.907,3211.409,6700.716,10819.502,9171.025,-0.013,0.912,-0.386,-8.759,-2.838,2.869,73.333,502.000,1.000
4843.325,3877.932,-115454.590,-70949.192,3218.633,6643.999,10755.031,9104.952,-0.013,0.912,-0.387,-9.033,-2.625,2.716,73.333,503.000,1.000
4777.761,3831.774,-115504.605,-71000.885,3226.014,6587.596,10690.618,9038.795,-0.012,0.911,-0.389,-9.277,-2.625,2.594,73.333,504.000,1.000
4711.927,3786.100,-115552.332,-71050.928,3233.640,6531.802,10627.102,8973.468,-0.013,0.910,-0.386,-9.308,-2.533,2.472,73.333,505.000,1.000
4645.726,3741.850,-115597.872,-71099.471,3241.421,6476.839,10564.879,8909.793,-0.011,0.912,-0.387,-9.430,-2.380,2.350,73.333,506.000,1.000
4578.928,3699.319,-115641.513,-71146.830,3249.107,6422.365,10503.487,8847.542,-0.008,0.916,-0.389,-9.521,-2.197,2.228,73.333,507.000,1.000
4511.014,3657.856,-115683.530,-71193.297,3256.438,6367.443,10441.925,8785.311,-0.010,0.920,-0.390,-9.583,-2.014,2.075,73.333,508.000,1.000
4441.641,3616.090,-115723.977,-71238.929,3263.328,6311.053,10379.275,8721.387,-0.011,0.922,-0.392,-9.796,-1.831,2.014,73.333,509.000,1.000
4371.253,3572.826,-115762.654,-71283.492,3269.948,6252.770,10315.259,8654.861,-0.010,0.926,-0.392,-9.796,-1.617,1.862,73.333,510.000,1.000
4301.316,3527.895,-115799.305,-71326.639,3276.590,6193.043,10250.419,8586.292,-0.009,0.925,-0.392,-9.888,-1.434,1.862,73.333,511.000,1.000
4233.011,3481.799,-115833.864,-71368.226,3283.388,6132.739,10185.623,8516.999,-0.008,0.925,-0.393,-10.071,-1.190,1.831,73.333,512.000,1.000
4166.233,3434.867,-115866.462,-71408.392,3290.245,6072.436,10121.457,8448.048,-0.009,0.926,-0.390,-10.101,-1.099,1.709,73.333,513.000,1.000
4099.942,3387.298,-115897.269,-71447.389,3296.972,6012.221,10057.987,8379.935,-0.009,0.925,-0.390,-10.101,-0.763,1.587,73.333,514.000,1.000
4033.169,3339.555,-115926.406,-71485.426,3303.422,5951.932,9994.729,8312.698,-0.009,0.922,-0.391,-10.010,-0.641,1.556,73.333,515.000,1.000
3965.977,3292.458,-115953.934,-71522.594,3309.552,5891.623,9931.034,8246.241,-0.010,0.919,-0.394,-9.888,-0.488,1.465,73.333,516.000,1.000
3899.129,3246.860,-115979.874,-71558.889,3315.361,5831.915,9866.776,8180.458,-0.010,0.916,-0.391,-9.888,-0.183,1.343,73.333,517.000,1.000
3833.330,3203.014,-116004.175,-71594.190,3320.900,5773.660,9802.512,8115.271,-0.012,0.915,-0.388,-9.460,-0.031,1.282,73.333,518.000,1.000
3768.766,3160.216,-116026.675,-71628.252,3326.318,5717.184,9738.864,8050.420,-0.010,0.915,-0.392,-9.094,-0.031,1.221,73.333,519.000,1.000
3705.182,3117.251,-116047.187,-71660.859,3331.778,5661.974,9675.970,7985.348,-0.011,0.913,-0.392,-8.698,0.214,1.160,73.333,520.000,1.000
3642.458,3073.316,-116065.636,-71691.970,3337.350,5607.005,9613.496,7919.608,-0.011,0.912,-0.393,-8.301,0.275,1.038,73.333,521.000,1.000
3580.332,3028.434,-116082.126,-71721.732,3342.959,5551.184,9550.770,7852.965,-0.011,0.911,-0.391,-7.874,0.397,0.885,73.333,522.000,1.000
3518.228,2983.049,-116096.875,-71750.373,3348.453,5493.732,9487.175,7785.429,-0.014,0.911,-0.391,-7.416,0.610,0.793,73.333,523.000,1.000
3455.634,2937.644,-116110.042,-71778.045,3353.745,5434.709,9422.877,7717.610,-0.017,0.910,-0.393,-6.866,0.610,0.824,73.333,524.000,1.000
3392.593,2892.914,-116121.599,-71804.730,3358.893,5375.354,9359.208,7650.808,-0.020,0.907,-0.390,-6.378,0.702,0.702,73.333,525.000,1.000
3330.069,2849.974,-116131.374,-71830.285,3364.039,5317.623,9298.022,7586.534,-0.020,0.904,-0.390,-5.951,0.763,0.519,73.333,526.000,1.000
3268.947,2809.333,-116139.211,-71854.555,3369.255,5262.819,9240.064,7525.398,-0.022,0.901,-0.386,-5.402,0.824,0.366,73.333,527.000,1.000
3209.025,2769.641,-116145.098,-71877.467,3374.489,5210.273,9183.707,7466.498,-0.025,0.896,-0.382,-4.761,0.641,0.275,73.333,528.000,1.000
3149.273,2728.559,-116149.201,-71899.107,3379.583,5157.639,9125.495,7407.840,-0.024,0.890,-0.376,-3.998,0.519,0.092,73.333,529.000,1.000
3088.893,2684.960,-116151.726,-71919.644,3384.395,5102.835,9062.575,7347.502,-0.028,0.886,-0.376,-3.113,0.397,0.061,73.333,530.000,1.000
3028.081,2639.680,-116152.687,-71939.126,3388.967,5045.805,8994.898,7284.789,-0.027,0.879,-0.377,-2.228,0.275,0.061,73.333,531.000,1.000
2967.359,2594.449,-116151.917,-71957.484,3393.478,4988.425,8924.972,7220.130,-0.026,0.871,-0.379,-1.282,0.122,0.122,73.333,532.000,1.000
2907.029,2550.603,-116149.261,-71974.659,3398.068,4933.038,8856.086,7154.440,-0.026,0.864,-0.374,-0.183,-0.092,0.244,73.333,533.000,1.000
2847.117,2508.487,-116144.656,-71990.611,3402.792,4881.238,8790.897,7088.744,-0.023,0.859,-0.372,1.038,-0.092,0.305,73.333,534.000,1.000
2787.393,2467.544,-116138.082,-72005.258,3407.672,4833.421,8730.538,7023.857,-0.020,0.856,-0.373,2.350,-0.183,0.366,73.333,535.000,1.000
2727.799,2426.939,-116129.556,-72018.537,3412.707,4788.698,8674.125,6960.134,-0.016,0.859,-0.376,3.632,-0.153,0.458,73.333,536.000,1.000
2668.342,2386.012,-116119.234,-72030.541,3417.788,4745.166,8619.148,6897.172,-0.014,0.865,-0.374,4.791,-0.122,0.519,73.333,537.000,1.000
2609.075,2344.597,-116107.392,-72041.526,3422.678,4700.762,8562.938,6834.195,-0.010,0.871,-0.375,5.768,-0.092,0.580,73.333,538.000,1.000
2550.160,2303.272,-116094.276,-72051.775,3427.113,4654.460,8504.153,6770.948,-0.006,0.877,-0.376,6.775,0.122,0.641,73.333,539.000,1.000
2491.666,2262.985,-116080.025,-72061.478,3430.899,4606.771,8443.160,6708.110,-0.005,0.880,-0.378,7.568,0.427,0.763,73.333,540.000,1.000
2433.776,2224.510,-116064.545,-72070.580,3434.091,4559.289,8381.712,6647.271,-0.002,0.885,-0.378,8.392,0.641,0.641,73.333,541.000,1.000
2376.752,2188.237,-116047.434,-72078.686,3437.105,4513.839,8322.361,6590.326,0.002,0.888,-0.384,9.094,0.916,0.641,73.333,542.000,1.000
2320.810,2154.120,-116028.212,-72085.289,3440.471,4471.494,8266.762,6538.166,0.005,0.887,-0.382,9.705,1.221,0.519,73.333,543.000,1.000
2265.690,2121.556,-116006.777,-72090.222,3444.357,4431.789,8213.204,6488.769,0.006,0.887,-0.379,10.162,1.495,0.397,73.333,544.000,1.000
2210.489,2089.463,-115983.500,-72093.796,3448.445,4392.882,8156.989,6437.266,0.006,0.887,-0.379,10.712,1.831,0.336,73.333,545.000,1.000
2154.641,2056.920,-115958.782,-72096.385,3452.341,4352.878,8094.791,6379.573,0.008,0.889,-0.376,11.047,2.136,0.183,73.333,546.000,1.000
2098.282,2023.674,-115932.707,-72098.095,3455.930,4311.001,8027.635,6315.304,0.009,0.892,-0.375,11.414,2.533,-0.092,73.333,547.000,1.000
2041.949,1989.926,-115905.159,-72098.864,3459.289,4267.558,7959.445,6247.107,0.010,0.889,-0.378,11.780,2.869,-0.366,73.333,548.000,1.000
1986.085,1955.787,-115875.996,-72098.620,3462.523,4223.278,7894.111,6178.398,0.010,0.891,-0.378,12.024,3.265,-0.671,73.333,549.000,1.000
1930.508,1920.783,-115845.036,-72097.223,3465.796,4178.462,7833.603,6111.612,0.009,0.893,-0.375,12.360,3.632,-1.038,73.333,550.000,1.000
1874.387,1883.751,-115812.146,-72094.524,3469.263,4132.350,7777.145,6047.326,0.009,0.897,-0.378,12.665,3.967,-1.465,73.333,551.000,1.000
1816.469,1843.358,-115777.442,-72090.578,3472.861,4083.618,7721.741,5984.218,0.011,0.900,-0.377,12.909,4.303,-1.862,73.333,552.000,1.000
1756.246,1799.328,-115741.207,-72085.613,3476.347,4031.697,7664.519,5920.519,0.011,0.903,-0.376,13.092,4.517,-2.167,73.333,553.000,1.000
1694.691,1753.265,-115703.688,-72079.861,3479.489,3977.355,7604.994,5855.736,0.010,0.907,-0.378,13.031,4.822,-2.533,73.333,554.000,1.000
1633.248,1707.548,-115665.021,-72073.456,3482.147,3921.681,7544.708,5790.584,0.008,0.910,-0.377,12.878,5.066,-2.899,73.333,555.000,1.000
1572.677,1663.468,-115625.252,-72066.432,3484.273,3864.770,7484.924,5725.562,0.009,0.911,-0.382,12.848,5.219,-3.204,73.333,556.000,1.000
1512.726,1620.866,-115584.363,-72058.761,3485.882,3805.870,7425.297,5659.975,0.004,0.913,-0.385,12.817,5.524,-3.479,73.333,557.000,1.000
1453.018,1579.052,-115542.174,-72050.282,3487.163,3744.591,7364.869,5592.849,0.001,0.916,-0.385,12.482,5.646,-3.784,73.333,558.000,1.000
1393.627,1537.408,-115498.298,-72040.668,3488.507,3681.592,7303.670,5524.336,0.000,0.918,-0.383,12.177,5.768,-4.059,73.333,559.000,1.000
1334.535,1495.313,-115452.463,-72029.700,3490.195,3618.015,7242.743,5455.523,-0.004,0.923,-0.385,11.963,5.798,-4.333,73.333,560.000,1.000
1275.368,1452.204,-115404.798,-72017.510,3492.085,3554.592,7182.829,5387.267,-0.007,0.926,-0.384,11.536,5.829,-4.517,73.333,561.000,1.000
1215.675,1407.860,-115355.657,-72004.404,3493.805,3491.553,7123.596,5319.606,-0.006,0.928,-0.388,11.139,5.859,-4.669,73.333,562.000,1.000
1155.700,1362.469,-115305.195,-71990.475,3495.215,3429.100,7064.317,5252.528,-0.007,0.931,-0.390,10.712,5.890,-5.066,73.333,563.000,1.000
1096.288,1316.445,-115253.312,-71975.580,3496.464,3367.668,7004.883,5186.651,-0.010,0.935,-0.388,10.162,5.737,-5.157,73.333,564.000,1.000
1037.831,1270.285,-115199.918,-71959.621,3497.678,3307.703,6945.788,5122.707,-0.011,0.938,-0.395,9.583,5.707,-5.402,73.333,565.000,1.000
979.976,1224.433,-115144.986,-71942.613,3498.869,3249.270,6887.330,5060.817,-0.012,0.937,-0.394,8.972,5.646,-5.493,73.333,566.000,1.000
921.894,1179.057,-115088.476,-71924.577,3500.028,3191.937,6829.135,5000.231,-0.014,0.940,-0.394,8.545,5.615,-5.585,73.333,567.000,1.000
863.156,1134.270,-115030.350,-71905.491,3501.177,3135.122,6770.746,4939.930,-0.013,0.939,-0.394,7.843,5.493,-5.554,73.333,568.000,1.000
804.148,1090.493,-114970.621,-71885.317,3502.346,3078.584,6712.350,4879.423,-0.017,0.938,-0.394,7.233,5.249,-5.463,73.333,569.000,1.000
745.344,1047.918,-114909.421,-71864.126,3503.485,3022.461,6654.529,4818.858,-0.017,0.939,-0.395,6.531,5.096,-5.554,73.333,570.000,1.000
686.994,1006.068,-114846.964,-71842.099,3504.443,2967.099,6597.568,4758.885,-0.017,0.939,-0.396,5.920,4.913,-5.554,73.333,571.000,1.000
629.298,964.404,-114783.382,-71819.395,3505.086,2913.020,6541.248,4700.164,-0.019,0.938,-0.398,5.280,4.791,-5.432,73.333,572.000,1.000
572.782,922.878,-114718.628,-71796.025,3505.395,2860.587,6485.145,4642.829,-0.020,0.937,-0.399,4.791,4.578,-5.371,73.333,573.000,1.000
517.969,881.695,-114652.529,-71771.876,3505.460,2809.505,6428.942,4586.356,-0.023,0.935,-0.399,4.181,4.303,-5.402,73.333,574.000,1.000
464.549,840.724,-114584.896,-71746.771,3505.437,2758.792,6372.413,4529.878,-0.025,0.935,-0.396,3.693,3.998,-5.249,73.333,575.000,1.000
411.387,799.233,-114515.627,-71720.580,3505.445,2707.278,6315.228,4472.661,-0.025,0.934,-0.399,3.143,3.693,-5.188,73.333,576.000,1.000
356.958,756.244,-114444.828,-71693.361,3505.425,2654.213,6256.929,4414.201,-0.028,0.932,-0.398,2.716,3.265,-5.157,73.333,577.000,1.000
300.365,711.454,-114372.727,-71665.281,3505.196,2599.632,6197.390,4354.511,-0.030,0.929,-0.397,2.197,2.869,-4.883,73.333,578.000,1.000
241.862,665.709,-114299.399,-71636.359,3504.716,2544.300,6137.178,4294.334,-0.030,0.929,-0.396,1.648,2.563,-4.852,73.333,579.000,1.000
182.227,620.166,-114224.637,-71606.391,3504.197,2489.138,6077.172,4234.640,-0.031,0.927,-0.400,1.343,2.136,-4.791,73.333,580.000,1.000
122.309,575.374,-114148.176,-71575.153,3503.929,2434.669,6017.916,4176.060,-0.034,0.925,-0.400,0.977,1.831,-4.791,73.333,581.000,1.000
62.813,531.401,-114070.022,-71542.698,3503.957,2380.972,5959.457,4118.629,-0.035,0.922,-0.397,0.702,1.373,-4.761,73.333,582.000,1.000
4.522,488.303,-113990.436,-71509.312,3504.056,2327.752,5901.574,4061.981,-0.033,0.921,-0.400,0.427,0.763,-4.547,73.333,583.000,1.000
-51.715,446.062,-113909.645,-71475.228,3503.963,2274.529,5843.983,4005.566,-0.033,0.919,-0.401,0.153,0.244,-4.456,73.333,584.000,1.000
-105.551,404.313,-113827.752,-71440.534,3503.492,2221.065,5786.597,3948.757,-0.036,0.917,-0.401,-0.122,-0.183,-4.395,73.333,585.000,1.000
-157.316,362.571,-113744.762,-71405.213,3502.575,2167.567,5729.714,3891.297,-0.036,0.915,-0.401,-0.244,-0.641,-4.303,73.333,586.000,1.000
-208.159,320.625,-113660.591,-71369.145,3501.326,2114.399,5673.683,3833.344,-0.036,0.913,-0.398,-0.458,-1.007,-4.211,73.333,587.000,1.000
-259.545,278.543,-113575.032,-71332.101,3500.038,2061.629,5618.420,3775.135,-0.033,0.909,-0.400,-0.580,-1.465,-4.089,73.333,588.000,1.000
-312.426,236.563,-113487.844,-71293.858,3499.025,2009.057,5563.402,3716.831,-0.034,0.910,-0.399,-0.580,-1.770,-4.089,73.333,589.000,1.000
-366.815,195.149,-113398.929,-71254.367,3498.388,1956.685,5508.097,3658.616,-0.031,0.907,-0.398,-0.732,-2.167,-4.120,73.333,590.000,1.000
-421.642,155.104,-113308.377,-71213.761,3497.988,1904.963,5452.355,3600.798,-0.033,0.905,-0.398,-0.854,-2.594,-4.059,73.333,591.000,1.000
-475.568,117.193,-113216.354,-71172.212,3497.583,1854.453,5396.372,3543.456,-0.033,0.906,-0.399,-0.854,-2.960,-4.059,73.333,592.000,1.000
-527.838,81.436,-113122.993,-71129.827,3496.994,1805.322,5340.435,3486.385,-0.030,0.906,-0.404,-0.885,-3.204,-3.998,73.333,593.000,1.000
-578.546,47.040,-113028.358,-71086.627,3496.177,1757.372,5284.754,3429.425,-0.028,0.907,-0.405,-0.885,-3.448,-3.967,73.333,594.000,1.000
-628.293,13.203,-112932.436,-71042.539,3495.229,1710.476,5229.471,3372.652,-0.027,0.909,-0.402,-0.885,-3.723,-3.876,73.333,595.000,1.000
-677.392,-20.262,-112835.125,-70997.427,3494.348,1664.769,5174.732,3316.499,-0.024,0.908,-0.406,-0.946,-3.876,-3.937,73.333,596.000,1.000
-726.104,-53.422,-112736.373,-70951.234,3493.640,1620.291,5120.496,3261.376,-0.022,0.907,-0.407,-1.007,-3.967,-3.967,73.333,597.000,1.000
-775.020,-86.854,-112636.291,-70904.111,3492.970,1576.510,5066.376,3207.310,-0.019,0.908,-0.406,-1.068,-4.059,-3.967,73.333,598.000,1.000
-824.748,-121.239,-112535.080,-70856.298,3492.085,1532.469,5011.860,3154.023,-0.018,0.903,-0.406,-1.099,-4.059,-3.876,73.333,599.000,1.000
-875.356,-156.739,-112432.827,-70807.895,3490.866,1487.391,4956.698,3101.214,-0.015,0.903,-0.406,-1.007,-4.120,-3.754,73.333,600.000,1.000
-925.918,-192.763,-112329.436,-70758.794,3489.416,1441.289,4901.202,3049.000,-0.016,0.904,-0.408,-1.068,-3.967,-3.723,73.333,601.000,1.000
-975.318,-228.101,-112224.733,-70708.805,3487.933,1395.153,4846.150,2997.798,-0.016,0.905,-0.408,-1.038,-3.876,-3.662,73.333,602.000,1.000
-1023.312,-261.719,-112118.574,-70657.770,3486.591,1350.256,4792.216,2947.740,-0.014,0.904,-0.407,-0.946,-3.906,-3.632,73.333,603.000,1.000
-1070.648,-293.511,-112010.874,-70605.595,3485.490,1307.259,4739.451,2898.285,-0.015,0.904,-0.406,-1.068,-3.845,-3.723,73.333,604.000,1.000
-1118.142,-323.943,-111901.608,-70552.259,3484.652,1266.171,4687.446,2848.596,-0.014,0.906,-0.410,-1.099,-3.723,-3.754,73.333,605.000,1.000
-1165.434,-353.087,-111790.739,-70497.761,3484.077,1226.985,4636.040,2798.585,-0.015,0.903,-0.410,-1.160,-3.479,-3.845,73.333,606.000,1.000
-1211.479,-380.619,-111678.279,-70442.152,3483.714,1189.862,4585.495,2749.058,-0.015,0.900,-0.410,-1.007,-3.326,-3.845,73.333,607.000,1.000
-1255.889,-406.840,-111564.433,-70385.639,3483.353,1154.444,4535.869,2700.744,-0.014,0.898,-0.408,-0.977,-3.204,-3.998,73.333,608.000,1.000
-1299.589,-433.086,-111449.566,-70328.558,3482.658,1119.506,4486.448,2653.318,-0.013,0.898,-0.405,-0.854,-3.052,-4.028,73.333,609.000,1.000
-1344.164,-460.838,-111333.975,-70271.159,3481.380,1083.549,4435.956,2605.406,-0.013,0.895,-0.407,-0.732,-2.838,-4.242,73.333,610.000,1.000
-1390.274,-490.618,-111217.722,-70213.458,3479.510,1045.426,4383.261,2555.609,-0.014,0.890,-0.407,-0.549,-2.686,-4.364,73.333,611.000,1.000
-1437.385,-522.020,-111100.687,-70155.291,3477.218,1004.529,4327.889,2503.229,-0.015,0.888,-0.407,-0.397,-2.441,-4.364,73.333,612.000,1.000
-1484.495,-554.440,-110982.639,-70096.431,3474.740,960.937,4270.261,2448.522,-0.014,0.886,-0.403,-0.183,-2.258,-4.639,73.333,613.000,1.000
-1530.733,-587.275,-110863.316,-70036.667,3472.294,915.684,4211.658,2392.707,-0.014,0.886,-0.405,0.031,-1.953,-4.730,73.333,614.000,1.000
-1575.506,-619.771,-110742.472,-69975.822,3470.055,870.462,4153.766,2337.431,-0.015,0.886,-0.408,0.458,-1.678,-4.822,73.333,615.000,1.000
-1618.429,-651.140,-110619.874,-69913.714,3468.218,826.686,4097.953,2283.899,-0.016,0.886,-0.411,0.763,-1.495,-4.944,73.333,616.000,1.000
-1660.011,-680.940,-110495.439,-69850.259,3466.902,784.795,4044.681,2232.060,-0.014,0.887,-0.410,1.099,-1.221,-5.096,73.333,617.000,1.000
-1701.676,-709.279,-110369.391,-69785.646,3465.965,744.284,3993.488,2180.904,-0.017,0.888,-0.410,1.373,-1.068,-5.188,73.333,618.000,1.000
-1744.849,-736.719,-110242.167,-69720.251,3465.036,704.217,3943.349,2129.466,-0.018,0.892,-0.412,1.678,-0.824,-5.249,73.333,619.000,1.000
-1790.247,-764.193,-110114.157,-69654.396,3463.748,663.661,3893.115,2077.354,-0.019,0.893,-0.413,1.953,-0.763,-5.249,73.333,620.000,1.000
-1837.464,-792.631,-109985.509,-69588.201,3461.929,622.038,3842.127,2024.866,-0.020,0.890,-0.413,2.258,-0.488,-5.188,73.333,621.000,1.000
-1885.508,-822.385,-109856.108,-69521.575,3459.637,579.430,3790.470,1972.650,-0.023,0.890,-0.413,2.594,-0.153,-5.249,73.333,622.000,1.000
-1933.457,-853.214,-109725.677,-69454.299,3457.104,536.362,3738.505,1921.215,-0.023,0.890,-0.413,2.869,-0.092,-5.371,73.333,623.000,1.000
-1980.781,-884.744,-109593.949,-69386.156,3454.599,493.382,3686.308,1870.666,-0.025,0.890,-0.414,3.082,0.031,-5.371,73.333,624.000,1.000
-2027.274,-916.666,-109460.790,-69317.014,3452.291,450.975,3633.797,1820.797,-0.024,0.890,-0.412,3.296,0.275,-5.341,73.333,625.000,1.000
-2072.607,-948.470,-109326.162,-69246.804,3450.250,409.700,3581.223,1771.523,-0.026,0.889,-0.414,3.510,0.397,-5.249,73.333,626.000,1.000
-2116.565,-979.428,-109190.083,-69175.493,3448.482,370.144,3529.180,1722.907,-0.027,0.889,-0.412,3.815,0.488,-5.280,73.333,627.000,1.000
-2159.186,-1009.052,-109052.633,-69103.127,3446.922,332.536,3478.156,1674.956,-0.027,0.891,-0.411,4.150,0.610,-5.219,73.333,628.000,1.000
-2200.604,-1037.373,-108913.986,-69029.881,3445.411,296.504,3428.142,1627.406,-0.028,0.893,-0.408,4.364,0.793,-5.066,73.333,629.000,1.000
-2241.069,-1064.899,-108774.379,-68956.021,3443.722,261.216,3378.561,1579.635,-0.030,0.892,-0.410,4.547,0.885,-5.127,73.333,630.000,1.000
-2280.753,-1092.317,-108634.024,-68881.798,3441.635,225.687,3328.616,1531.103,-0.031,0.893,-0.410,4.761,1.038,-5.005,73.333,631.000,1.000
-2319.941,-1120.079,-108493.010,-68807.323,3439.028,189.195,3277.801,1481.741,-0.032,0.895,-0.411,4.944,1.007,-4.883,73.333,632.000,1.000
-2359.041,-1148.218,-108351.207,-68732.463,3436.006,151.562,3226.278,1432.102,-0.034,0.896,-0.412,4.974,1.068,-4.883,73.333,633.000,1.000
-2398.601,-1176.535,-108208.300,-68656.880,3432.901,113.197,3174.764,1383.056,-0.035,0.897,-0.412,5.127,1.007,-4.761,73.333,634.000,1.000
-2439.392,-1204.832,-108064.008,-68580.273,3430.035,74.883,3124.028,1335.157,-0.035,0.897,-0.412,5.219,0.977,-4.608,73.333,635.000,1.000
-2481.876,-1232.811,-107918.286,-68502.590,3427.473,37.393,3074.485,1288.493,-0.039,0.898,-0.416,5.402,1.160,-4.333,73.333,636.000,1.000
-2526.052,-1260.168,-107771.346,-68424.050,3424.978,1.103,3025.926,1242.665,-0.039,0.898,-0.417,5.585,1.160,-4.364,73.333,637.000,1.000
-2571.419,-1287.083,-107623.480,-68344.933,3422.233,-34.218,2977.585,1196.950,-0.037,0.898,-0.418,5.554,1.190,-4.150,73.333,638.000,1.000
-2617.031,-1314.280,-107474.839,-68265.363,3419.086,-69.158,2928.655,1150.730,-0.038,0.899,-0.417,5.615,1.160,-4.089,73.333,639.000,1.000
-2661.878,-1342.393,-107325.416,-68185.306,3415.587,-104.303,2878.774,1103.753,-0.038,0.900,-0.414,5.707,1.160,-3.876,73.333,640.000,1.000
-2705.116,-1371.474,-107175.072,-68104.641,3411.925,-140.167,2828.065,1056.170,-0.039,0.903,-0.417,5.676,1.160,-3.693,73.333,641.000,1.000
-2746.570,-1401.234,-107023.597,-68023.213,3408.336,-177.268,2776.762,1008.102,-0.041,0.904,-0.416,5.676,1.160,-3.510,73.333,642.000,1.000
-2786.659,-1431.464,-106870.847,-67940.928,3404.950,-216.013,2724.965,959.406,-0.042,0.904,-0.415,5.707,1.099,-3.357,73.333,643.000,1.000
-2826.014,-1462.025,-106716.874,-67857.820,3401.692,-256.337,2672.765,909.892,-0.040,0.902,-0.418,5.676,1.068,-3.113,73.333,644.000,1.000
-2865.447,-1492.801,-106561.900,-67774.016,3398.355,-297.639,2620.402,859.496,-0.038,0.902,-0.417,5.646,1.038,-2.838,73.333,645.000,1.000
-2905.526,-1523.677,-106406.104,-67689.624,3394.793,-339.128,2568.282,808.488,-0.037,0.898,-0.416,5.585,0.977,-2.625,73.333,646.000,1.000
-2946.374,-1554.450,-106249.490,-67604.667,3391.031,-380.083,2516.890,757.393,-0.037,0.897,-0.413,5.524,1.068,-2.411,73.333,647.000,1.000
-2987.561,-1584.809,-106091.922,-67519.095,3387.202,-419.963,2466.653,706.869,-0.036,0.897,-0.416,5.493,1.099,-2.197,73.333,648.000,1.000
-3028.505,-1614.452,-105933.211,-67432.783,3383.462,-458.479,2417.675,657.459,-0.037,0.896,-0.416,5.524,1.099,-2.075,73.333,649.000,1.000
-3069.183,-1643.387,-105773.205,-67345.580,3379.921,-495.709,2369.597,609.219,-0.036,0.897,-0.414,5.493,1.129,-2.075,73.333,650.000,1.000
-3110.015,-1672.027,-105611.881,-67257.420,3376.570,-532.161,2321.892,561.826,-0.036,0.899,-0.417,5.402,1.099,-1.984,73.333,651.000,1.000
-3151.573,-1700.968,-105449.445,-67168.451,3373.214,-568.574,2274.243,514.808,-0.036,0.901,-0.417,5.280,1.129,-1.923,73.333,652.000,1.000
-3194.064,-1730.680,-105286.247,-67078.980,3369.558,-605.625,2226.674,467.886,-0.039,0.904,-0.419,5.096,1.068,-1.801,73.333,653.000,1.000
-3237.052,-1761.171,-105122.520,-66989.238,3365.428,-643.622,2179.377,421.184,-0.038,0.905,-0.421,4.974,0.977,-1.770,73.333,654.000,1.000
-3279.814,-1791.980,-104958.219,-66899.226,3360.891,-682.429,2132.420,374.951,-0.040,0.905,-0.423,4.852,1.038,-1.648,73.333,655.000,1.000
-3321.638,-1822.606,-104793.101,-66808.742,3356.178,-721.641,2085.648,329.225,-0.038,0.907,-0.423,4.608,1.068,-1.648,73.333,656.000,1.000
-3362.336,-1853.014,-104626.926,-66717.542,3351.517,-760.840,2038.769,283.650,-0.039,0.908,-0.423,4.456,0.916,-1.709,73.333,657.000,1.000
-3402.170,-1883.453,-104459.528,-66625.433,3347.078,-799.761,1991.594,237.876,-0.039,0.907,-0.424,4.181,0.885,-1.770,73.333,658.000,1.000
-3441.467,-1913.781,-104290.810,-66532.310,3342.971,-838.253,1944.208,191.989,-0.038,0.908,-0.423,4.028,1.007,-1.892,73.333,659.000,1.000
-3480.618,-1943.533,-104120.844,-66438.245,3339.138,-876.248,1896.813,146.305,-0.037,0.908,-0.420,3.845,0.977,-1.770,73.333,660.000,1.000
-3519.932,-1972.626,-103949.918,-66343.517,3335.289,-913.888,1849.438,101.117,-0.036,0.907,-0.425,3.632,0.916,-1.892,73.333,661.000,1.000
-3559.767,-2001.528,-103778.388,-66248.466,3331.050,-951.516,1801.894,56.389,-0.037,0.905,-0.423,3.448,0.885,-1.923,73.333,662.000,1.000
-3600.305,-2030.709,-103606.404,-66153.235,3326.247,-989.439,1754.092,11.715,-0.036,0.901,-0.421,3.326,1.007,-1.953,73.333,663.000,1.000
-3641.330,-2060.168,-103433.840,-66057.723,3320.991,-1027.721,1706.227,-33.482,-0.034,0.898,-0.422,3.235,1.007,-1.923,73.333,664.000,1.000
-3682.525,-2089.636,-103260.470,-65961.744,3315.513,-1066.274,1658.573,-79.750,-0.034,0.897,-0.424,3.082,1.099,-2.045,73.333,665.000,1.000
-3723.567,-2119.120,-103086.065,-65865.069,3310.081,-1105.065,1611.256,-127.246,-0.035,0.897,-0.422,3.021,1.038,-2.136,73.333,666.000,1.000
-3764.475,-2149.252,-102910.406,-65767.448,3304.963,-1144.213,1564.083,-175.778,-0.034,0.896,-0.424,2.960,1.129,-2.197,73.333,667.000,1.000
-3805.461,-2180.885,-102733.407,-65668.772,3300.252,-1183.970,1516.664,-224.963,-0.034,0.895,-0.423,2.899,1.129,-2.258,73.333,668.000,1.000
-3846.400,-2214.145,-102555.250,-65569.226,3295.739,-1224.510,1468.854,-274.185,-0.034,0.895,-0.424,2.899,1.190,-2.350,73.333,669.000,1.000
-3886.777,-2248.075,-102376.300,-65469.165,3291.054,-1265.681,1420.983,-322.676,-0.037,0.893,-0.423,2.777,1.282,-2.380,73.333,670.000,1.000
-3925.836,-2281.277,-102196.815,-65368.841,3285.966,-1306.995,1373.614,-369.767,-0.037,0.894,-0.423,2.777,1.312,-2.563,73.333,671.000,1.000
-3963.248,-2312.858,-102016.826,-65268.286,3280.476,-1347.964,1327.048,-415.505,-0.035,0.893,-0.420,2.686,1.221,-2.502,73.333,672.000,1.000
-3999.279,-2342.835,-101836.155,-65167.326,3274.762,-1388.484,1281.161,-460.728,-0.037,0.888,-0.418,2.472,1.282,-2.594,73.333,673.000,1.000
-4034.543,-2371.884,-101654.520,-65065.685,3269.087,-1428.825,1235.668,-506.413,-0.038,0.891,-0.418,2.502,1.312,-2.625,73.333,674.000,1.000
-4069.870,-2400.844,-101471.742,-64963.199,3263.615,-1469.246,1190.494,-553.009,-0.038,0.894,-0.423,2.411,1.312,-2.777,73.333,675.000,1.000
-4105.714,-2430.070,-101287.825,-64859.905,3258.332,-1509.466,1146.067,-599.905,-0.040,0.899,-0.425,2.258,1.312,-2.899,73.333,676.000,1.000
-4141.988,-2459.057,-101102.822,-64755.854,3253.200,-1548.517,1103.021,-645.736,-0.044,0.905,-0.427,2.228,1.068,-3.052,73.333,677.000,1.000
-4178.216,-2486.796,-100916.694,-64650.957,3248.305,-1585.474,1061.384,-689.336,-0.043,0.907,-0.429,1.984,1.099,-3.052,73.333,678.000,1.000
-4213.953,-2512.490,-100729.396,-64545.096,3243.751,-1620.307,1020.226,-730.516,-0.046,0.908,-0.427,1.648,1.038,-3.204,73.333,679.000,1.000
-4249.239,-2536.137,-100540.996,-64438.298,3239.490,-1653.943,978.249,-770.046,-0.046,0.910,-0.426,1.343,0.916,-3.296,73.333,680.000,1.000
-4284.315,-2558.583,-100351.640,-64330.749,3235.329,-1687.643,934.634,-808.944,-0.046,0.909,-0.426,1.007,0.824,-3.296,73.333,681.000,1.000
-4319.445,-2581.009,-100161.545,-64222.736,3230.996,-1722.253,889.284,-848.163,-0.045,0.905,-0.426,0.763,0.702,-3.296,73.333,682.000,1.000
-4354.508,-2604.149,-99970.947,-64114.528,3226.248,-1757.737,842.753,-888.325,-0.046,0.904,-0.427,0.519,0.580,-3.235,73.333,683.000,1.000
-4388.845,-2627.828,-99779.968,-64006.225,3220.990,-1793.209,796.081,-929.421,-0.049,0.904,-0.427,0.397,0.580,-3.296,73.333,684.000,1.000
-4421.948,-2651.401,-99588.510,-63897.696,3215.332,-1827.579,750.227,-971.093,-0.048,0.904,-0.427,0.214,0.458,-3.265,73.333,685.000,1.000
-4453.810,-2674.477,-99396.280,-63788.643,3209.562,-1860.337,705.452,-1013.080,-0.048,0.908,-0.427,0.214,0.336,-3.235,73.333,686.000,1.000
-4484.932,-2697.046,-99203.008,-63678.812,3203.953,-1891.867,661.242,-1055.416,-0.048,0.908,-0.427,-0.031,0.214,-3.113,73.333,687.000,1.000
-4515.910,-2719.180,-99008.655,-63568.183,3198.561,-1923.217,616.901,-1098.120,-0.051,0.906,-0.427,-0.183,0.092,-3.052,73.333,688.000,1.000
-4547.223,-2741.063,-98813.349,-63456.895,3193.301,-1955.474,572.137,-1140.949,-0.052,0.904,-0.430,-0.366,0.031,-3.052,73.333,689.000,1.000
-4579.494,-2763.332,-98617.206,-63345.070,3188.086,-1989.263,527.095,-1183.604,-0.052,0.903,-0.427,-0.549,-0.153,-2.960,73.333,690.000,1.000
-4613.263,-2786.886,-98420.263,-63232.735,3182.866,-2024.705,482.067,-1225.852,-0.053,0.897,-0.426,-0.793,-0.244,-2.930,73.333,691.000,1.000
-4648.753,-2812.278,-98222.485,-63119.813,3177.637,-2061.514,437.226,-1267.670,-0.051,0.895,-0.426,-0.763,-0.275,-2.808,73.333,692.000,1.000
-4685.499,-2839.324,-98023.790,-63006.160,3172.457,-2099.005,392.717,-1309.203,-0.054,0.893,-0.427,-0.793,-0.488,-2.747,73.333,693.000,1.000
-4722.397,-2867.150,-97824.143,-62891.714,3167.367,-2136.162,348.815,-1350.612,-0.055,0.894,-0.423,-0.763,-0.580,-2.655,73.333,694.000,1.000
-4758.559,-2894.811,-97623.594,-62776.575,3162.334,-2172.132,305.769,-1392.093,-0.054,0.895,-0.423,-0.641,-0.732,-2.594,73.333,695.000,1.000
-4793.704,-2921.878,-97422.218,-62660.883,3157.311,-2206.776,263.579,-1433.780,-0.054,0.896,-0.423,-0.763,-0.854,-2.533,73.333,696.000,1.000
-4828.195,-2948.531,-97220.118,-62544.773,3152.223,-2240.721,221.937,-1475.786,-0.053,0.894,-0.425,-0.824,-1.007,-2.289,73.333,697.000,1.000
-4862.574,-2975.391,-97017.448,-62428.383,3146.933,-2275.004,180.342,-1518.211,-0.052,0.893,-0.422,-0.916,-1.160,-1.984,73.333,698.000,1.000
-4897.207,-3003.213,-96814.338,-62311.820,3141.311,-2310.502,138.296,-1561.059,-0.051,0.892,-0.418,-0.977,-1.251,-1.892,73.333,699.000,1.000
-4932.239,-3032.231,-96610.838,-62195.093,3135.307,-2347.341,95.551,-1604.207,-0.050,0.892,-0.421,-0.946,-1.404,-1.648,73.333,700.000,1.000
-4967.206,-3061.654,-96406.845,-62078.052,3129.027,-2384.668,52.344,-1647.263,-0.048,0.890,-0.423,-0.824,-1.373,-1.343,73.333,701.000,1.000
-5001.473,-3090.266,-96202.138,-61960.454,3122.694,-2421.172,9.274,-1689.782,-0.048,0.891,-0.422,-0.854,-1.312,-1.160,73.333,702.000,1.000
-5034.829,-3117.561,-95996.524,-61842.148,3116.483,-2456.004,-33.111,-1731.478,-0.049,0.892,-0.424,-0.793,-1.312,-0.763,73.333,703.000,1.000
-5067.546,-3143.913,-95789.959,-61723.152,3110.414,-2489.188,-74.681,-1772.237,-0.047,0.895,-0.425,-0.824,-1.282,-0.549,73.333,704.000,1.000
-5100.124,-3169.874,-95582.537,-61603.564,3104.394,-2521.332,-115.787,-1812.115,-0.045,0.895,-0.427,-0.793,-1.373,-0.275,73.333,705.000,1.000
-5132.694,-3195.602,-95374.364,-61483.462,3098.348,-2553.062,-156.912,-1851.121,-0.045,0.896,-0.428,-0.824,-1.373,0.092,73.333,706.000,1.000
-5165.141,-3220.883,-95165.513,-61362.889,3092.250,-2584.652,-198.308,-1889.349,-0.042,0.898,-0.424,-0.946,-1.343,0.305,73.333,707.000,1.000
-5197.336,-3245.469,-94956.007,-61241.859,3086.099,-2616.130,-240.007,-1927.282,-0.042,0.900,-0.426,-0.916,-1.373,0.610,73.333,708.000,1.000
-5229.143,-3269.231,-94745.822,-61120.357,3079.919,-2647.510,-282.004,-1965.812,-0.043,0.900,-0.426,-1.038,-1.343,0.885,73.333,709.000,1.000
-5260.426,-3292.013,-94534.948,-60998.392,3073.723,-2678.746,-324.264,-2005.730,-0.044,0.900,-0.424,-1.160,-1.282,1.190,73.333,710.000,1.000
-5290.785,-3313.393,-94323.394,-60875.981,3067.513,-2709.470,-366.474,-2046.812,-0.043,0.897,-0.422,-1.343,-1.160,1.404,73.333,711.000,1.000
-5319.918,-3332.813,-94111.144,-60753.091,3061.292,-2739.009,-408.042,-2087.818,-0.046,0.899,-0.419,-1.556,-1.373,1.587,73.333,712.000,1.000
-5347.979,-3350.066,-93898.155,-60629.649,3055.070,-2766.959,-448.427,-2127.398,-0.047,0.900,-0.417,-1.709,-1.343,1.709,73.333,713.000,1.000
-5375.556,-3365.686,-93684.411,-60505.606,3048.847,-2793.699,-487.520,-2165.038,-0.047,0.902,-0.417,-1.953,-1.282,1.648,73.333,714.000,1.000
-5403.400,-3380.852,-93469.924,-60380.966,3042.622,-2820.319,-525.841,-2201.390,-0.046,0.905,-0.417,-2.167,-1.373,1.740,73.333,715.000,1.000
-5431.676,-3396.645,-93254.689,-60255.756,3036.422,-2847.966,-564.295,-2237.626,-0.046,0.904,-0.417,-2.502,-1.434,1.770,73.333,716.000,1.000
-5460.158,-3413.513,-93038.696,-60130.028,3030.269,-2877.226,-603.706,-2274.809,-0.045,0.906,-0.418,-2.838,-1.495,1.770,73.333,717.000,1.000
-5488.726,-3431.489,-92821.935,-60003.832,3024.152,-2908.099,-644.460,-2313.566,-0.043,0.905,-0.419,-3.174,-1.648,1.923,73.333,718.000,1.000
-5517.430,-3450.465,-92604.413,-59877.180,3018.059,-2940.293,-686.421,-2353.970,-0.042,0.906,-0.416,-3.296,-1.617,1.984,73.333,719.000,1.000
-5546.297,-3470.160,-92386.272,-59750.137,3011.899,-2973.509,-729.079,-2395.652,-0.040,0.906,-0.419,-3.510,-1.648,2.014,73.333,720.000,1.000
-5574.928,-3490.147,-92167.751,-59622.838,3005.520,-3007.503,-771.662,-2437.836,-0.039,0.909,-0.419,-3.754,-1.678,2.075,73.333,721.000,1.000
-5602.862,-3510.025,-91948.925,-59495.309,2998.895,-3041.951,-813.385,-2479.683,-0.040,0.908,-0.418,-4.150,-1.617,2.289,73.333,722.000,1.000
-5629.959,-3529.544,-91729.603,-59367.394,2992.181,-3076.410,-853.845,-2520.691,-0.036,0.907,-0.417,-4.547,-1.465,2.350,73.333,723.000,1.000
-5656.474,-3548.638,-91509.491,-59238.892,2985.575,-3110.462,-893.230,-2560.865,-0.034,0.911,-0.418,-4.852,-1.434,2.472,73.333,724.000,1.000
-5683.078,-3567.545,-91288.359,-59109.655,2979.213,-3143.933,-932.233,-2600.723,-0.033,0.909,-0.420,-5.127,-1.221,2.502,73.333,725.000,1.000
-5710.350,-3586.684,-91066.100,-58979.597,2973.178,-3176.851,-971.655,-2640.857,-0.036,0.910,-0.417,-5.310,-1.038,2.686,73.333,726.000,1.000
-5738.482,-3606.253,-90842.796,-58848.759,2967.446,-3208.978,-1011.837,-2681.568,-0.034,0.913,-0.415,-5.493,-1.251,2.747,73.333,727.000,1.000
-5767.104,-3626.041,-90618.690,-58717.299,2961.867,-3239.589,-1052.323,-2722.655,-0.033,0.911,-0.417,-5.859,-1.221,2.686,73.333,728.000,1.000
-5795.542,-3645.697,-90394.018,-58585.389,2956.270,-3267.942,-1092.270,-2763.569,-0.035,0.912,-0.417,-6.226,-1.251,2.686,73.333,729.000,1.000
-5823.426,-3665.122,-90168.915,-58453.144,2950.531,-3294.055,-1131.220,-2803.920,-0.036,0.912,-0.419,-6.500,-1.129,2.777,73.333,730.000,1.000
-5850.593,-3684.405,-89943.415,-58320.623,2944.586,-3318.898,-1169.367,-2843.559,-0.035,0.910,-0.418,-6.836,-1.007,2.869,73.333,731.000,1.000
-5877.271,-3703.733,-89717.499,-58187.864,2938.416,-3343.862,-1207.332,-2882.522,-0.035,0.909,-0.415,-7.111,-0.977,2.777,73.333,732.000,1.000
-5904.124,-3723.469,-89491.096,-58054.865,2932.064,-3370.128,-1245.762,-2920.798,-0.034,0.911,-0.417,-7.446,-0.854,2.808,73.333,733.000,1.000
-5931.822,-3743.897,-89264.143,-57921.600,2925.610,-3398.188,-1284.882,-2958.109,-0.033,0.911,-0.415,-7.690,-0.977,2.869,73.333,734.000,1.000
-5960.638,-3764.911,-89036.679,-57788.094,2919.061,-3427.757,-1324.330,-2994.188,-0.032,0.910,-0.411,-7.996,-0.885,2.838,73.333,735.000,1.000
-5990.101,-3786.126,-88808.772,-57654.332,2912.383,-3458.120,-1363.502,-3029.109,-0.031,0.910,-0.412,-8.179,-0.763,2.930,73.333,736.000,1.000
-6019.347,-3807.088,-88580.405,-57520.195,2905.589,-3488.440,-1401.990,-3063.341,-0.031,0.910,-0.411,-8.423,-0.763,2.960,73.333,737.000,1.000
-6047.445,-3827.305,-88351.542,-57385.584,2898.699,-3517.831,-1439.608,-3097.158,-0.031,0.910,-0.414,-8.545,-0.732,2.960,73.333,738.000,1.000
-6073.839,-3846.496,-88122.193,-57250.544,2891.670,-3545.644,-1476.404,-3130.325,-0.031,0.908,-0.412,-8.820,-0.549,2.930,73.333,739.000,1.000
-6098.924,-3864.987,-87892.366,-57115.184,2884.455,-3572.037,-1512.850,-3162.654,-0.030,0.908,-0.412,-8.820,-0.610,2.991,73.333,740.000,1.000
-6123.529,-3883.446,-87661.963,-56979.500,2877.135,-3597.886,-1549.558,-3194.296,-0.033,0.908,-0.412,-9.003,-0.519,3.021,73.333,741.000,1.000
-6148.385,-3902.347,-87430.831,-56843.365,2869.891,-3623.960,-1586.782,-3225.694,-0.030,0.910,-0.412,-9.155,-0.366,3.052,73.333,742.000,1.000
-6173.814,-3921.933,-87198.897,-56706.654,2862.874,-3650.492,-1624.382,-3257.325,-0.031,0.909,-0.410,-9.247,-0.214,2.930,73.333,743.000,1.000
-6199.579,-3942.241,-86966.217,-56569.349,2856.096,-3677.345,-1662.091,-3289.455,-0.030,0.910,-0.408,-9.308,-0.214,3.082,73.333,744.000,1.000
-6225.153,-3962.933,-86732.961,-56431.570,2849.412,-3704.228,-1699.667,-3322.157,-0.029,0.909,-0.408,-9.308,0.000,3.052,73.333,745.000,1.000
-6250.004,-3983.333,-86499.353,-56293.547,2842.574,-3730.804,-1736.895,-3355.300,-0.028,0.907,-0.409,-9.399,0.061,3.082,73.333,746.000,1.000
-6274.152,-4002.870,-86265.619,-56155.534,2835.322,-3756.845,-1773.714,-3388.692,-0.028,0.907,-0.409,-9.491,0.122,3.204,73.333,747.000,1.000
-6297.963,-4021.257,-86031.804,-56017.606,2827.583,-3782.295,-1810.243,-3422.063,-0.028,0.906,-0.404,-9.521,0.214,3.174,73.333,748.000,1.000
-6321.495,-4038.260,-85797.616,-55879.478,2819.631,-3807.001,-1846.526,-3454.962,-0.026,0.905,-0.408,-9.399,0.214,3.143,73.333,749.000,1.000
-6344.469,-4053.788,-85562.562,-55740.631,2811.957,-3830.601,-1882.423,-3487.013,-0.024,0.904,-0.411,-9.460,0.397,3.143,73.333,750.000,1.000
-6366.362,-4068.133,-85326.258,-55600.645,2804.978,-3852.847,-1917.734,-3518.097,-0.023,0.903,-0.414,-9.338,0.732,3.174,73.333,751.000,1.000
-6386.893,-4081.854,-85088.682,-55459.472,2798.770,-3873.873,-1952.425,-3548.554,-0.027,0.905,-0.403,-9.003,0.977,3.479,73.333,752.000,1.000
-6406.224,-4095.456,-84850.130,-55317.434,2793.064,-3894.146,-1986.729,-3579.067,-0.021,0.906,-0.397,-9.033,0.641,3.448,73.333,753.000,1.000
-6424.786,-4109.179,-84610.947,-55174.946,2787.487,-3914.218,-2020.991,-3610.264,-0.022,0.906,-0.397,-9.155,0.580,2.869,73.333,754.000,1.000
-6443.039,-4123.017,-84371.337,-55032.275,2781.775,-3934.717,-2055.443,-3642.464,-0.024,0.907,-0.402,-9.064,0.610,2.838,73.333,755.000,1.000
-6461.032,-4136.850,-84131.370,-54889.493,2775.816,-3956.423,-2090.107,-3675.397,-0.025,0.904,-0.402,-8.850,0.549,2.930,73.333,756.000,1.000
-6478.769,-4150.691,-83891.070,-54746.586,2769.591,-3979.919,-2124.903,-3708.429,-0.024,0.899,-0.394,-8.820,0.641,2.869,73.333,757.000,1.000
-6496.513,-4164.876,-83650.423,-54603.499,2763.173,-4005.096,-2159.645,-3740.994,-0.025,0.898,-0.396,-8.606,0.610,2.655,73.333,758.000,1.000
-6514.517,-4179.824,-83409.397,-54460.161,2756.669,-4031.062,-2193.930,-3772.743,-0.025,0.897,-0.395,-8.392,0.549,2.625,73.333,759.000,1.000
-6532.866,-4195.629,-83167.993,-54316.541,2750.100,-4056.721,-2227.384,-3803.618,-0.026,0.897,-0.396,-8.118,0.549,2.380,73.333,760.000,1.000
-6551.378,-4212.026,-82926.220,-54172.625,2743.427,-4081.588,-2260.111,-3833.844,-0.026,0.900,-0.397,-7.812,0.458,2.136,73.333,761.000,1.000
-6570.027,-4228.773,-82684.064,-54028.394,2736.629,-4106.056,-2292.747,-3863.986,-0.029,0.902,-0.399,-7.538,0.458,1.892,73.333,762.000,1.000
-6588.955,-4245.873,-82441.511,-53883.838,2729.724,-4130.958,-2325.879,-3894.647,-0.028,0.905,-0.399,-7.294,0.397,1.770,73.333,763.000,1.000
-6608.258,-4263.351,-82198.560,-53738.978,2722.732,-4156.871,-2359.537,-3926.081,-0.028,0.906,-0.400,-7.111,0.366,1.617,73.333,764.000,1.000
-6627.978,-4280.928,-81955.229,-53593.856,2715.648,-4183.515,-2393.205,-3958.087,-0.028,0.906,-0.395,-6.897,0.214,1.404,73.333,765.000,1.000
-6647.696,-4297.851,-81711.507,-53448.473,2708.491,-4209.693,-2426.188,-3989.886,-0.027,0.904,-0.396,-6.775,0.000,1.190,73.333,766.000,1.000
-6666.742,-4313.105,-81467.377,-53302.825,2701.286,-4234.091,-2458.160,-4020.539,-0.028,0.905,-0.394,-6.592,-0.031,1.099,73.333,767.000,1.000
-6684.695,-4326.063,-81222.902,-53156.997,2693.963,-4256.297,-2489.351,-4049.543,-0.027,0.903,-0.390,-6.348,-0.122,0.885,73.333,768.000,1.000
-6701.796,-4337.163,-80978.230,-53011.128,2686.376,-4276.988,-2520.333,-4077.159,-0.027,0.904,-0.386,-6.073,-0.092,0.641,73.333,769.000,1.000
-6719.090,-4347.932,-80733.457,-52865.274,2678.438,-4297.266,-2551.823,-4104.364,-0.029,0.903,-0.387,-5.737,-0.244,0.397,73.333,770.000,1.000
-6737.516,-4359.846,-80488.498,-52719.331,2670.236,-4317.763,-2584.328,-4132.006,-0.033,0.901,-0.387,-5.646,-0.549,0.153,73.333,771.000,1.000
-6757.339,-4373.285,-80243.140,-52573.106,2661.960,-4338.381,-2617.847,-4160.202,-0.035,0.903,-0.387,-5.341,-0.732,-0.244,73.333,772.000,1.000
-6778.267,-4387.798,-79997.234,-52426.458,2653.748,-4358.996,-2652.060,-4188.555,-0.039,0.901,-0.385,-5.066,-0.946,-0.519,73.333,773.000,1.000
-6799.877,-4402.916,-79750.826,-52279.406,2645.577,-4379.954,-2686.682,-4216.741,-0.039,0.902,-0.386,-4.913,-1.160,-0.916,73.333,774.000,1.000
-6821.908,-4418.339,-79504.075,-52132.104,2637.327,-4401.542,-2721.343,-4244.740,-0.041,0.902,-0.385,-4.639,-1.434,-1.190,73.333,775.000,1.000
-6843.956,-4433.675,-79257.053,-51984.655,2628.950,-4423.339,-2755.330,-4272.490,-0.043,0.904,-0.387,-4.333,-1.648,-1.495,73.333,776.000,1.000
-6865.790,-4448.658,-79009.679,-51837.014,2620.523,-4444.648,-2788.215,-4300.044,-0.045,0.907,-0.386,-4.242,-2.014,-1.831,73.333,777.000,1.000
-6887.575,-4463.488,-78761.805,-51689.035,2612.172,-4465.499,-2820.787,-4327.930,-0.047,0.913,-0.385,-4.120,-2.350,-2.136,73.333,778.000,1.000
-6909.589,-4478.582,-78513.295,-51540.553,2604.012,-4486.637,-2854.669,-4356.956,-0.049,0.915,-0.384,-3.967,-2.686,-2.411,73.333,779.000,1.000
-6931.966,-4494.032,-78264.072,-51391.450,2596.111,-4508.509,-2890.715,-4387.610,-0.048,0.918,-0.385,-3.967,-3.021,-2.686,73.333,780.000,1.000
-6954.361,-4509.418,-78014.130,-51241.687,2588.485,-4530.634,-2928.025,-4419.380,-0.047,0.916,-0.384,-3.967,-3.387,-2.899,73.333,781.000,1.000
-6976.309,-4524.176,-77763.556,-51091.339,2581.073,-4551.999,-2964.578,-4450.990,-0.048,0.913,-0.379,-3.937,-3.632,-3.113,73.333,782.000,1.000
-6997.487,-4537.969,-77512.468,-50940.543,2573.772,-4571.837,-2998.618,-4481.244,-0.048,0.912,-0.379,-3.815,-3.937,-3.174,73.333,783.000,1.000
-7017.806,-4550.792,-77260.964,-50789.423,2566.504,-4590.166,-3029.788,-4509.717,-0.048,0.910,-0.376,-3.662,-4.120,-3.174,73.333,784.000,1.000
-7037.686,-4563.173,-77009.156,-50638.129,2559.166,-4607.923,-3059.361,-4536.960,-0.048,0.908,-0.373,-3.540,-4.364,-3.265,73.333,785.000,1.000
-7057.666,-4576.071,-76757.127,-50486.765,2551.678,-4626.487,-3089.183,-4563.863,-0.049,0.907,-0.373,-3.448,-4.547,-3.235,73.333,786.000,1.000
-7078.085,-4590.266,-76504.830,-50335.275,2544.083,-4646.804,-3120.325,-4591.060,-0.048,0.908,-0.373,-3.235,-4.761,-3.296,73.333,787.000,1.000
-7098.841,-4605.794,-76252.158,-50183.516,2536.470,-4668.876,-3152.631,-4618.716,-0.047,0.908,-0.371,-2.930,-4.852,-3.204,73.333,788.000,1.000
-7119.434,-4621.956,-75999.093,-50031.440,2528.840,-4691.838,-3185.242,-4646.610,-0.048,0.909,-0.369,-2.960,-4.974,-2.991,73.333,789.000,1.000
-7139.530,-4637.924,-75745.698,-49879.100,2521.129,-4714.497,-3217.474,-4674.531,-0.046,0.910,-0.366,-2.899,-5.127,-2.899,73.333,790.000,1.000
-7159.028,-4653.203,-75492.018,-49726.550,2513.313,-4735.989,-3249.284,-4702.429,-0.047,0.911,-0.373,-2.838,-5.219,-2.747,73.333,791.000,1.000
-7178.071,-4667.536,-75238.079,-49573.811,2505.417,-4756.124,-3281.159,-4730.488,-0.047,0.912,-0.368,-2.777,-5.341,-2.655,73.333,792.000,1.000
-7196.815,-4680.676,-74983.874,-49420.868,2497.491,-4775.366,-3313.628,-4758.982,-0.046,0.913,-0.369,-2.655,-5.493,-2.533,73.333,793.000,1.000
-7215.276,-4692.463,-74729.333,-49267.667,2489.609,-4794.479,-3346.781,-4787.985,-0.045,0.914,-0.366,-2.716,-5.615,-2.350,73.333,794.000,1.000
-7233.524,-4703.123,-74474.369,-49114.165,2481.823,-4814.032,-3380.146,-4817.307,-0.045,0.916,-0.367,-2.777,-5.585,-2.106,73.333,795.000,1.000
-7251.466,-4713.240,-74218.934,-48960.342,2474.140,-4834.154,-3412.938,-4846.459,-0.046,0.919,-0.367,-2.838,-5.585,-2.045,73.333,796.000,1.000
-7269.014,-4723.426,-73963.057,-48806.207,2466.510,-4854.567,-3444.530,-4874.913,-0.043,0.919,-0.370,-2.869,-5.524,-2.014,73.333,797.000,1.000
-7286.188,-4733.961,-73706.780,-48651.728,2458.900,-4874.671,-3474.566,-4902.120,-0.043,0.920,-0.371,-2.869,-5.463,-1.770,73.333,798.000,1.000
-7303.003,-4744.648,-73450.031,-48496.759,2451.402,-4893.603,-3502.886,-4927.549,-0.042,0.920,-0.373,-2.991,-5.341,-1.648,73.333,799.000,1.000
-7319.494,-4755.031,-73192.654,-48341.139,2444.189,-4910.649,-3529.681,-4951.251,-0.041,0.923,-0.372,-3.021,-5.188,-1.556,73.333,800.000,1.000
-7335.560,-4764.737,-72934.587,-48184.866,2437.336,-4925.812,-3555.690,-4974.146,-0.040,0.925,-0.371,-3.143,-5.035,-1.526,73.333,801.000,1.000
-7351.390,-4773.882,-72675.992,-48028.193,2430.667,-4939.953,-3582.153,-4997.871,-0.037,0.926,-0.372,-3.265,-4.944,-1.343,73.333,802.000,1.000
-7367.531,-4783.141,-72417.194,-47871.507,2423.843,-4954.381,-3610.262,-5023.953,-0.036,0.928,-0.374,-3.418,-4.761,-1.312,73.333,803.000,1.000
-7384.458,-4793.223,-72158.428,-47715.054,2416.632,-4970.201,-3640.518,-5052.757,-0.034,0.927,-0.376,-3.601,-4.456,-1.373,73.333,804.000,1.000
-7402.450,-4804.420,-71899.699,-47558.800,2409.042,-4987.956,-3672.714,-5083.335,-0.033,0.927,-0.377,-3.723,-4.333,-1.404,73.333,805.000,1.000
-7421.260,-4816.516,-71640.885,-47402.549,2401.217,-5007.609,-3706.261,-5114.029,-0.030,0.924,-0.373,-3.815,-4.028,-1.434,73.333,806.000,1.000
-7440.268,-4828.927,-71381.923,-47246.155,2393.245,-5028.445,-3740.244,-5143.270,-0.030,0.924,-0.375,-3.906,-3.632,-1.343,73.333,807.000,1.000
-7458.752,-4841.003,-71122.806,-47089.552,2385.147,-5049.054,-3773.332,-5169.836,-0.031,0.923,-0.376,-3.998,-3.174,-1.495,73.333,808.000,1.000
-7476.190,-4852.184,-70863.493,-46932.685,2376.980,-5067.768,-3804.233,-5192.985,-0.028,0.922,-0.375,-3.967,-2.869,-1.526,73.333,809.000,1.000
-7492.641,-4862.065,-70603.925,-46775.526,2368.812,-5083.497,-3832.539,-5212.928,-0.029,0.920,-0.374,-3.937,-2.502,-1.678,73.333,810.000,1.000
-7508.434,-4870.560,-70344.036,-46618.059,2360.720,-5096.193,-3858.894,-5230.766,-0.027,0.921,-0.373,-3.998,-2.136,-2.045,73.333,811.000,1.000
-7524.020,-4878.044,-70083.714,-46460.223,2352.814,-5106.680,-3884.428,-5247.993,-0.027,0.924,-0.374,-3.845,-1.709,-2.258,73.333,812.000,1.000
-7539.591,-4885.004,-69822.841,-46301.956,2345.189,-5116.255,-3910.131,-5265.782,-0.026,0.926,-0.375,-3.845,-1.251,-2.380,73.333,813.000,1.000
-7554.699,-4891.541,-69561.392,-46143.289,2337.821,-5126.226,-3936.546,-5284.535,-0.027,0.926,-0.377,-3.876,-0.793,-2.563,73.333,814.000,1.000
-7568.769,-4897.599,-69299.510,-45984.362,2330.536,-5137.523,-3963.775,-5304.148,-0.029,0.926,-0.377,-3.937,-0.427,-2.869,73.333,815.000,1.000
-7581.700,-4903.486,-69037.449,-45825.376,2323.082,-5150.547,-3991.644,-5324.439,-0.028,0.928,-0.378,-3.876,0.031,-3.174,73.333,816.000,1.000
-7594.223,-4909.949,-68775.469,-45666.533,2315.224,-5165.248,-4020.087,-5345.514,-0.027,0.927,-0.374,-3.876,0.488,-3.296,73.333,817.000,1.000
-7607.190,-4917.704,-68513.663,-45507.916,2306.889,-5181.289,-4049.301,-5367.583,-0.027,0.925,-0.375,-3.906,1.068,-3.510,73.333,818.000,1.000
-7620.781,-4926.764,-68251.872,-45349.363,2298.261,-5198.085,-4079.387,-5390.552,-0.029,0.924,-0.374,-3.937,1.617,-3.845,73.333,819.000,1.000
-7634.792,-4936.415,-67989.809,-45190.554,2289.669,-5214.943,-4109.974,-5414.048,-0.031,0.921,-0.377,-3.876,2.106,-4.059,73.333,820.000,1.000
-7648.842,-4945.761,-67727.238,-45031.216,2281.388,-5231.265,-4140.334,-5437.503,-0.030,0.920,-0.372,-3.815,2.594,-4.333,73.333,821.000,1.000
-7662.523,-4954.120,-67464.076,-44871.275,2273.510,-5246.446,-4169.777,-5460.431,-0.031,0.919,-0.369,-3.876,2.930,-4.730,73.333,822.000,1.000
-7675.348,-4961.214,-67200.426,-44710.882,2265.909,-5259.879,-4197.906,-5482.627,-0.032,0.916,-0.368,-3.754,3.357,-4.913,73.333,823.000,1.000
-7687.023,-4967.378,-66936.572,-44550.368,2258.268,-5271.484,-4224.878,-5504.205,-0.034,0.914,-0.368,-3.723,3.876,-5.188,73.333,824.000,1.000
-7698.009,-4973.635,-66672.822,-44390.059,2250.240,-5282.181,-4251.434,-5525.693,-0.033,0.911,-0.368,-3.601,4.303,-5.463,73.333,825.000,1.000
-7709.188,-4981.249,-66409.246,-44230.035,2241.733,-5293.579,-4278.318,-5547.694,-0.034,0.913,-0.366,-3.510,4.822,-5.768,73.333,826.000,1.000
-7721.425,-4991.064,-66145.655,-44070.093,2232.955,-5307.159,-4305.874,-5570.626,-0.036,0.911,-0.364,-3.387,5.219,-6.012,73.333,827.000,1.000
-7735.103,-5003.138,-65881.781,-43909.925,2224.230,-5323.531,-4334.126,-5594.544,-0.038,0.912,-0.365,-3.235,5.554,-6.165,73.333,828.000,1.000
-7749.908,-5016.806,-65617.472,-43749.310,2215.785,-5342.140,-4362.984,-5619.081,-0.040,0.914,-0.363,-3.021,5.981,-6.256,73.333,829.000,1.000
-7765.205,-5031.032,-65352.779,-43588.261,2207.601,-5361.765,-4392.292,-5643.696,-0.042,0.913,-0.361,-3.021,6.317,-6.561,73.333,830.000,1.000
-7780.177,-5044.734,-65087.864,-43426.964,2199.481,-5381.302,-4421.608,-5667.728,-0.043,0.916,-0.362,-2.960,6.683,-6.714,73.333,831.000,1.000
-7794.233,-5057.074,-64822.840,-43265.601,2191.251,-5400.132,-4450.137,-5690.579,-0.045,0.918,-0.363,-2.930,6.958,-6.866,73.333,832.000,1.000
-7807.087,-5067.646,-64557.728,-43104.245,2182.852,-5418.052,-4477.038,-5711.942,-0.046,0.918,-0.363,-2.869,7.263,-6.989,73.333,833.000,1.000
-7818.665,-5076.496,-64292.467,-42942.839,2174.343,-5435.002,-4501.895,-5731.944,-0.049,0.919,-0.362,-2.869,7.477,-7.172,73.333,834.000,1.000
-7829.335,-5084.089,-64026.904,-42781.218,2165.886,-5450.993,-4525.015,-5751.222,-0.052,0.918,-0.362,-2.869,7.690,-7.385,73.333,835.000,1.000
-7839.669,-5091.116,-63760.841,-42619.164,2157.693,-5466.252,-4547.353,-5770.599,-0.053,0.916,-0.363,-2.716,7.843,-7.507,73.333,836.000,1.000
-7850.374,-5098.387,-63494.185,-42456.536,2149.891,-5481.373,-4570.152,-5790.898,-0.056,0.916,-0.362,-2.594,7.965,-7.599,73.333,837.000,1.000
-7862.026,-5106.820,-63227.023,-42293.360,2142.446,-5497.213,-4594.358,-5812.750,-0.059,0.915,-0.360,-2.411,8.057,-7.751,73.333,838.000,1.000
-7874.759,-5117.162,-62959.618,-42129.867,2135.120,-5514.433,-4620.187,-5836.256,-0.060,0.914,-0.361,-2.319,8.118,-7.843,73.333,839.000,1.000
-7888.411,-5129.528,-62692.355,-41966.473,2127.490,-5533.125,-4647.194,-5860.935,-0.063,0.912,-0.364,-1.984,8.240,-7.904,73.333,840.000,1.000
-7902.500,-5143.212,-62425.519,-41803.548,2119.193,-5552.877,-4674.690,-5885.838,-0.066,0.908,-0.366,-1.770,8.270,-7.904,73.333,841.000,1.000
-7916.500,-5157.142,-62159.070,-41641.129,2110.216,-5573.083,-4702.109,-5910.164,-0.066,0.907,-0.367,-1.526,8.301,-7.996,73.333,842.000,1.000
-7929.897,-5170.521,-61892.630,-41478.861,2100.956,-5593.214,-4729.083,-5933.710,-0.065,0.903,-0.368,-1.068,8.270,-8.057,73.333,843.000,1.000
-7942.265,-5183.112,-61625.749,-41316.242,2091.957,-5613.030,-4755.531,-5956.833,-0.068,0.900,-0.366,-0.732,8.270,-7.996,73.333,844.000,1.000
-7953.825,-5195.305,-61358.238,-41152.989,2083.518,-5632.618,-4781.748,-5980.207,-0.067,0.896,-0.366,-0.244,8.240,-7.935,73.333,845.000,1.000
