EEG 1,EEG 2,EEG 3,EEG 4,EEG 5,EEG 6,EEG 7,EEG 8,Accelerometer X,Accelerometer Y,Accelerometer Z,Gyroscope X,Gyroscope Y,Gyroscope Z,Battery Level,Counter,Validation Indicator
-26.365,-48.404,-853.250,-25.214,-7.183,29.163,-5.318,-1.193,-0.001,0.903,-0.427,-1.953,-1.404,0.977,73.333,33553.000,1.000
-32.008,-48.733,-860.873,-30.279,-7.918,25.808,-6.294,-3.447,0.000,0.903,-0.425,-2.411,-1.343,1.038,73.333,33554.000,1.000
-38.783,-51.548,-872.018,-36.194,-9.102,20.740,-8.976,-5.866,0.001,0.900,-0.427,-2.747,-1.312,0.946,73.333,33555.000,1.000
-44.737,-55.905,-884.280,-40.711,-10.067,15.770,-12.129,-8.660,0.004,0.893,-0.428,-3.082,-1.251,0.885,73.333,33556.000,1.000
-49.159,-61.610,-896.549,-43.150,-10.509,11.911,-15.176,-12.515,0.004,0.890,-0.425,-3.387,-1.221,0.763,73.333,33557.000,1.000
-52.590,-68.885,-909.288,-44.451,-10.575,9.313,-18.123,-17.662,0.004,0.893,-0.423,-3.540,-1.038,0.610,73.333,33558.000,1.000
-55.388,-76.719,-922.687,-45.465,-10.535,7.888,-20.662,-23.013,0.004,0.897,-0.422,-3.632,-0.946,0.397,73.333,33559.000,1.000
-57.442,-82.852,-936.079,-46.524,-10.610,7.302,-22.115,-26.937,0.005,0.900,-0.421,-3.784,-0.854,0.366,73.333,33560.000,1.000
-58.708,-85.554,-948.962,-47.693,-10.993,6.718,-22.186,-28.569,0.004,0.901,-0.421,-4.150,-0.732,0.214,73.333,33561.000,1.000
-58.936,-84.607,-960.635,-48.259,-11.656,5.581,-20.978,-27.769,0.004,0.900,-0.424,-4.425,-0.671,0.214,73.333,33562.000,1.000
-57.451,-80.905,-970.256,-47.092,-12.179,4.530,-18.453,-24.635,0.005,0.898,-0.421,-4.761,-0.641,0.000,73.333,33563.000,1.000
-53.575,-75.727,-977.093,-43.167,-11.964,4.904,-14.499,-19.571,0.005,0.898,-0.417,-5.066,-0.549,0.000,73.333,33564.000,1.000
-47.924,-70.709,-981.678,-36.878,-10.811,7.077,-9.730,-14.084,0.005,0.896,-0.415,-5.341,-0.488,-0.092,73.333,33565.000,1.000
-42.579,-67.663,-986.191,-30.219,-9.217,9.752,-5.750,-10.531,0.006,0.896,-0.415,-5.615,-0.366,-0.275,73.333,33566.000,1.000
-39.624,-67.618,-992.575,-25.332,-8.045,11.042,-4.317,-10.638,0.005,0.897,-0.413,-5.707,-0.275,-0.488,73.333,33567.000,1.000
-39.918,-70.243,-1001.582,-23.541,-7.900,9.972,-6.067,-14.492,0.005,0.898,-0.413,-5.829,-0.214,-0.641,73.333,33568.000,1.000
-42.547,-74.015,-1012.236,-24.397,-8.768,7.057,-9.871,-20.312,0.003,0.896,-0.414,-6.012,-0.214,-0.916,73.333,33569.000,1.000
-45.636,-77.172,-1022.684,-26.352,-10.193,3.466,-13.791,-25.534,0.001,0.894,-0.413,-6.073,-0.214,-1.068,73.333,33570.000,1.000
-47.385,-78.517,-1031.255,-27.802,-11.579,0.146,-16.359,-28.145,0.001,0.894,-0.413,-6.104,-0.244,-1.343,73.333,33571.000,1.000
-46.897,-77.827,-1036.577,-27.795,-12.487,-2.461,-17.157,-27.529,-0.002,0.895,-0.413,-6.073,-0.336,-1.404,73.333,33572.000,1.000
-44.754,-76.094,-1038.753,-26.808,-12.895,-4.612,-16.929,-24.745,-0.004,0.894,-0.411,-6.165,-0.275,-1.617,73.333,33573.000,1.000
-41.882,-74.690,-1038.835,-25.387,-12.936,-6.716,-16.752,-21.213,-0.006,0.895,-0.411,-6.134,-0.366,-1.770,73.333,33574.000,1.000
-38.719,-74.443,-1038.104,-23.500,-12.626,-8.649,-16.867,-17.647,-0.005,0.894,-0.410,-6.012,-0.336,-1.801,73.333,33575.000,1.000
-35.290,-75.235,-1037.699,-20.901,-11.995,-9.714,-16.499,-14.016,-0.006,0.892,-0.411,-6.042,-0.336,-1.984,73.333,33576.000,1.000
-31.329,-75.833,-1037.292,-17.292,-11.139,-9.039,-14.653,-9.869,-0.007,0.892,-0.410,-5.951,-0.397,-2.106,73.333,33577.000,1.000
-26.841,-74.692,-1035.997,-13.050,-10.173,-6.438,-11.064,-5.079,-0.010,0.892,-0.414,-5.798,-0.519,-2.289,73.333,33578.000,1.000
-22.441,-71.317,-1033.909,-9.126,-9.354,-3.141,-6.770,-0.336,-0.011,0.890,-0.413,-5.554,-0.549,-2.258,73.333,33579.000,1.000
-19.284,-66.755,-1032.504,-6.781,-9.027,-1.134,-3.723,2.991,-0.011,0.892,-0.413,-5.280,-0.763,-2.289,73.333,33580.000,1.000
-17.787,-62.259,-1032.723,-6.302,-9.121,-0.981,-2.868,4.297,-0.011,0.890,-0.415,-5.188,-0.854,-2.411,73.333,33581.000,1.000
-17.083,-58.427,-1033.482,-6.613,-9.199,-1.484,-3.374,4.233,-0.012,0.890,-0.415,-4.883,-0.916,-2.411,73.333,33582.000,1.000
-16.798,-56.410,-1034.613,-7.561,-9.290,-2.139,-4.409,2.964,-0.011,0.890,-0.414,-4.608,-0.946,-2.380,73.333,33583.000,1.000
-17.665,-58.016,-1038.052,-10.048,-10.047,-3.989,-6.065,-0.195,-0.014,0.888,-0.412,-4.242,-1.038,-2.319,73.333,33584.000,1.000
-20.164,-63.610,-1045.348,-14.295,-11.832,-7.529,-8.196,-5.154,-0.017,0.888,-0.416,-3.937,-1.099,-2.289,73.333,33585.000,1.000
-22.862,-70.243,-1054.638,-18.337,-13.861,-10.858,-9.385,-9.713,-0.017,0.888,-0.415,-3.510,-1.251,-2.167,73.333,33586.000,1.000
-22.938,-72.959,-1060.719,-18.855,-14.600,-10.893,-7.848,-10.728,-0.018,0.888,-0.414,-3.143,-1.282,-2.136,73.333,33587.000,1.000
-19.172,-68.981,-1060.217,-14.607,-13.192,-6.572,-3.318,-7.128,-0.017,0.891,-0.414,-2.747,-1.434,-1.953,73.333,33588.000,1.000
-13.285,-60.077,-1054.666,-7.445,-10.268,-0.006,2.456,-0.854,-0.018,0.891,-0.417,-2.380,-1.556,-1.892,73.333,33589.000,1.000
-8.596,-50.990,-1048.806,-0.827,-7.388,5.344,6.872,4.795,-0.019,0.890,-0.417,-1.984,-1.678,-1.648,73.333,33590.000,1.000
-7.408,-45.904,-1046.557,2.875,-5.853,7.260,8.254,7.837,-0.021,0.890,-0.416,-1.648,-1.923,-1.556,73.333,33591.000,1.000
-9.613,-46.147,-1048.225,3.862,-6.057,5.791,6.727,8.767,-0.023,0.888,-0.413,-1.251,-1.862,-1.434,73.333,33592.000,1.000
-13.692,-50.445,-1052.003,3.394,-7.612,2.416,3.688,9.158,-0.023,0.889,-0.410,-0.793,-2.167,-1.282,73.333,33593.000,1.000
-17.868,-56.297,-1055.781,2.624,-9.678,-1.009,0.977,10.179,-0.021,0.889,-0.412,-0.458,-2.350,-1.099,73.333,33594.000,1.000
-20.911,-61.443,-1058.589,2.023,-11.412,-3.026,0.073,11.944,-0.021,0.891,-0.412,-0.092,-2.441,-0.885,73.333,33595.000,1.000
-22.085,-64.380,-1060.825,1.962,-12.285,-2.823,1.397,13.949,-0.019,0.892,-0.416,0.488,-2.594,-0.885,73.333,33596.000,1.000
-21.080,-64.447,-1063.035,3.137,-12.182,-0.453,3.717,15.607,-0.017,0.891,-0.417,0.946,-2.716,-0.641,73.333,33597.000,1.000
-18.709,-62.441,-1066.362,5.277,-11.410,3.002,4.693,16.228,-0.014,0.889,-0.416,1.160,-2.747,-0.488,73.333,33598.000,1.000
-16.417,-60.268,-1071.959,7.433,-10.412,6.360,2.920,15.708,-0.013,0.888,-0.416,1.373,-2.686,-0.305,73.333,33599.000,1.000
-15.585,-59.941,-1080.379,8.513,-9.574,8.929,-1.166,14.552,-0.013,0.884,-0.417,1.801,-2.625,-0.092,73.333,33600.000,1.000
-16.997,-62.570,-1091.652,7.843,-9.283,10.390,-5.952,13.314,-0.013,0.878,-0.413,2.319,-2.655,0.122,73.333,33601.000,1.000
-20.195,-67.491,-1104.433,6.029,-9.778,11.099,-9.414,12.559,-0.011,0.876,-0.414,2.716,-2.502,0.305,73.333,33602.000,1.000
-23.795,-72.678,-1116.580,4.275,-10.868,11.995,-10.049,12.729,-0.011,0.878,-0.419,3.143,-2.502,0.488,73.333,33603.000,1.000
-26.405,-76.295,-1126.134,3.442,-12.044,13.544,-8.169,13.651,-0.011,0.881,-0.415,3.571,-2.441,0.610,73.333,33604.000,1.000
-27.863,-78.228,-1133.007,2.749,-13.104,14.734,-6.376,13.789,-0.011,0.885,-0.416,3.937,-2.289,0.732,73.333,33605.000,1.000
-28.884,-79.597,-1139.045,0.654,-14.273,14.174,-7.255,11.585,-0.011,0.887,-0.419,4.150,-2.289,0.885,73.333,33606.000,1.000
-29.429,-80.722,-1145.094,-2.634,-15.487,12.273,-10.487,7.834,-0.010,0.888,-0.415,4.456,-2.258,0.977,73.333,33607.000,1.000
-28.652,-80.666,-1150.260,-5.261,-16.109,11.260,-13.237,5.145,-0.010,0.887,-0.417,4.639,-2.228,1.068,73.333,33608.000,1.000
-25.883,-78.542,-1152.968,-5.091,-15.549,13.227,-12.735,5.705,-0.010,0.887,-0.416,4.852,-2.228,1.099,73.333,33609.000,1.000
-21.745,-74.981,-1153.051,-1.728,-14.008,18.257,-8.307,9.564,-0.010,0.889,-0.423,4.944,-2.167,1.038,73.333,33610.000,1.000
-18.049,-72.142,-1152.738,2.875,-12.476,24.047,-1.845,14.465,-0.013,0.888,-0.427,4.974,-2.167,0.916,73.333,33611.000,1.000
-16.579,-72.134,-1154.610,5.940,-12.056,27.073,2.991,17.096,-0.014,0.892,-0.425,5.096,-2.197,0.793,73.333,33612.000,1.000
-18.017,-75.298,-1159.619,5.552,-13.273,24.761,2.937,15.087,-0.013,0.896,-0.426,5.157,-2.106,0.702,73.333,33613.000,1.000
-20.920,-79.245,-1165.280,2.613,-15.600,17.899,-1.995,9.308,-0.014,0.897,-0.428,5.188,-2.197,0.580,73.333,33614.000,1.000
-22.613,-80.249,-1166.975,-0.013,-17.701,10.442,-8.193,3.520,-0.015,0.901,-0.426,4.913,-2.197,0.458,73.333,33615.000,1.000
-21.433,-76.377,-1162.057,-0.206,-18.443,6.163,-11.605,1.218,-0.013,0.904,-0.426,4.700,-2.289,0.336,73.333,33616.000,1.000
-18.132,-69.504,-1152.217,1.815,-17.823,5.551,-11.196,2.720,-0.013,0.907,-0.426,4.578,-2.258,0.427,73.333,33617.000,1.000
-15.365,-64.134,-1142.749,3.753,-16.848,6.027,-9.061,5.162,-0.012,0.909,-0.428,4.303,-2.197,0.488,73.333,33618.000,1.000
-14.836,-63.290,-1137.338,4.237,-16.380,5.200,-7.327,5.804,-0.011,0.911,-0.432,3.967,-2.228,0.610,73.333,33619.000,1.000
-15.846,-66.055,-1134.756,3.854,-16.430,2.768,-6.383,4.101,-0.010,0.915,-0.431,3.632,-2.136,0.610,73.333,33620.000,1.000
-16.628,-69.281,-1130.970,3.611,-16.521,-0.720,-5.882,0.760,-0.011,0.917,-0.431,3.265,-2.075,0.671,73.333,33621.000,1.000
-16.417,-70.848,-1122.693,3.546,-16.345,-5.521,-5.825,-3.899,-0.009,0.917,-0.428,2.930,-2.136,0.763,73.333,33622.000,1.000
-16.233,-71.024,-1109.774,2.325,-16.088,-12.728,-6.522,-10.504,-0.011,0.920,-0.428,2.563,-2.075,0.885,73.333,33623.000,1.000
-17.082,-70.687,-1093.139,-0.758,-16.024,-22.928,-8.164,-19.262,-0.010,0.923,-0.432,2.167,-1.984,1.007,73.333,33624.000,1.000
-18.594,-69.656,-1072.627,-4.948,-16.036,-35.429,-10.491,-29.052,-0.011,0.921,-0.431,1.587,-1.953,1.068,73.333,33625.000,1.000
-19.648,-67.228,-1048.011,-8.989,-15.769,-48.371,-12.225,-37.920,-0.010,0.920,-0.429,1.129,-1.984,1.221,73.333,33626.000,1.000
-19.437,-63.171,-1019.957,-11.967,-14.986,-59.266,-11.307,-44.020,-0.010,0.919,-0.430,0.671,-1.953,1.343,73.333,33627.000,1.000
-17.945,-57.974,-990.206,-13.959,-13.653,-66.376,-6.838,-46.614,-0.009,0.917,-0.429,0.061,-1.892,1.526,73.333,33628.000,1.000
-15.602,-52.598,-960.323,-15.426,-11.906,-69.993,-0.704,-46.574,-0.010,0.916,-0.428,-0.427,-1.862,1.434,73.333,33629.000,1.000
-13.377,-48.364,-931.736,-17.234,-10.144,-72.195,3.410,-46.437,-0.011,0.913,-0.427,-0.824,-1.801,1.587,73.333,33630.000,1.000
-12.241,-46.192,-906.148,-20.112,-8.854,-74.892,3.157,-48.849,-0.012,0.910,-0.425,-1.282,-1.862,1.617,73.333,33631.000,1.000
-12.347,-45.844,-884.446,-23.770,-8.205,-78.624,-1.172,-54.695,-0.010,0.907,-0.425,-1.465,-1.862,1.587,73.333,33632.000,1.000
-13.595,-46.602,-867.034,-27.802,-8.080,-83.339,-8.114,-63.228,-0.009,0.904,-0.425,-1.740,-1.953,1.556,73.333,33633.000,1.000
-15.889,-47.913,-853.625,-31.705,-8.291,-88.697,-15.937,-72.584,-0.008,0.902,-0.424,-1.923,-1.953,1.526,73.333,33634.000,1.000
-18.942,-49.194,-843.061,-34.817,-8.646,-93.588,-22.617,-80.357,-0.007,0.900,-0.424,-2.045,-1.862,1.495,73.333,33635.000,1.000
-21.966,-49.613,-834.014,-36.469,-8.916,-96.367,-26.236,-84.388,-0.007,0.897,-0.420,-2.289,-1.953,1.404,73.333,33636.000,1.000
-23.896,-48.691,-825.666,-36.235,-8.937,-96.085,-25.994,-83.754,-0.008,0.895,-0.420,-2.380,-1.862,1.434,73.333,33637.000,1.000
-24.388,-47.187,-818.806,-34.777,-8.798,-93.556,-22.969,-79.684,-0.006,0.896,-0.418,-2.472,-1.923,1.465,73.333,33638.000,1.000
-23.808,-46.491,-814.506,-33.136,-8.774,-90.794,-19.468,-74.727,-0.006,0.894,-0.416,-2.625,-1.862,1.495,73.333,33639.000,1.000
-22.628,-47.147,-812.593,-32.105,-9.028,-89.444,-17.539,-71.018,-0.005,0.894,-0.414,-2.686,-1.923,1.465,73.333,33640.000,1.000
-20.605,-48.003,-811.669,-31.685,-9.245,-89.394,-17.519,-68.781,-0.007,0.895,-0.415,-2.777,-1.831,1.617,73.333,33641.000,1.000
-17.156,-47.396,-810.324,-31.224,-8.854,-89.131,-18.051,-66.737,-0.005,0.895,-0.416,-2.899,-1.801,1.678,73.333,33642.000,1.000
-12.941,-45.406,-809.753,-31.011,-7.845,-87.735,-18.111,-64.355,-0.002,0.896,-0.415,-3.174,-1.801,1.709,73.333,33643.000,1.000
-9.463,-43.668,-812.795,-31.778,-6.897,-85.469,-18.259,-62.331,-0.002,0.896,-0.415,-3.418,-1.678,1.648,73.333,33644.000,1.000
-8.059,-43.925,-821.817,-34.157,-6.828,-83.149,-19.955,-61.781,0.000,0.896,-0.414,-3.540,-1.526,1.587,73.333,33645.000,1.000
-9.461,-47.301,-838.117,-38.667,-8.070,-81.601,-24.063,-63.588,0.001,0.897,-0.410,-3.632,-1.373,1.465,73.333,33646.000,1.000
-12.940,-53.189,-860.525,-44.731,-10.255,-80.635,-29.420,-67.278,0.002,0.896,-0.409,-3.784,-1.251,1.404,73.333,33647.000,1.000
-16.462,-58.965,-885.608,-50.744,-12.329,-78.957,-33.269,-70.764,0.001,0.896,-0.410,-3.845,-1.190,1.312,73.333,33648.000,1.000
-18.429,-62.178,-909.635,-55.261,-13.378,-76.068,-34.204,-72.137,0.000,0.895,-0.405,-3.876,-1.129,1.282,73.333,33649.000,1.000
-19.719,-63.360,-931.674,-58.994,-13.458,-73.744,-34.122,-71.996,0.001,0.894,-0.407,-4.059,-0.916,1.251,73.333,33650.000,1.000
-22.854,-65.410,-954.058,-64.095,-13.432,-74.252,-35.901,-72.647,0.005,0.895,-0.407,-4.211,-0.824,1.221,73.333,33651.000,1.000
-28.315,-69.338,-977.880,-70.527,-13.755,-76.582,-39.301,-74.405,0.007,0.893,-0.406,-4.272,-0.671,1.221,73.333,33652.000,1.000
-33.254,-72.353,-1000.898,-75.364,-13.789,-76.229,-40.728,-74.602,0.008,0.893,-0.411,-4.242,-0.427,1.221,73.333,33653.000,1.000
-34.748,-71.678,-1020.919,-76.076,-12.815,-70.349,-37.867,-71.287,0.006,0.895,-0.406,-4.272,-0.244,1.160,73.333,33654.000,1.000
-33.443,-68.472,-1040.231,-73.981,-11.276,-61.653,-32.879,-66.586,0.007,0.893,-0.406,-4.272,0.000,1.068,73.333,33655.000,1.000
-32.344,-66.061,-1064.299,-72.610,-10.371,-55.588,-29.711,-64.487,0.005,0.893,-0.404,-4.242,0.244,0.946,73.333,33656.000,1.000
-33.232,-65.956,-1096.235,-73.714,-10.789,-55.312,-30.111,-66.595,0.004,0.894,-0.403,-4.150,0.397,0.824,73.333,33657.000,1.000
-35.775,-67.148,-1135.071,-76.761,-12.291,-60.328,-32.969,-71.421,0.000,0.893,-0.408,-4.089,0.519,0.641,73.333,33658.000,1.000
-38.384,-67.642,-1176.539,-79.912,-14.061,-67.776,-35.758,-76.222,-0.003,0.895,-0.407,-3.998,0.671,0.397,73.333,33659.000,1.000
-38.549,-64.960,-1213.957,-80.681,-14.908,-73.444,-35.808,-78.289,-0.003,0.893,-0.409,-3.967,0.732,0.183,73.333,33660.000,1.000
-33.370,-56.649,-1240.143,-76.413,-13.604,-73.039,-31.239,-75.276,-0.004,0.890,-0.408,-3.876,0.793,0.092,73.333,33661.000,1.000
-23.071,-43.796,-1252.089,-67.096,-10.171,-65.660,-22.929,-67.405,-0.007,0.889,-0.409,-3.662,0.702,-0.092,73.333,33662.000,1.000
-13.111,-32.730,-1254.840,-57.591,-6.590,-55.536,-14.878,-59.067,-0.008,0.889,-0.406,-3.448,0.641,-0.214,73.333,33663.000,1.000
-9.318,-29.618,-1256.651,-53.253,-5.191,-48.090,-10.729,-55.123,-0.010,0.890,-0.412,-3.143,0.580,-0.641,73.333,33664.000,1.000
-12.976,-35.063,-1262.346,-55.605,-6.746,-46.034,-11.537,-57.146,-0.008,0.893,-0.414,-2.808,0.580,-0.916,73.333,33665.000,1.000
-20.826,-44.416,-1271.430,-62.183,-10.118,-48.802,-16.372,-63.250,-0.004,0.898,-0.415,-2.563,0.580,-1.038,73.333,33666.000,1.000
-27.397,-50.853,-1278.828,-68.152,-13.001,-52.741,-22.262,-69.151,-0.002,0.900,-0.415,-2.380,0.488,-1.282,73.333,33667.000,1.000
-28.311,-49.245,-1279.212,-69.408,-13.377,-52.866,-24.786,-70.364,0.001,0.901,-0.414,-2.258,0.702,-1.434,73.333,33668.000,1.000
-22.872,-39.379,-1271.492,-64.929,-10.901,-46.415,-20.909,-64.982,0.002,0.901,-0.416,-2.136,0.946,-1.556,73.333,33669.000,1.000
-14.815,-26.594,-1260.715,-57.828,-7.211,-35.317,-11.624,-55.384,0.002,0.900,-0.411,-1.862,1.068,-1.617,73.333,33670.000,1.000
-10.262,-18.883,-1255.628,-53.617,-4.851,-25.345,-1.920,-47.077,0.002,0.898,-0.413,-1.556,1.129,-1.617,73.333,33671.000,1.000
-13.119,-21.141,-1261.635,-55.770,-5.308,-21.763,2.740,-44.618,-0.002,0.895,-0.409,-1.282,1.251,-1.526,73.333,33672.000,1.000
-21.480,-30.914,-1276.362,-62.847,-7.745,-24.644,1.305,-47.791,-0.004,0.896,-0.412,-0.793,1.434,-1.678,73.333,33673.000,1.000
-29.026,-40.476,-1291.741,-69.513,-9.857,-28.958,-1.931,-51.814,-0.007,0.896,-0.413,-0.458,1.617,-1.801,73.333,33674.000,1.000
-30.698,-43.331,-1300.595,-71.254,-9.912,-29.499,-1.744,-51.717,-0.010,0.897,-0.416,-0.092,1.526,-1.953,73.333,33675.000,1.000
-26.119,-38.318,-1300.865,-67.346,-7.826,-24.908,3.608,-46.063,-0.011,0.899,-0.414,0.031,1.556,-1.984,73.333,33676.000,1.000
-18.584,-29.061,-1294.987,-60.360,-4.893,-17.949,11.425,-37.530,-0.013,0.897,-0.413,0.305,1.465,-2.106,73.333,33677.000,1.000
-12.212,-20.780,-1287.859,-54.444,-2.748,-13.021,16.832,-30.785,-0.014,0.898,-0.416,0.580,1.434,-2.197,73.333,33678.000,1.000
-9.071,-16.856,-1283.290,-52.288,-2.232,-12.733,16.869,-28.623,-0.014,0.901,-0.418,1.007,1.251,-2.167,73.333,33679.000,1.000
-8.797,-17.796,-1282.140,-53.997,-3.057,-16.386,12.602,-30.145,-0.015,0.904,-0.414,1.221,1.129,-2.136,73.333,33680.000,1.000
-9.937,-22.359,-1283.113,-57.850,-4.417,-21.384,7.229,-32.341,-0.016,0.905,-0.417,1.404,1.007,-1.984,73.333,33681.000,1.000
-11.346,-29.036,-1284.190,-61.819,-5.827,-25.818,2.796,-32.965,-0.014,0.902,-0.419,1.556,1.038,-1.862,73.333,33682.000,1.000
-12.528,-36.257,-1284.041,-64.821,-7.139,-28.952,-0.171,-31.515,-0.014,0.894,-0.419,1.617,0.977,-1.648,73.333,33683.000,1.000
-12.203,-41.188,-1280.898,-65.391,-7.715,-29.104,-0.375,-27.522,-0.015,0.884,-0.417,1.923,0.946,-1.648,73.333,33684.000,1.000
-8.825,-40.817,-1273.505,-62.165,-6.637,-23.837,4.141,-20.697,-0.014,0.878,-0.413,2.472,0.946,-1.587,73.333,33685.000,1.000
-2.796,-34.918,-1263.944,-55.962,-3.983,-13.228,13.216,-12.773,-0.015,0.875,-0.415,2.808,0.946,-1.526,73.333,33686.000,1.000
3.215,-26.812,-1256.834,-49.682,-1.164,-1.448,23.253,-7.209,-0.017,0.875,-0.415,3.387,0.854,-1.343,73.333,33687.000,1.000
5.813,-21.598,-1256.922,-46.875,0.063,5.348,28.841,-7.138,-0.020,0.879,-0.413,3.937,0.671,-1.221,73.333,33688.000,1.000
3.318,-23.115,-1265.810,-49.170,-1.085,3.231,26.284,-13.021,-0.020,0.883,-0.412,4.272,0.641,-1.068,73.333,33689.000,1.000
-2.836,-31.299,-1280.099,-55.115,-3.775,-6.369,16.646,-21.654,-0.019,0.892,-0.415,4.547,0.519,-0.946,73.333,33690.000,1.000
-8.710,-42.066,-1292.963,-61.030,-6.070,-17.284,5.536,-27.650,-0.017,0.896,-0.417,4.791,0.336,-0.793,73.333,33691.000,1.000
-10.618,-50.550,-1298.671,-63.597,-6.470,-23.223,-1.047,-27.316,-0.019,0.897,-0.417,4.822,0.305,-0.641,73.333,33692.000,1.000
-8.183,-54.754,-1297.473,-62.759,-5.168,-22.427,-1.173,-21.814,-0.020,0.897,-0.418,4.791,0.275,-0.519,73.333,33693.000,1.000
-3.815,-55.343,-1293.980,-60.595,-3.577,-17.567,2.912,-15.542,-0.019,0.894,-0.417,4.883,0.153,-0.366,73.333,33694.000,1.000
-0.027,-53.253,-1292.165,-58.743,-2.895,-12.201,8.090,-12.066,-0.019,0.895,-0.419,5.035,0.061,-0.305,73.333,33695.000,1.000
2.049,-49.053,-1293.195,-57.436,-3.382,-8.483,12.490,-12.030,-0.021,0.898,-0.416,5.157,-0.153,-0.153,73.333,33696.000,1.000
2.149,-44.010,-1296.034,-56.438,-4.622,-7.355,14.867,-14.225,-0.019,0.901,-0.417,5.157,-0.336,-0.153,73.333,33697.000,1.000
0.450,-39.996,-1299.228,-56.062,-5.933,-8.706,14.453,-17.153,-0.016,0.905,-0.416,5.096,-0.488,0.061,73.333,33698.000,1.000
-1.595,-37.910,-1301.022,-55.899,-6.609,-10.864,12.347,-19.007,-0.013,0.910,-0.417,4.852,-0.549,0.183,73.333,33699.000,1.000
-2.350,-37.818,-1300.609,-55.279,-6.433,-12.030,10.841,-18.753,-0.013,0.913,-0.420,4.578,-0.702,0.305,73.333,33700.000,1.000
-1.701,-39.859,-1299.071,-54.549,-5.885,-12.273,11.005,-17.404,-0.012,0.912,-0.422,4.150,-0.641,0.275,73.333,33701.000,1.000
-0.469,-43.456,-1297.008,-54.247,-5.522,-12.891,12.283,-16.832,-0.013,0.915,-0.422,3.693,-0.732,0.488,73.333,33702.000,1.000
0.783,-46.753,-1293.607,-54.237,-5.427,-14.394,14.261,-17.736,-0.015,0.914,-0.420,3.387,-0.854,0.610,73.333,33703.000,1.000
2.205,-47.510,-1287.137,-53.333,-5.269,-15.849,17.562,-18.833,-0.014,0.915,-0.419,3.021,-0.824,0.824,73.333,33704.000,1.000
4.014,-44.561,-1276.341,-50.624,-4.711,-16.231,22.530,-18.210,-0.014,0.915,-0.421,2.777,-0.916,0.885,73.333,33705.000,1.000
6.040,-38.489,-1261.698,-46.468,-3.633,-15.641,28.099,-15.033,-0.015,0.916,-0.422,2.350,-0.977,0.977,73.333,33706.000,1.000
7.423,-31.667,-1245.349,-42.365,-2.272,-15.432,32.038,-10.451,-0.015,0.919,-0.421,2.045,-1.068,1.068,73.333,33707.000,1.000
6.220,-27.832,-1231.060,-40.915,-1.406,-18.069,31.747,-7.614,-0.016,0.919,-0.421,1.495,-1.221,1.099,73.333,33708.000,1.000
1.230,-29.610,-1221.305,-43.564,-1.863,-25.525,26.058,-9.208,-0.014,0.919,-0.421,0.946,-1.190,1.129,73.333,33709.000,1.000
-5.989,-35.960,-1214.708,-48.869,-3.611,-36.832,16.955,-14.737,-0.011,0.917,-0.426,0.580,-1.312,1.160,73.333,33710.000,1.000
-11.737,-42.820,-1207.550,-53.269,-5.636,-47.820,8.966,-20.626,-0.009,0.917,-0.425,0.183,-1.373,1.160,73.333,33711.000,1.000
-12.783,-46.148,-1196.810,-53.426,-6.762,-53.753,6.323,-22.929,-0.006,0.916,-0.422,-0.397,-1.465,1.282,73.333,33712.000,1.000
-8.757,-44.626,-1182.702,-48.871,-6.583,-52.812,9.905,-20.361,-0.005,0.917,-0.423,-0.732,-1.495,1.404,73.333,33713.000,1.000
-2.230,-40.212,-1167.709,-41.889,-5.652,-47.569,16.382,-15.014,-0.006,0.915,-0.425,-1.038,-1.465,1.434,73.333,33714.000,1.000
2.910,-36.536,-1154.332,-35.935,-4.946,-43.010,20.695,-10.753,-0.004,0.914,-0.423,-1.373,-1.404,1.434,73.333,33715.000,1.000
4.141,-35.974,-1143.508,-33.298,-5.051,-42.518,20.155,-10.172,-0.005,0.912,-0.423,-1.648,-1.282,1.434,73.333,33716.000,1.000
1.649,-38.303,-1134.252,-33.836,-5.879,-46.069,15.853,-13.041,-0.004,0.912,-0.422,-1.923,-1.404,1.556,73.333,33717.000,1.000
-2.621,-42.398,-1125.350,-35.915,-7.072,-52.181,10.453,-17.740,-0.002,0.909,-0.420,-2.228,-1.251,1.556,73.333,33718.000,1.000
-5.180,-47.939,-1114.487,-36.231,-8.201,-60.384,5.798,-22.746,-0.002,0.909,-0.420,-2.533,-1.160,1.617,73.333,33719.000,1.000
-2.849,-55.178,-1098.224,-32.017,-8.901,-71.331,2.142,-27.189,-0.001,0.907,-0.418,-2.716,-1.190,1.709,73.333,33720.000,1.000
3.062,-62.403,-1075.515,-25.407,-9.010,-83.389,-0.863,-30.057,-0.003,0.906,-0.417,-2.838,-1.221,1.587,73.333,33721.000,1.000
6.810,-64.423,-1048.748,-22.560,-8.433,-90.463,-2.989,-29.408,-0.003,0.905,-0.417,-3.021,-1.251,1.678,73.333,33722.000,1.000
4.310,-56.877,-1021.505,-27.155,-7.137,-87.071,-4.043,-24.374,-0.001,0.903,-0.413,-3.113,-1.099,1.740,73.333,33723.000,1.000
-2.033,-42.236,-995.793,-35.779,-5.431,-75.387,-5.040,-17.472,-0.001,0.903,-0.413,-3.143,-1.160,1.740,73.333,33724.000,1.000
-6.663,-29.409,-972.964,-42.269,-4.138,-64.585,-7.626,-13.490,-0.002,0.905,-0.408,-3.387,-1.190,1.678,73.333,33725.000,1.000
-7.695,-26.173,-955.847,-44.774,-4.159,-62.119,-11.902,-14.876,-0.005,0.904,-0.408,-3.540,-1.221,1.648,73.333,33726.000,1.000
-8.120,-32.503,-946.814,-46.252,-5.702,-67.059,-15.731,-18.945,-0.005,0.903,-0.408,-3.662,-1.221,1.587,73.333,33727.000,1.000
-10.944,-42.163,-945.083,-49.699,-8.035,-73.104,-16.893,-21.018,-0.006,0.903,-0.409,-3.815,-1.312,1.617,73.333,33728.000,1.000
-15.088,-49.557,-946.366,-54.166,-9.994,-76.231,-15.273,-19.152,-0.007,0.905,-0.407,-3.998,-1.312,1.587,73.333,33729.000,1.000
-17.448,-53.912,-946.455,-56.837,-10.811,-77.666,-12.625,-15.310,-0.005,0.902,-0.406,-4.089,-1.373,1.465,73.333,33730.000,1.000
-17.205,-57.234,-944.794,-57.066,-10.504,-80.033,-10.445,-12.249,-0.004,0.900,-0.406,-4.211,-1.282,1.343,73.333,33731.000,1.000
-16.482,-60.359,-943.452,-56.662,-9.644,-83.164,-8.806,-10.504,-0.004,0.899,-0.405,-4.211,-1.373,1.343,73.333,33732.000,1.000
-17.609,-62.676,-944.701,-57.507,-8.960,-85.041,-7.209,-9.043,-0.002,0.899,-0.407,-4.181,-1.404,1.282,73.333,33733.000,1.000
-20.500,-64.144,-948.957,-59.220,-8.997,-84.907,-5.550,-7.249,-0.001,0.899,-0.407,-4.089,-1.404,1.160,73.333,33734.000,1.000
-23.412,-66.112,-955.451,-60.365,-9.952,-84.365,-4.409,-5.852,0.000,0.891,-0.404,-4.028,-1.434,1.038,73.333,33735.000,1.000
-25.241,-69.757,-963.993,-60.531,-11.568,-85.355,-4.359,-5.742,0.003,0.885,-0.402,-3.815,-1.465,1.007,73.333,33736.000,1.000
-26.157,-74.377,-974.597,-60.121,-13.182,-87.520,-5.023,-6.341,0.005,0.878,-0.397,-3.479,-1.465,0.977,73.333,33737.000,1.000
-26.842,-78.263,-987.356,-59.575,-14.156,-88.606,-5.427,-6.281,0.005,0.878,-0.399,-3.204,-1.343,0.854,73.333,33738.000,1.000
-27.436,-80.379,-1002.037,-58.529,-14.277,-86.794,-4.994,-4.891,0.002,0.881,-0.401,-2.747,-1.129,0.854,73.333,33739.000,1.000
-27.724,-81.037,-1018.415,-56.679,-13.829,-82.288,-4.054,-3.054,0.003,0.886,-0.400,-2.319,-1.068,0.641,73.333,33740.000,1.000
-27.770,-81.341,-1036.759,-54.704,-13.331,-76.944,-3.481,-2.501,0.003,0.892,-0.397,-2.106,-1.007,0.519,73.333,33741.000,1.000
-27.817,-82.166,-1056.654,-53.549,-13.190,-72.734,-4.016,-4.214,0.003,0.892,-0.396,-1.862,-0.946,0.458,73.333,33742.000,1.000
-28.154,-83.814,-1076.910,-53.786,-13.561,-70.566,-5.765,-7.782,0.004,0.896,-0.398,-1.648,-0.885,0.366,73.333,33743.000,1.000
-28.939,-85.916,-1095.906,-55.000,-14.296,-69.770,-7.908,-11.478,0.004,0.898,-0.397,-1.465,-0.854,0.122,73.333,33744.000,1.000
-30.371,-87.851,-1112.663,-56.389,-15.103,-69.014,-9.409,-13.570,0.003,0.904,-0.398,-1.373,-0.793,0.122,73.333,33745.000,1.000
-32.426,-89.331,-1127.415,-57.195,-15.798,-67.681,-9.860,-13.574,0.002,0.908,-0.397,-1.343,-0.732,0.061,73.333,33746.000,1.000
-34.436,-90.466,-1140.355,-56.581,-16.349,-66.188,-9.438,-12.118,0.003,0.909,-0.396,-1.221,-0.763,0.061,73.333,33747.000,1.000
-35.816,-91.628,-1151.688,-54.655,-16.797,-65.390,-8.500,-10.241,-0.001,0.910,-0.399,-1.251,-0.763,-0.122,73.333,33748.000,1.000
-36.714,-92.849,-1161.600,-52.464,-17.122,-65.503,-7.367,-8.417,-0.004,0.910,-0.400,-1.282,-0.732,-0.397,73.333,33749.000,1.000
-37.967,-93.984,-1170.447,-51.337,-17.314,-66.175,-6.702,-6.797,-0.004,0.906,-0.402,-1.312,-0.732,-0.488,73.333,33750.000,1.000
-39.853,-95.212,-1178.605,-51.462,-17.478,-67.262,-7.191,-5.806,-0.003,0.901,-0.402,-1.343,-0.732,-0.671,73.333,33751.000,1.000
-40.960,-96.433,-1185.070,-50.973,-17.695,-68.812,-8.539,-5.793,0.000,0.893,-0.399,-1.251,-0.702,-0.854,73.333,33752.000,1.000
-39.721,-96.975,-1188.733,-48.214,-17.974,-70.667,-9.588,-6.844,0.001,0.890,-0.401,-1.007,-0.641,-1.068,73.333,33753.000,1.000
-36.494,-96.081,-1190.268,-43.672,-18.333,-71.837,-9.214,-8.500,0.003,0.891,-0.401,-0.610,-0.549,-1.312,73.333,33754.000,1.000
-33.420,-93.796,-1192.256,-39.435,-18.823,-70.844,-7.125,-9.900,0.003,0.893,-0.401,-0.183,-0.397,-1.465,73.333,33755.000,1.000
-32.124,-91.448,-1197.128,-36.711,-19.413,-67.338,-4.043,-10.243,0.005,0.895,-0.406,0.153,-0.275,-1.617,73.333,33756.000,1.000
-32.332,-91.173,-1204.758,-34.690,-19.957,-63.096,-1.364,-9.266,0.005,0.896,-0.404,0.549,-0.061,-1.709,73.333,33757.000,1.000
-33.278,-94.779,-1213.715,-32.781,-20.374,-60.900,-0.506,-7.553,0.005,0.896,-0.405,1.007,0.092,-1.587,73.333,33758.000,1.000
-35.040,-101.923,-1222.805,-31.762,-20.706,-61.709,-1.752,-5.687,0.003,0.897,-0.405,1.190,0.305,-1.526,73.333,33759.000,1.000
-38.170,-109.938,-1231.543,-32.855,-21.019,-63.906,-3.963,-4.014,0.000,0.898,-0.405,1.587,0.519,-1.465,73.333,33760.000,1.000
-42.196,-115.903,-1239.691,-35.789,-21.258,-65.517,-5.584,-3.080,-0.001,0.898,-0.404,1.892,0.671,-1.434,73.333,33761.000,1.000
-45.100,-118.450,-1246.053,-38.235,-21.240,-66.141,-5.702,-3.427,-0.002,0.897,-0.407,2.167,0.793,-1.343,73.333,33762.000,1.000
-45.236,-117.886,-1249.726,-38.376,-20.878,-66.537,-4.327,-5.069,-0.003,0.897,-0.409,2.441,0.854,-1.221,73.333,33763.000,1.000
-42.891,-114.768,-1251.128,-36.488,-20.238,-66.640,-1.906,-6.819,-0.004,0.898,-0.409,2.716,0.793,-1.068,73.333,33764.000,1.000
-39.590,-109.326,-1251.578,-34.223,-19.447,-65.306,0.857,-7.017,-0.006,0.898,-0.409,3.021,0.854,-1.068,73.333,33765.000,1.000
-35.961,-102.393,-1251.973,-32.338,-18.654,-62.161,3.158,-4.966,-0.007,0.902,-0.407,3.357,0.916,-1.038,73.333,33766.000,1.000
-31.145,-96.045,-1251.678,-29.676,-18.022,-58.618,4.619,-1.376,-0.008,0.903,-0.405,3.479,0.854,-1.038,73.333,33767.000,1.000
-24.989,-92.816,-1250.344,-25.510,-17.769,-56.749,5.491,2.143,-0.008,0.905,-0.407,3.601,0.885,-1.129,73.333,33768.000,1.000
-19.350,-93.421,-1248.802,-20.882,-18.017,-56.955,6.542,4.690,-0.009,0.906,-0.404,3.693,0.824,-1.068,73.333,33769.000,1.000
-16.720,-96.135,-1248.249,-17.727,-18.639,-57.715,8.253,6.526,-0.010,0.906,-0.407,3.662,0.732,-1.007,73.333,33770.000,1.000
-17.682,-98.890,-1249.171,-16.834,-19.386,-57.787,9.885,7.882,-0.012,0.905,-0.410,3.662,0.641,-1.007,73.333,33771.000,1.000
-20.176,-101.032,-1250.441,-16.900,-20.077,-57.625,9.800,8.250,-0.012,0.905,-0.408,3.662,0.488,-0.916,73.333,33772.000,1.000
-21.782,-102.952,-1250.841,-16.488,-20.623,-58.385,7.038,6.945,-0.010,0.905,-0.411,3.662,0.366,-0.946,73.333,33773.000,1.000
-21.808,-104.406,-1250.000,-15.413,-20.930,-59.870,2.514,4.406,-0.011,0.905,-0.408,3.632,0.244,-0.824,73.333,33774.000,1.000
-21.170,-104.367,-1248.219,-14.541,-21.009,-60.576,-1.748,1.957,-0.011,0.904,-0.409,3.571,0.305,-0.854,73.333,33775.000,1.000
-20.563,-102.511,-1245.734,-14.183,-21.035,-59.682,-4.220,0.602,-0.010,0.906,-0.412,3.571,0.275,-0.702,73.333,33776.000,1.000
-19.499,-100.028,-1241.646,-13.246,-21.139,-58.076,-4.718,0.399,-0.008,0.906,-0.413,3.479,0.092,-0.610,73.333,33777.000,1.000
-17.585,-98.720,-1235.106,-11.039,-21.285,-57.302,-4.105,0.665,-0.010,0.907,-0.412,3.265,0.092,-0.549,73.333,33778.000,1.000
-15.314,-98.798,-1225.967,-8.024,-21.281,-57.372,-3.091,1.279,-0.010,0.908,-0.410,3.143,0.122,-0.488,73.333,33779.000,1.000
-13.525,-98.581,-1214.632,-5.176,-20.949,-56.680,-1.803,2.827,-0.013,0.908,-0.414,2.960,0.031,-0.458,73.333,33780.000,1.000
-12.235,-96.522,-1201.616,-2.739,-20.315,-54.212,-0.353,5.527,-0.013,0.905,-0.412,2.594,-0.061,-0.519,73.333,33781.000,1.000
-10.295,-92.708,-1186.514,0.235,-19.575,-50.961,0.839,8.768,-0.012,0.902,-0.409,2.350,-0.183,-0.336,73.333,33782.000,1.000
-6.912,-88.548,-1168.985,4.156,-18.936,-49.024,1.397,11.433,-0.011,0.899,-0.413,2.197,-0.336,-0.397,73.333,33783.000,1.000
-2.744,-85.000,-1149.275,8.209,-18.451,-49.328,1.496,13.002,-0.010,0.896,-0.414,2.197,-0.366,-0.397,73.333,33784.000,1.000
0.500,-81.906,-1128.059,10.983,-18.092,-51.110,1.466,13.619,-0.010,0.896,-0.418,2.136,-0.488,-0.336,73.333,33785.000,1.000
1.645,-79.027,-1106.134,11.968,-17.896,-53.342,1.291,13.438,-0.010,0.897,-0.422,2.197,-0.519,-0.336,73.333,33786.000,1.000
1.121,-76.734,-1083.588,12.430,-17.896,-55.625,0.891,12.616,-0.008,0.898,-0.420,2.228,-0.549,-0.214,73.333,33787.000,1.000
0.002,-75.570,-1060.610,13.728,-18.020,-57.791,0.468,11.497,-0.007,0.899,-0.417,2.167,-0.671,-0.153,73.333,33788.000,1.000
-1.170,-75.215,-1037.533,16.123,-18.043,-58.979,0.493,10.965,-0.008,0.895,-0.416,2.045,-0.641,0.061,73.333,33789.000,1.000
-2.581,-74.744,-1014.522,18.772,-17.735,-58.127,1.207,11.917,-0.007,0.893,-0.415,1.831,-0.519,0.305,73.333,33790.000,1.000
-4.299,-73.868,-991.664,20.892,-17.061,-55.425,2.412,14.507,-0.008,0.889,-0.412,1.953,-0.580,0.427,73.333,33791.000,1.000
-5.834,-73.356,-968.884,22.615,-16.241,-52.824,3.583,17.921,-0.009,0.889,-0.419,2.106,-0.549,0.610,73.333,33792.000,1.000
-7.030,-74.382,-947.080,23.819,-15.706,-53.016,3.902,20.412,-0.005,0.887,-0.418,2.197,-0.488,0.732,73.333,33793.000,1.000
-8.291,-76.960,-927.502,23.900,-15.776,-57.135,2.768,20.595,-0.004,0.890,-0.419,2.319,-0.519,0.824,73.333,33794.000,1.000
-10.058,-79.636,-910.488,22.336,-16.377,-63.775,0.180,18.304,-0.005,0.895,-0.418,2.411,-0.519,0.885,73.333,33795.000,1.000
-12.211,-80.950,-895.304,19.464,-17.097,-70.270,-3.343,14.288,-0.005,0.899,-0.424,2.380,-0.458,1.007,73.333,33796.000,1.000
-14.018,-80.592,-880.296,16.647,-17.463,-74.485,-7.002,9.704,-0.006,0.904,-0.423,2.289,-0.397,1.160,73.333,33797.000,1.000
-15.045,-79.364,-864.427,14.756,-17.268,-75.801,-10.018,5.583,-0.004,0.906,-0.424,2.136,-0.336,1.251,73.333,33798.000,1.000
-15.540,-78.021,-847.409,13.750,-16.589,-74.644,-11.750,2.859,-0.005,0.910,-0.426,1.923,-0.366,1.373,73.333,33799.000,1.000
-16.205,-76.771,-829.197,12.980,-15.669,-71.904,-12.012,1.955,-0.005,0.911,-0.428,1.801,-0.519,1.495,73.333,33800.000,1.000
-17.426,-75.668,-809.852,12.006,-14.812,-68.797,-11.194,2.441,-0.005,0.912,-0.428,1.526,-0.458,1.587,73.333,33801.000,1.000
-18.691,-74.800,-789.121,11.239,-14.233,-66.553,-9.938,3.349,-0.005,0.911,-0.428,1.282,-0.427,1.495,73.333,33802.000,1.000
-19.274,-74.325,-767.439,10.972,-13.980,-66.138,-8.899,3.526,-0.006,0.910,-0.429,1.160,-0.580,1.465,73.333,33803.000,1.000
-18.901,-74.058,-745.692,11.161,-13.910,-67.777,-8.628,2.385,-0.006,0.910,-0.431,1.038,-0.549,1.465,73.333,33804.000,1.000
-17.982,-73.659,-724.637,11.394,-13.884,-71.145,-9.642,-0.185,-0.007,0.911,-0.428,0.854,-0.641,1.312,73.333,33805.000,1.000
-17.113,-73.196,-704.955,11.201,-13.877,-75.871,-12.085,-4.195,-0.007,0.913,-0.426,0.732,-0.702,1.282,73.333,33806.000,1.000
-16.408,-73.014,-686.606,10.647,-13.804,-81.547,-15.372,-9.325,-0.007,0.911,-0.423,0.488,-0.793,1.251,73.333,33807.000,1.000
-15.888,-73.464,-669.328,9.732,-13.481,-87.719,-18.544,-14.892,-0.007,0.910,-0.426,0.366,-0.977,1.190,73.333,33808.000,1.000
-15.716,-74.357,-652.482,8.510,-12.757,-93.609,-20.514,-19.654,-0.003,0.910,-0.426,0.122,-1.129,1.068,73.333,33809.000,1.000
-16.148,-74.994,-635.065,7.091,-11.717,-98.386,-20.493,-22.468,-0.003,0.909,-0.423,-0.183,-1.099,1.007,73.333,33810.000,1.000
-17.250,-74.856,-616.399,5.643,-10.699,-102.002,-18.516,-23.232,0.001,0.907,-0.422,-0.427,-1.129,0.885,73.333,33811.000,1.000
-18.710,-74.109,-596.202,4.576,-10.012,-105.420,-15.443,-22.905,0.002,0.907,-0.421,-0.671,-1.099,0.854,73.333,33812.000,1.000
-20.302,-73.725,-575.500,3.867,-9.775,-110.083,-12.456,-23.019,0.002,0.905,-0.420,-0.854,-1.129,0.946,73.333,33813.000,1.000
-21.778,-74.352,-556.008,3.359,-9.888,-116.543,-10.198,-24.483,0.004,0.904,-0.419,-1.068,-1.007,0.854,73.333,33814.000,1.000
-22.826,-75.552,-539.323,2.765,-10.145,-123.978,-8.622,-27.272,0.005,0.903,-0.418,-1.190,-0.946,0.641,73.333,33815.000,1.000
-23.397,-76.668,-527.213,1.457,-10.400,-131.227,-7.604,-31.022,0.006,0.903,-0.415,-1.373,-0.854,0.671,73.333,33816.000,1.000
-23.776,-77.811,-521.192,-1.159,-10.652,-137.769,-7.375,-35.476,0.004,0.902,-0.416,-1.495,-0.854,0.458,73.333,33817.000,1.000
-24.457,-79.757,-522.317,-5.564,-11.039,-143.801,-8.332,-40.756,0.003,0.902,-0.414,-1.648,-0.763,0.366,73.333,33818.000,1.000
-25.494,-82.718,-529.839,-11.233,-11.605,-149.270,-10.313,-46.736,0.006,0.902,-0.416,-1.770,-0.763,0.275,73.333,33819.000,1.000
-26.393,-85.883,-540.942,-16.746,-12.155,-153.516,-12.533,-52.854,0.004,0.901,-0.416,-1.984,-0.702,0.153,73.333,33820.000,1.000
-26.516,-88.102,-552.461,-20.722,-12.385,-155.941,-14.163,-58.557,0.006,0.902,-0.415,-2.136,-0.763,0.000,73.333,33821.000,1.000
-25.510,-88.640,-562.199,-22.403,-12.088,-156.577,-14.872,-63.587,0.004,0.900,-0.415,-2.350,-0.671,0.031,73.333,33822.000,1.000
-23.817,-87.827,-570.240,-22.352,-11.401,-156.317,-15.076,-68.139,0.006,0.899,-0.415,-2.380,-0.641,-0.122,73.333,33823.000,1.000
-22.310,-86.663,-577.974,-21.668,-10.756,-156.257,-15.352,-72.148,0.005,0.898,-0.413,-2.533,-0.580,-0.244,73.333,33824.000,1.000
-21.601,-86.030,-586.569,-21.231,-10.548,-157.001,-15.804,-75.024,0.006,0.896,-0.411,-2.655,-0.519,-0.519,73.333,33825.000,1.000
-21.557,-86.209,-596.527,-21.307,-10.815,-158.534,-16.011,-76.111,0.004,0.897,-0.409,-2.686,-0.458,-0.641,73.333,33826.000,1.000
-21.432,-86.882,-607.406,-21.472,-11.280,-160.471,-15.500,-75.220,0.004,0.895,-0.413,-2.808,-0.458,-0.763,73.333,33827.000,1.000
-20.790,-87.780,-618.911,-21.570,-11.741,-162.491,-14.302,-73.049,0.003,0.895,-0.410,-2.747,-0.519,-0.824,73.333,33828.000,1.000
-19.649,-88.808,-630.789,-21.542,-12.133,-164.167,-12.837,-70.458,0.003,0.894,-0.410,-2.747,-0.519,-0.946,73.333,33829.000,1.000
-18.414,-90.089,-642.607,-21.488,-12.401,-165.043,-11.603,-67.948,0.002,0.895,-0.410,-2.655,-0.519,-1.129,73.333,33830.000,1.000
-17.728,-92.037,-654.310,-21.802,-12.544,-165.097,-11.021,-65.729,-0.001,0.895,-0.411,-2.655,-0.549,-1.160,73.333,33831.000,1.000
-17.959,-94.843,-665.849,-22.716,-12.691,-164.745,-11.455,-63.853,-0.001,0.895,-0.409,-2.594,-0.549,-1.282,73.333,33832.000,1.000
-19.093,-98.352,-677.504,-24.463,-13.103,-164.660,-13.320,-62.663,-0.002,0.894,-0.407,-2.625,-0.702,-1.434,73.333,33833.000,1.000
-20.742,-102.119,-689.400,-26.860,-13.990,-165.343,-16.858,-62.561,-0.002,0.894,-0.410,-2.563,-0.702,-1.495,73.333,33834.000,1.000
-22.532,-105.699,-701.305,-29.517,-15.387,-167.056,-22.049,-63.794,-0.002,0.895,-0.408,-2.563,-0.824,-1.587,73.333,33835.000,1.000
-24.163,-108.788,-712.958,-32.028,-17.054,-169.672,-28.289,-66.082,-0.004,0.895,-0.410,-2.502,-0.732,-1.617,73.333,33836.000,1.000
-24.964,-110.880,-723.434,-33.555,-18.449,-172.153,-34.027,-68.186,-0.002,0.895,-0.411,-2.380,-0.854,-1.678,73.333,33837.000,1.000
-24.241,-111.450,-731.880,-33.499,-19.040,-172.897,-37.403,-68.665,-0.002,0.893,-0.411,-2.319,-0.793,-1.709,73.333,33838.000,1.000
-21.854,-110.349,-737.980,-31.739,-18.698,-170.591,-37.214,-66.663,-0.004,0.892,-0.412,-2.136,-0.885,-1.801,73.333,33839.000,1.000
-18.667,-108.120,-742.232,-28.925,-17.809,-164.969,-33.317,-62.380,-0.003,0.891,-0.412,-2.045,-0.824,-1.831,73.333,33840.000,1.000
-16.142,-105.677,-745.948,-26.174,-17.016,-156.829,-25.871,-56.444,-0.004,0.890,-0.412,-2.045,-0.946,-1.892,73.333,33841.000,1.000
-15.346,-103.487,-750.031,-24.046,-16.789,-147.216,-14.068,-48.536,-0.003,0.889,-0.411,-1.892,-0.885,-1.953,73.333,33842.000,1.000
-16.712,-101.751,-755.134,-22.707,-17.243,-137.167,2.800,-37.995,-0.002,0.890,-0.410,-1.740,-0.946,-1.953,73.333,33843.000,1.000
-20.089,-100.958,-761.689,-22.197,-18.184,-128.273,21.361,-26.097,-0.002,0.886,-0.413,-1.587,-0.946,-2.014,73.333,33844.000,1.000
-25.082,-102.031,-769.996,-23.002,-19.362,-123.221,33.514,-16.701,-0.002,0.882,-0.410,-1.434,-1.007,-2.106,73.333,33845.000,1.000
-31.111,-105.613,-780.211,-25.618,-20.661,-124.350,33.015,-13.072,-0.003,0.878,-0.409,-1.221,-1.007,-2.167,73.333,33846.000,1.000
-37.247,-111.183,-791.478,-29.629,-22.013,-131.372,20.133,-15.767,-0.004,0.869,-0.412,-0.732,-1.038,-2.167,73.333,33847.000,1.000
-42.568,-117.294,-802.733,-34.377,-23.297,-141.566,-0.791,-24.271,-0.005,0.862,-0.409,0.000,-1.099,-2.228,73.333,33848.000,1.000
-46.023,-121.931,-812.939,-38.813,-24.186,-151.229,-23.431,-36.992,-0.005,0.855,-0.408,0.793,-1.099,-2.380,73.333,33849.000,1.000
-46.605,-123.249,-821.326,-41.612,-24.193,-157.220,-40.537,-50.467,-0.008,0.853,-0.411,1.678,-1.068,-2.533,73.333,33850.000,1.000
-44.200,-120.910,-828.349,-42.124,-23.054,-158.595,-47.741,-61.196,-0.009,0.848,-0.407,2.899,-1.282,-2.869,73.333,33851.000,1.000
-40.032,-116.506,-835.339,-40.800,-21.054,-157.266,-46.394,-67.865,-0.009,0.848,-0.406,4.303,-1.587,-3.113,73.333,33852.000,1.000
-36.151,-112.591,-844.069,-39.076,-18.947,-156.798,-41.307,-71.271,-0.008,0.853,-0.406,5.493,-1.740,-3.296,73.333,33853.000,1.000
-34.029,-110.985,-855.519,-37.981,-17.484,-159.706,-36.261,-72.416,-0.007,0.856,-0.406,6.653,-1.984,-3.571,73.333,33854.000,1.000
-34.099,-112.290,-869.679,-37.954,-17.102,-165.926,-32.633,-72.016,-0.008,0.863,-0.404,7.721,-2.106,-3.906,73.333,33855.000,1.000
-36.124,-116.321,-886.213,-39.264,-17.840,-173.434,-30.857,-70.975,-0.007,0.869,-0.408,8.728,-2.228,-4.181,73.333,33856.000,1.000
-39.392,-122.154,-903.969,-41.657,-19.316,-179.597,-31.252,-69.969,-0.007,0.873,-0.406,9.583,-2.350,-4.303,73.333,33857.000,1.000
-43.039,-128.422,-921.628,-44.603,-20.961,-182.411,-33.375,-68.979,-0.004,0.879,-0.411,10.437,-2.533,-4.456,73.333,33858.000,1.000
-46.035,-133.716,-938.110,-47.169,-22.279,-180.775,-35.367,-67.155,-0.003,0.883,-0.408,11.108,-2.686,-4.547,73.333,33859.000,1.000
-47.529,-137.029,-952.918,-48.517,-23.007,-174.491,-35.038,-63.809,-0.004,0.887,-0.407,11.658,-2.686,-4.578,73.333,33860.000,1.000
-47.275,-137.960,-966.255,-48.377,-23.127,-164.255,-31.585,-59.320,-0.003,0.890,-0.412,12.177,-2.808,-4.456,73.333,33861.000,1.000
-45.598,-136.667,-978.106,-46.792,-22.763,-151.441,-26.026,-54.723,-0.001,0.891,-0.413,12.665,-2.747,-4.517,73.333,33862.000,1.000
-43.240,-134.002,-988.723,-44.446,-22.162,-137.995,-20.183,-50.893,0.000,0.891,-0.415,13.062,-2.747,-4.456,73.333,33863.000,1.000
-40.760,-130.953,-998.559,-42.450,-21.559,-125.802,-15.259,-47.769,-0.003,0.895,-0.413,13.367,-2.808,-4.456,73.333,33864.000,1.000
-38.385,-128.210,-1008.089,-42.110,-21.115,-116.060,-11.607,-44.818,-0.006,0.896,-0.414,13.702,-2.808,-4.486,73.333,33865.000,1.000
-36.020,-126.106,-1017.731,-43.681,-20.936,-108.999,-9.255,-41.778,-0.007,0.900,-0.414,13.947,-2.838,-4.517,73.333,33866.000,1.000
-33.184,-124.552,-1027.015,-45.323,-21.027,-103.938,-8.186,-38.612,-0.012,0.901,-0.417,14.008,-2.899,-4.456,73.333,33867.000,1.000
-29.674,-123.646,-1035.457,-44.829,-21.289,-100.068,-8.263,-35.418,-0.014,0.901,-0.417,14.160,-2.960,-4.364,73.333,33868.000,1.000
-25.851,-123.865,-1042.982,-41.029,-21.570,-96.877,-8.898,-32.013,-0.016,0.902,-0.420,14.221,-3.296,-4.242,73.333,33869.000,1.000
-22.471,-125.493,-1049.888,-34.425,-21.785,-94.201,-9.300,-28.161,-0.017,0.902,-0.420,14.221,-3.387,-4.211,73.333,33870.000,1.000
-19.988,-127.786,-1056.537,-26.737,-21.887,-91.934,-8.919,-23.917,-0.020,0.903,-0.422,14.221,-3.571,-4.059,73.333,33871.000,1.000
-17.930,-128.823,-1062.238,-19.510,-21.750,-89.666,-7.585,-19.375,-0.018,0.900,-0.423,14.252,-3.693,-4.028,73.333,33872.000,1.000
-15.566,-127.081,-1066.248,-13.816,-21.325,-87.155,-5.622,-14.766,-0.019,0.901,-0.422,14.252,-3.937,-3.906,73.333,33873.000,1.000
-12.660,-122.780,-1068.553,-9.844,-20.767,-84.631,-3.634,-10.500,-0.020,0.900,-0.423,14.191,-4.059,-3.723,73.333,33874.000,1.000
-9.759,-117.740,-1069.922,-7.275,-20.369,-82.687,-2.365,-7.475,-0.020,0.901,-0.426,14.038,-4.181,-3.632,73.333,33875.000,1.000
-7.743,-114.076,-1071.424,-5.888,-20.349,-81.878,-2.509,-6.839,-0.022,0.902,-0.427,14.069,-4.425,-3.662,73.333,33876.000,1.000
-7.105,-112.945,-1073.095,-5.494,-20.661,-82.206,-4.331,-8.936,-0.021,0.902,-0.431,13.947,-4.669,-3.448,73.333,33877.000,1.000
-7.952,-114.441,-1074.481,-6.170,-21.144,-83.238,-7.406,-13.027,-0.022,0.900,-0.428,13.794,-4.822,-3.296,73.333,33878.000,1.000
-9.839,-117.685,-1075.026,-7.528,-21.633,-84.260,-10.555,-17.475,-0.022,0.901,-0.433,13.580,-5.005,-3.052,73.333,33879.000,1.000
-11.966,-121.287,-1074.296,-8.760,-21.954,-84.680,-12.588,-20.792,-0.022,0.903,-0.432,13.306,-5.066,-2.899,73.333,33880.000,1.000
-13.718,-124.041,-1072.256,-9.328,-21.946,-84.390,-13.206,-22.595,-0.021,0.904,-0.436,13.062,-5.188,-2.716,73.333,33881.000,1.000
-14.971,-125.270,-1068.658,-9.188,-21.560,-83.638,-13.050,-23.521,-0.019,0.903,-0.432,12.756,-5.249,-2.502,73.333,33882.000,1.000
-16.248,-125.184,-1063.623,-9.066,-20.990,-83.040,-13.054,-24.775,-0.019,0.906,-0.435,12.512,-5.341,-2.289,73.333,33883.000,1.000
-18.214,-124.607,-1057.530,-9.530,-20.536,-83.235,-13.649,-27.043,-0.018,0.907,-0.436,12.207,-5.432,-1.984,73.333,33884.000,1.000
-21.290,-124.469,-1050.759,-10.644,-20.405,-84.469,-14.691,-29.991,-0.017,0.906,-0.437,11.688,-5.493,-1.801,73.333,33885.000,1.000
-25.213,-125.122,-1043.614,-12.001,-20.586,-86.204,-15.710,-32.440,-0.020,0.906,-0.437,11.353,-5.554,-1.556,73.333,33886.000,1.000
-28.775,-125.830,-1035.634,-12.680,-20.837,-87.139,-16.133,-32.954,-0.018,0.908,-0.439,10.986,-5.585,-1.373,73.333,33887.000,1.000
-30.798,-125.587,-1026.652,-12.269,-20.943,-86.409,-15.775,-31.062,-0.018,0.908,-0.439,10.620,-5.554,-1.221,73.333,33888.000,1.000
-30.993,-124.009,-1017.060,-10.855,-20.871,-84.292,-14.914,-27.407,-0.017,0.906,-0.440,10.040,-5.493,-0.946,73.333,33889.000,1.000
-30.122,-121.503,-1007.421,-8.802,-20.712,-81.769,-13.995,-23.227,-0.017,0.906,-0.439,9.674,-5.585,-0.702,73.333,33890.000,1.000
-29.269,-118.721,-998.238,-6.456,-20.570,-79.588,-13.193,-19.608,-0.018,0.907,-0.438,9.277,-5.615,-0.488,73.333,33891.000,1.000
-28.938,-115.832,-989.169,-3.792,-20.467,-77.778,-12.336,-16.952,-0.016,0.906,-0.439,8.789,-5.524,-0.336,73.333,33892.000,1.000
-29.166,-112.828,-979.825,-1.012,-20.383,-76.228,-11.384,-15.377,-0.019,0.905,-0.444,8.179,-5.524,-0.122,73.333,33893.000,1.000
-29.557,-109.719,-969.866,1.837,-20.279,-74.972,-10.480,-14.745,-0.017,0.905,-0.444,7.812,-5.463,-0.092,73.333,33894.000,1.000
-29.560,-106.586,-959.027,4.874,-20.162,-74.150,-9.830,-14.822,-0.017,0.903,-0.443,7.385,-5.432,0.122,73.333,33895.000,1.000
-28.907,-103.794,-947.716,7.990,-20.086,-73.871,-9.585,-15.457,-0.016,0.902,-0.448,6.927,-5.371,0.153,73.333,33896.000,1.000
-27.693,-101.833,-936.488,10.975,-20.054,-73.967,-9.708,-16.376,-0.015,0.901,-0.447,6.409,-5.280,0.153,73.333,33897.000,1.000
-26.453,-101.043,-926.026,13.288,-20.049,-74.245,-10.182,-17.403,-0.012,0.900,-0.447,5.951,-5.096,0.275,73.333,33898.000,1.000
-25.689,-101.101,-916.397,14.753,-20.017,-74.551,-11.057,-18.373,-0.012,0.899,-0.447,5.432,-5.066,0.305,73.333,33899.000,1.000
-25.582,-101.189,-907.058,15.566,-19.952,-74.782,-12.343,-19.177,-0.011,0.900,-0.448,5.005,-5.035,0.366,73.333,33900.000,1.000
-25.919,-100.657,-897.754,15.889,-19.977,-74.916,-13.848,-19.730,-0.012,0.899,-0.452,4.517,-4.852,0.427,73.333,33901.000,1.000
-26.160,-99.374,-888.345,15.929,-20.199,-74.963,-15.313,-19.795,-0.011,0.899,-0.451,4.059,-4.639,0.519,73.333,33902.000,1.000
-25.984,-97.953,-879.257,15.549,-20.571,-75.217,-16.922,-19.484,-0.009,0.899,-0.449,3.632,-4.425,0.641,73.333,33903.000,1.000
-25.116,-96.995,-870.782,14.887,-20.829,-75.897,-19.077,-19.094,-0.008,0.896,-0.449,3.204,-4.211,0.671,73.333,33904.000,1.000
-23.167,-96.415,-862.515,14.384,-20.657,-76.808,-21.780,-18.829,-0.008,0.895,-0.451,2.686,-3.998,0.610,73.333,33905.000,1.000
-19.999,-95.773,-854.122,14.261,-20.003,-77.635,-24.495,-18.820,-0.008,0.896,-0.455,2.289,-3.845,0.671,73.333,33906.000,1.000
-15.926,-94.693,-845.479,14.641,-19.128,-78.167,-26.491,-19.010,-0.009,0.894,-0.451,1.862,-3.510,0.580,73.333,33907.000,1.000
-11.552,-92.968,-836.848,15.562,-18.349,-78.189,-27.185,-19.093,-0.008,0.894,-0.447,1.526,-3.296,0.519,73.333,33908.000,1.000
-7.116,-90.292,-827.982,17.542,-17.751,-77.170,-26.084,-18.250,-0.007,0.892,-0.450,1.129,-3.052,0.488,73.333,33909.000,1.000
-2.552,-86.530,-818.266,20.950,-17.242,-74.791,-23.125,-15.819,-0.007,0.890,-0.453,0.732,-2.838,0.427,73.333,33910.000,1.000
2.222,-81.981,-807.850,25.367,-16.730,-71.607,-19.001,-12.008,-0.007,0.892,-0.452,0.336,-2.747,0.305,73.333,33911.000,1.000
7.330,-77.020,-797.249,30.183,-16.191,-68.618,-14.789,-7.517,-0.008,0.890,-0.455,-0.061,-2.625,0.244,73.333,33912.000,1.000
12.577,-72.014,-787.315,34.717,-15.714,-66.583,-11.400,-3.153,-0.007,0.889,-0.452,-0.488,-2.136,0.000,73.333,33913.000,1.000
17.575,-66.995,-778.417,38.713,-15.392,-65.444,-9.158,0.718,-0.007,0.888,-0.451,-0.763,-1.892,-0.122,73.333,33914.000,1.000
22.022,-61.601,-770.123,42.165,-15.226,-64.606,-7.884,4.102,-0.007,0.887,-0.455,-1.038,-1.678,-0.336,73.333,33915.000,1.000
25.905,-55.570,-761.958,45.011,-15.195,-63.659,-7.215,7.067,-0.008,0.887,-0.455,-1.343,-1.434,-0.458,73.333,33916.000,1.000
29.503,-49.117,-753.453,47.262,-15.326,-62.657,-6.971,9.642,-0.009,0.886,-0.455,-1.556,-1.221,-0.671,73.333,33917.000,1.000
32.952,-43.015,-744.663,48.684,-15.674,-62.017,-7.356,11.581,-0.010,0.886,-0.453,-1.770,-1.099,-0.824,73.333,33918.000,1.000
36.406,-37.856,-735.402,49.569,-16.083,-61.732,-8.402,12.995,-0.011,0.888,-0.454,-2.045,-0.916,-0.885,73.333,33919.000,1.000
39.921,-33.877,-724.908,50.672,-16.187,-61.194,-9.647,14.440,-0.013,0.886,-0.451,-2.380,-0.702,-1.099,73.333,33920.000,1.000
43.127,-31.395,-712.743,52.418,-15.738,-59.899,-10.448,16.307,-0.015,0.885,-0.453,-2.594,-0.580,-1.251,73.333,33921.000,1.000
45.441,-30.562,-698.753,54.799,-14.815,-57.864,-10.344,18.599,-0.013,0.884,-0.457,-2.716,-0.397,-1.343,73.333,33922.000,1.000
46.358,-31.033,-683.478,57.170,-13.783,-55.690,-9.335,20.821,-0.014,0.883,-0.453,-2.991,-0.275,-1.465,73.333,33923.000,1.000
45.976,-31.968,-667.642,58.887,-12.995,-54.109,-7.934,22.319,-0.014,0.884,-0.452,-3.204,-0.092,-1.648,73.333,33924.000,1.000
44.845,-32.739,-651.858,59.392,-12.639,-53.774,-7.096,22.459,-0.013,0.885,-0.453,-3.387,0.061,-1.862,73.333,33925.000,1.000
43.511,-33.437,-636.671,58.437,-12.713,-55.016,-7.504,21.118,-0.013,0.887,-0.454,-3.448,0.214,-1.984,73.333,33926.000,1.000
42.356,-34.488,-621.674,56.709,-12.988,-57.308,-8.860,19.193,-0.014,0.890,-0.457,-3.693,0.427,-2.106,73.333,33927.000,1.000
41.356,-36.258,-606.112,55.035,-13.153,-59.559,-10.331,17.792,-0.014,0.889,-0.454,-3.815,0.580,-2.167,73.333,33928.000,1.000
40.587,-38.432,-589.015,54.107,-12.953,-60.718,-11.298,17.638,-0.016,0.888,-0.456,-4.028,0.610,-2.258,73.333,33929.000,1.000
40.507,-40.012,-569.431,54.204,-12.342,-60.323,-11.773,18.814,-0.017,0.887,-0.451,-4.150,0.763,-2.289,73.333,33930.000,1.000
41.538,-40.124,-547.337,55.114,-11.498,-58.734,-12.225,20.762,-0.018,0.884,-0.455,-4.364,1.038,-2.380,73.333,33931.000,1.000
43.657,-38.507,-523.545,56.562,-10.658,-56.786,-13.113,22.564,-0.019,0.885,-0.456,-4.486,1.068,-2.350,73.333,33932.000,1.000
46.345,-35.587,-499.936,58.053,-9.977,-55.438,-14.641,23.017,-0.020,0.884,-0.455,-4.639,1.129,-2.411,73.333,33933.000,1.000
49.251,-31.938,-478.369,59.472,-9.466,-55.179,-16.525,21.375,-0.020,0.884,-0.454,-4.669,1.251,-2.472,73.333,33934.000,1.000
52.159,-28.110,-459.802,60.995,-9.097,-56.043,-18.342,17.736,-0.022,0.883,-0.453,-4.730,1.373,-2.533,73.333,33935.000,1.000
54.671,-24.691,-444.343,62.688,-8.896,-57.935,-20.000,12.925,-0.023,0.883,-0.453,-4.761,1.404,-2.533,73.333,33936.000,1.000
56.604,-21.988,-430.739,64.692,-8.848,-60.418,-21.619,8.265,-0.024,0.882,-0.454,-4.700,1.373,-2.472,73.333,33937.000,1.000
58.091,-20.168,-417.415,66.792,-8.896,-62.792,-23.290,4.788,-0.024,0.883,-0.453,-4.791,1.465,-2.380,73.333,33938.000,1.000
59.414,-19.301,-403.252,68.691,-9.022,-64.384,-24.935,3.002,-0.025,0.880,-0.453,-4.822,1.556,-2.472,73.333,33939.000,1.000
60.473,-19.317,-388.063,69.990,-9.272,-64.965,-26.446,2.795,-0.027,0.878,-0.451,-4.730,1.526,-2.533,73.333,33940.000,1.000
60.867,-19.859,-372.614,70.396,-9.669,-64.680,-27.574,3.727,-0.027,0.879,-0.451,-4.639,1.526,-2.472,73.333,33941.000,1.000
60.616,-20.000,-357.280,70.331,-10.086,-63.551,-27.804,5.664,-0.027,0.879,-0.451,-4.517,1.617,-2.441,73.333,33942.000,1.000
60.132,-18.771,-342.131,70.313,-10.318,-61.607,-26.834,8.578,-0.027,0.879,-0.455,-4.395,1.648,-2.411,73.333,33943.000,1.000
59.993,-15.779,-327.006,70.778,-10.164,-59.066,-24.924,12.310,-0.029,0.876,-0.453,-4.242,1.648,-2.380,73.333,33944.000,1.000
60.453,-11.595,-311.904,71.648,-9.575,-56.551,-22.940,16.223,-0.028,0.877,-0.454,-4.120,1.770,-2.411,73.333,33945.000,1.000
61.305,-7.414,-297.298,72.299,-8.717,-55.006,-21.934,19.390,-0.029,0.875,-0.451,-4.059,1.801,-2.289,73.333,33946.000,1.000
62.251,-4.168,-283.221,72.287,-7.833,-55.056,-22.374,21.300,-0.028,0.874,-0.452,-3.876,1.770,-2.106,73.333,33947.000,1.000
62.992,-2.406,-269.744,71.305,-7.127,-56.787,-23.926,21.795,-0.029,0.873,-0.450,-3.662,1.801,-1.984,73.333,33948.000,1.000
63.598,-2.146,-256.875,69.682,-6.681,-59.615,-25.683,21.146,-0.029,0.872,-0.451,-3.540,1.770,-1.801,73.333,33949.000,1.000
64.357,-2.900,-244.558,68.108,-6.452,-62.441,-26.611,19.902,-0.030,0.871,-0.451,-3.326,1.648,-1.862,73.333,33950.000,1.000
65.238,-4.185,-233.282,67.056,-6.336,-64.156,-25.938,18.660,-0.029,0.873,-0.451,-3.113,1.587,-1.709,73.333,33951.000,1.000
65.817,-5.793,-223.497,66.759,-6.197,-64.191,-23.575,17.942,-0.031,0.871,-0.452,-2.960,1.587,-1.587,73.333,33952.000,1.000
65.425,-7.888,-215.627,66.639,-5.971,-63.117,-20.504,17.659,-0.030,0.871,-0.450,-2.716,1.465,-1.465,73.333,33953.000,1.000
63.703,-10.626,-209.515,65.837,-5.714,-62.286,-18.297,17.256,-0.033,0.872,-0.449,-2.472,1.587,-1.312,73.333,33954.000,1.000
60.644,-14.065,-204.516,63.718,-5.577,-63.037,-18.208,16.040,-0.032,0.869,-0.451,-2.289,1.495,-1.190,73.333,33955.000,1.000
56.577,-18.153,-200.267,60.401,-5.631,-65.860,-20.131,13.839,-0.032,0.869,-0.449,-2.106,1.465,-1.099,73.333,33956.000,1.000
52.424,-22.297,-196.317,57.223,-5.758,-69.945,-22.339,11.639,-0.033,0.869,-0.446,-1.831,1.312,-1.038,73.333,33957.000,1.000
49.119,-25.583,-192.631,55.459,-5.860,-73.991,-22.938,10.745,-0.032,0.867,-0.447,-1.587,1.312,-0.854,73.333,33958.000,1.000
47.050,-27.307,-189.323,55.528,-5.943,-76.964,-21.344,11.856,-0.032,0.867,-0.447,-1.251,1.068,-0.610,73.333,33959.000,1.000
45.746,-27.575,-186.497,56.675,-6.045,-78.310,-18.527,14.483,-0.033,0.867,-0.447,-1.007,0.946,-0.580,73.333,33960.000,1.000
44.242,-27.142,-184.417,57.560,-6.144,-77.805,-16.146,17.229,-0.033,0.867,-0.448,-0.854,0.793,-0.488,73.333,33961.000,1.000
41.899,-26.446,-182.734,57.456,-6.108,-75.385,-15.337,18.846,-0.033,0.866,-0.445,-0.458,0.793,-0.336,73.333,33962.000,1.000
38.506,-25.550,-181.235,56.179,-5.830,-71.562,-16.093,18.723,-0.033,0.865,-0.446,-0.183,0.641,-0.244,73.333,33963.000,1.000
34.334,-24.468,-180.119,54.265,-5.334,-67.349,-17.384,17.212,-0.034,0.865,-0.448,0.122,0.488,-0.183,73.333,33964.000,1.000
29.948,-23.376,-179.846,52.421,-4.855,-63.916,-18.132,15.060,-0.034,0.864,-0.445,0.275,0.275,-0.092,73.333,33965.000,1.000
25.983,-22.525,-180.923,50.997,-4.764,-62.139,-17.945,12.720,-0.032,0.864,-0.442,0.671,0.122,-0.031,73.333,33966.000,1.000
23.125,-21.951,-182.891,50.377,-5.246,-61.997,-17.000,10.486,-0.032,0.868,-0.445,0.977,-0.061,0.061,73.333,33967.000,1.000
21.647,-21.832,-185.124,50.634,-6.167,-62.797,-15.866,8.483,-0.031,0.870,-0.447,1.282,-0.153,0.244,73.333,33968.000,1.000
21.383,-22.477,-187.271,51.691,-7.156,-63.702,-14.985,6.978,-0.032,0.874,-0.445,1.495,-0.183,0.214,73.333,33969.000,1.000
21.892,-23.839,-189.222,53.341,-7.856,-64.089,-13.646,6.782,-0.031,0.874,-0.447,1.617,-0.244,0.244,73.333,33970.000,1.000
22.688,-25.251,-191.137,55.397,-8.139,-63.523,-9.559,9.507,-0.032,0.876,-0.445,1.770,-0.305,0.366,73.333,33971.000,1.000
23.327,-25.925,-192.919,57.785,-8.112,-61.769,-1.013,16.424,-0.031,0.875,-0.447,1.923,-0.427,0.610,73.333,33972.000,1.000
23.034,-26.086,-194.938,59.568,-8.037,-59.399,9.748,25.824,-0.029,0.871,-0.442,2.014,-0.549,0.854,73.333,33973.000,1.000
21.098,-26.772,-197.637,59.508,-8.139,-57.585,17.028,33.210,-0.028,0.866,-0.439,2.197,-0.580,0.977,73.333,33974.000,1.000
17.269,-28.833,-201.094,56.818,-8.440,-57.368,15.781,34.246,-0.027,0.862,-0.439,2.289,-0.610,1.099,73.333,33975.000,1.000
11.914,-32.199,-205.418,51.535,-8.687,-59.015,4.922,27.384,-0.023,0.863,-0.438,2.655,-0.763,1.221,73.333,33976.000,1.000
6.067,-35.720,-210.419,44.889,-8.459,-61.519,-11.868,14.804,-0.022,0.863,-0.441,3.143,-0.702,1.282,73.333,33977.000,1.000
0.644,-38.181,-216.333,38.374,-7.581,-63.166,-27.844,1.039,-0.023,0.865,-0.441,3.296,-0.763,1.312,73.333,33978.000,1.000
-4.040,-39.084,-223.475,33.151,-6.292,-62.544,-36.803,-9.507,-0.023,0.865,-0.444,3.815,-0.854,1.282,73.333,33979.000,1.000
-8.387,-38.972,-231.731,29.289,-5.043,-59.556,-36.801,-15.010,-0.023,0.868,-0.441,4.242,-0.946,1.312,73.333,33980.000,1.000
-13.181,-39.270,-240.951,25.735,-4.191,-55.621,-30.813,-16.537,-0.021,0.871,-0.444,4.547,-0.977,1.099,73.333,33981.000,1.000
-18.751,-41.188,-250.678,21.554,-3.833,-52.571,-23.845,-16.118,-0.021,0.875,-0.442,5.005,-0.946,1.068,73.333,33982.000,1.000
-24.705,-44.941,-260.635,16.498,-3.877,-51.486,-19.438,-15.124,-0.019,0.877,-0.442,5.249,-0.977,1.129,73.333,33983.000,1.000
-29.955,-49.614,-270.286,11.550,-4.101,-52.081,-18.088,-13.511,-0.020,0.879,-0.440,5.524,-1.038,1.099,73.333,33984.000,1.000
-33.391,-53.929,-278.864,8.114,-4.250,-53.428,-18.464,-10.739,-0.022,0.881,-0.442,5.585,-1.129,1.007,73.333,33985.000,1.000
-34.721,-57.187,-286.431,6.719,-4.195,-55.238,-19.547,-7.240,-0.022,0.883,-0.441,5.737,-1.221,0.793,73.333,33986.000,1.000
-34.618,-59.463,-293.733,6.781,-3.996,-58.055,-21.413,-4.494,-0.024,0.884,-0.440,5.707,-1.343,0.610,73.333,33987.000,1.000
-34.347,-61.379,-302.052,6.951,-3.907,-62.459,-24.382,-3.968,-0.025,0.887,-0.442,5.890,-1.434,0.458,73.333,33988.000,1.000
-34.633,-63.259,-311.779,6.764,-4.165,-67.882,-27.725,-5.560,-0.025,0.890,-0.439,5.890,-1.495,0.397,73.333,33989.000,1.000
-35.297,-64.858,-321.969,6.825,-4.790,-72.753,-30.023,-7.922,-0.024,0.892,-0.441,5.829,-1.648,0.214,73.333,33990.000,1.000
-35.783,-65.968,-331.767,7.585,-5.637,-75.827,-30.710,-10.198,-0.024,0.891,-0.441,5.707,-1.678,0.092,73.333,33991.000,1.000
-35.714,-66.849,-341.007,8.722,-6.543,-77.048,-30.649,-12.890,-0.025,0.893,-0.437,5.676,-1.770,0.092,73.333,33992.000,1.000
-35.305,-68.295,-350.605,9.040,-7.404,-77.470,-31.075,-17.299,-0.022,0.894,-0.441,5.554,-1.862,-0.092,73.333,33993.000,1.000
-34.809,-70.755,-361.205,8.013,-8.037,-77.971,-31.932,-23.602,-0.023,0.896,-0.442,5.463,-1.923,-0.183,73.333,33994.000,1.000
-34.081,-73.781,-372.242,6.396,-8.190,-78.418,-31.779,-30.234,-0.021,0.897,-0.443,5.341,-1.862,-0.305,73.333,33995.000,1.000
-32.937,-76.558,-382.838,5.287,-7.759,-78.289,-29.344,-35.277,-0.019,0.897,-0.444,5.066,-1.984,-0.305,73.333,33996.000,1.000
-31.625,-78.576,-392.376,5.108,-6.959,-77.676,-24.819,-38.026,-0.017,0.899,-0.443,4.852,-2.014,-0.336,73.333,33997.000,1.000
-30.839,-79.867,-401.155,5.058,-6.263,-77.518,-19.545,-39.315,-0.017,0.898,-0.443,4.547,-2.045,-0.397,73.333,33998.000,1.000
-30.830,-80.369,-409.446,4.393,-6.024,-78.603,-14.548,-40.000,-0.018,0.899,-0.445,4.272,-1.984,-0.366,73.333,33999.000,1.000
-31.333,-79.940,-417.128,2.909,-6.230,-81.091,-10.085,-40.270,-0.017,0.900,-0.445,3.967,-1.892,-0.336,73.333,34000.000,1.000
-32.069,-78.940,-424.461,0.645,-6.606,-84.738,-6.189,-40.139,-0.017,0.899,-0.446,3.754,-1.740,-0.244,73.333,34001.000,1.000
-32.798,-78.135,-431.707,-1.958,-6.827,-89.033,-3.039,-39.815,-0.017,0.899,-0.445,3.387,-1.648,-0.244,73.333,34002.000,1.000
-33.535,-78.497,-439.404,-4.562,-6.800,-93.657,-1.052,-40.018,-0.016,0.901,-0.444,3.052,-1.617,-0.275,73.333,34003.000,1.000
-34.523,-80.709,-447.933,-6.858,-6.725,-98.607,-0.543,-41.476,-0.017,0.901,-0.441,2.655,-1.556,-0.275,73.333,34004.000,1.000
-36.078,-84.676,-457.262,-8.799,-6.917,-104.026,-1.466,-44.484,-0.017,0.901,-0.444,2.258,-1.526,-0.183,73.333,34005.000,1.000
-38.128,-89.248,-467.130,-10.462,-7.499,-109.802,-3.281,-48.640,-0.018,0.903,-0.444,2.045,-1.312,-0.244,73.333,34006.000,1.000
-40.032,-92.618,-476.543,-11.524,-8.229,-115.271,-5.148,-52.868,-0.018,0.903,-0.442,1.648,-1.251,-0.214,73.333,34007.000,1.000
-41.316,-93.739,-484.691,-11.961,-8.711,-119.683,-6.470,-56.262,-0.018,0.903,-0.445,1.282,-1.099,-0.183,73.333,34008.000,1.000
-41.701,-92.650,-491.006,-11.768,-8.605,-122.200,-6.841,-58.111,-0.018,0.902,-0.444,0.977,-1.099,-0.153,73.333,34009.000,1.000
-41.002,-90.038,-495.177,-10.841,-7.814,-121.950,-6.060,-57.913,-0.020,0.900,-0.445,0.580,-0.977,-0.244,73.333,34010.000,1.000
-39.431,-87.092,-497.936,-9.338,-6.590,-118.735,-4.418,-55.807,-0.019,0.900,-0.446,0.275,-1.007,-0.122,73.333,34011.000,1.000
-37.616,-85.079,-500.503,-7.617,-5.369,-113.351,-2.615,-52.546,-0.019,0.901,-0.444,-0.122,-0.977,-0.183,73.333,34012.000,1.000
-36.458,-84.815,-504.341,-6.413,-4.573,-107.353,-1.401,-49.239,-0.018,0.898,-0.445,-0.366,-0.977,-0.244,73.333,34013.000,1.000
-36.513,-86.109,-510.227,-6.096,-4.454,-102.168,-1.067,-46.624,-0.018,0.895,-0.446,-0.641,-0.793,-0.275,73.333,34014.000,1.000
-37.795,-88.050,-517.949,-6.610,-5.076,-98.478,-1.370,-44.948,-0.018,0.894,-0.447,-0.977,-0.641,-0.214,73.333,34015.000,1.000
-39.848,-89.685,-526.831,-7.606,-6.299,-96.032,-1.640,-44.078,-0.017,0.890,-0.443,-1.190,-0.519,-0.244,73.333,34016.000,1.000
-41.729,-90.203,-535.503,-8.163,-7.729,-93.698,-0.953,-43.254,-0.018,0.887,-0.443,-1.373,-0.488,-0.366,73.333,34017.000,1.000
-42.621,-89.290,-542.928,-7.662,-8.842,-90.365,1.160,-41.575,-0.018,0.887,-0.442,-1.678,-0.397,-0.397,73.333,34018.000,1.000
-42.273,-87.226,-548.758,-6.092,-9.193,-85.616,4.216,-38.524,-0.018,0.887,-0.441,-1.831,-0.183,-0.305,73.333,34019.000,1.000
-41.349,-84.903,-553.370,-4.207,-8.700,-79.919,6.895,-34.535,-0.019,0.887,-0.441,-2.014,-0.092,-0.397,73.333,34020.000,1.000
-41.134,-83.572,-557.848,-3.124,-7.730,-74.280,7.838,-30.820,-0.018,0.884,-0.439,-2.045,0.000,-0.397,73.333,34021.000,1.000
-42.499,-83.979,-562.706,-3.296,-6.849,-69.497,6.611,-28.346,-0.018,0.882,-0.441,-1.984,0.061,-0.183,73.333,34022.000,1.000
-45.441,-86.047,-567.991,-4.705,-6.500,-66.020,3.912,-27.442,-0.018,0.883,-0.445,-2.075,0.122,-0.092,73.333,34023.000,1.000
-49.094,-88.945,-573.348,-6.847,-6.745,-63.954,1.037,-27.697,-0.018,0.883,-0.444,-2.136,0.275,-0.183,73.333,34024.000,1.000
-52.412,-91.648,-578.327,-9.184,-7.286,-63.188,-1.086,-28.418,-0.019,0.883,-0.444,-2.167,0.427,-0.153,73.333,34025.000,1.000
-54.708,-93.528,-582.831,-11.414,-7.714,-63.491,-2.339,-29.071,-0.017,0.883,-0.444,-2.258,0.549,-0.122,73.333,34026.000,1.000
-55.657,-94.397,-586.613,-13.189,-7.737,-64.539,-3.147,-29.367,-0.018,0.883,-0.442,-2.289,0.702,-0.061,73.333,34027.000,1.000
-55.596,-94.669,-589.961,-14.664,-7.412,-66.332,-4.258,-29.705,-0.018,0.884,-0.442,-2.319,0.763,-0.061,73.333,34028.000,1.000
-55.226,-95.016,-593.389,-16.157,-7.079,-69.006,-6.327,-30.751,-0.017,0.884,-0.445,-2.258,0.885,-0.031,73.333,34029.000,1.000
-55.056,-95.802,-597.007,-17.830,-7.024,-72.336,-9.357,-32.762,-0.017,0.885,-0.446,-2.197,1.007,0.031,73.333,34030.000,1.000
-55.089,-96.838,-600.617,-19.425,-7.238,-75.655,-12.450,-35.213,-0.020,0.886,-0.445,-2.167,1.129,0.122,73.333,34031.000,1.000
-54.985,-97.578,-603.564,-20.157,-7.456,-78.240,-14.462,-37.070,-0.021,0.887,-0.444,-2.258,1.099,0.092,73.333,34032.000,1.000
-54.675,-97.769,-605.760,-19.762,-7.451,-79.899,-15.025,-37.756,-0.021,0.886,-0.440,-2.350,1.099,0.061,73.333,34033.000,1.000
-54.204,-97.450,-607.528,-18.462,-7.179,-80.736,-14.630,-37.239,-0.020,0.885,-0.438,-2.472,1.221,0.092,73.333,34034.000,1.000
-53.752,-96.983,-609.351,-17.027,-6.850,-81.095,-14.394,-36.202,-0.020,0.881,-0.438,-2.472,1.190,0.092,73.333,34035.000,1.000
-53.744,-97.084,-612.159,-16.675,-6.834,-81.643,-15.497,-36.040,-0.021,0.880,-0.436,-2.472,1.190,0.000,73.333,34036.000,1.000
-54.424,-98.223,-616.391,-18.027,-7.334,-82.777,-18.171,-37.830,-0.020,0.880,-0.437,-2.502,1.190,-0.031,73.333,34037.000,1.000
-55.767,-100.371,-622.108,-20.964,-8.227,-84.342,-21.544,-41.737,-0.018,0.883,-0.440,-2.350,1.282,0.122,73.333,34038.000,1.000
-57.415,-102.904,-628.934,-24.488,-9.156,-85.805,-24.374,-46.884,-0.018,0.886,-0.444,-2.319,1.221,0.183,73.333,34039.000,1.000
-59.056,-104.970,-636.335,-27.458,-9.802,-86.801,-25.946,-51.991,-0.017,0.889,-0.443,-2.228,1.343,0.153,73.333,34040.000,1.000
-60.794,-106.186,-644.256,-29.358,-10.109,-87.341,-26.379,-56.009,-0.019,0.889,-0.440,-2.167,1.282,0.183,73.333,34041.000,1.000
-62.889,-106.700,-652.502,-30.140,-10.232,-87.360,-26.254,-58.168,-0.019,0.888,-0.441,-2.228,1.343,0.244,73.333,34042.000,1.000
-65.446,-106.950,-660.911,-30.298,-10.346,-86.660,-26.148,-58.237,-0.021,0.887,-0.441,-2.350,1.434,0.397,73.333,34043.000,1.000
-68.037,-107.115,-668.983,-30.129,-10.429,-84.982,-26.186,-56.388,-0.016,0.886,-0.441,-2.350,1.556,0.488,73.333,34044.000,1.000
-70.025,-107.037,-676.052,-29.704,-10.346,-82.339,-26.098,-53.189,-0.015,0.888,-0.440,-2.380,1.587,0.732,73.333,34045.000,1.000
-71.067,-106.499,-682.167,-29.188,-10.099,-79.163,-25.501,-49.452,-0.015,0.889,-0.439,-2.289,1.587,0.641,73.333,34046.000,1.000
-71.255,-105.443,-687.706,-28.707,-9.826,-75.981,-24.305,-45.907,-0.019,0.889,-0.438,-2.167,1.556,0.610,73.333,34047.000,1.000
-71.233,-104.330,-693.309,-28.700,-9.690,-73.268,-23.129,-43.372,-0.021,0.886,-0.435,-2.289,1.617,0.549,73.333,34048.000,1.000
-71.390,-103.546,-698.651,-29.118,-9.720,-70.970,-22.582,-42.121,-0.023,0.887,-0.440,-2.197,1.526,0.519,73.333,34049.000,1.000
-71.243,-102.757,-701.927,-29.137,-9.761,-68.308,-22.364,-41.320,-0.024,0.889,-0.440,-2.350,1.404,0.458,73.333,34050.000,1.000
-69.747,-101.038,-701.047,-27.730,-9.554,-64.256,-21.519,-39.434,-0.023,0.889,-0.440,-2.350,1.282,0.397,73.333,34051.000,1.000
-66.129,-97.418,-694.499,-24.235,-8.830,-58.294,-19.460,-35.404,-0.022,0.888,-0.437,-2.380,1.129,0.336,73.333,34052.000,1.000
-60.818,-91.764,-682.826,-19.288,-7.561,-51.163,-16.635,-29.888,-0.020,0.890,-0.437,-2.380,0.916,0.183,73.333,34053.000,1.000
-55.126,-84.886,-668.292,-14.239,-6.050,-44.476,-14.103,-24.659,-0.021,0.889,-0.436,-2.319,0.732,0.366,73.333,34054.000,1.000
-50.589,-78.231,-653.685,-10.562,-4.759,-39.819,-12.916,-21.427,-0.021,0.888,-0.438,-2.258,0.610,0.305,73.333,34055.000,1.000
-48.333,-73.292,-641.369,-9.259,-3.997,-37.975,-13.494,-20.870,-0.020,0.891,-0.440,-2.228,0.549,0.275,73.333,34056.000,1.000
-48.324,-70.616,-631.845,-9.889,-3.754,-38.424,-15.224,-22.034,-0.018,0.891,-0.437,-2.106,0.427,0.183,73.333,34057.000,1.000
-49.467,-69.676,-624.356,-11.119,-3.845,-39.874,-17.040,-23.248,-0.019,0.889,-0.438,-2.075,0.366,0.275,73.333,34058.000,1.000
-50.279,-69.395,-617.717,-11.500,-4.044,-41.058,-18.252,-23.350,-0.018,0.889,-0.433,-2.197,0.397,0.244,73.333,34059.000,1.000
-50.035,-68.951,-611.194,-10.612,-4.161,-41.444,-18.946,-22.554,-0.018,0.889,-0.433,-2.106,0.336,0.366,73.333,34060.000,1.000
-48.976,-68.009,-604.953,-9.183,-4.076,-41.272,-19.499,-22.050,-0.019,0.892,-0.434,-2.106,0.275,0.458,73.333,34061.000,1.000
-47.526,-66.332,-598.891,-7.869,-3.695,-40.803,-19.877,-22.611,-0.017,0.889,-0.437,-2.045,0.183,0.549,73.333,34062.000,1.000
-46.167,-64.052,-592.811,-7.154,-2.992,-40.101,-19.722,-24.165,-0.018,0.890,-0.436,-2.075,0.183,0.610,73.333,34063.000,1.000
-45.339,-61.660,-586.455,-7.118,-2.019,-39.081,-18.687,-25.914,-0.017,0.890,-0.441,-2.075,0.061,0.671,73.333,34064.000,1.000
-45.413,-59.699,-579.708,-7.750,-0.947,-37.833,-17.021,-27.183,-0.018,0.889,-0.436,-2.075,0.031,0.763,73.333,34065.000,1.000
-46.594,-58.587,-573.005,-9.153,-0.035,-36.795,-15.745,-27.980,-0.018,0.891,-0.436,-2.045,-0.031,0.793,73.333,34066.000,1.000
-48.523,-58.307,-566.429,-10.995,0.572,-36.184,-15.771,-28.399,-0.019,0.891,-0.433,-2.014,-0.092,0.885,73.333,34067.000,1.000
-50.442,-58.510,-559.852,-12.873,0.854,-35.805,-17.102,-28.307,-0.018,0.891,-0.433,-1.953,-0.122,0.854,73.333,34068.000,1.000
-51.595,-58.675,-552.965,-14.445,0.841,-35.241,-18.972,-27.531,-0.018,0.889,-0.436,-2.045,-0.244,0.885,73.333,34069.000,1.000
-51.812,-58.563,-545.633,-15.841,0.566,-34.316,-20.687,-26.497,-0.018,0.888,-0.432,-2.167,-0.366,0.916,73.333,34070.000,1.000
-51.442,-58.358,-538.226,-17.396,0.138,-33.174,-21.892,-25.999,-0.018,0.889,-0.432,-2.106,-0.488,1.038,73.333,34071.000,1.000
-50.779,-58.117,-530.672,-18.742,-0.186,-31.893,-22.353,-26.231,-0.017,0.888,-0.431,-1.984,-0.397,1.007,73.333,34072.000,1.000
-50.225,-57.851,-522.936,-19.354,-0.175,-30.554,-22.194,-26.971,-0.020,0.886,-0.430,-1.923,-0.641,0.946,73.333,34073.000,1.000
-50.188,-57.658,-515.071,-18.824,0.264,-29.203,-21.870,-27.873,-0.019,0.887,-0.432,-1.953,-0.763,0.885,73.333,34074.000,1.000
-50.949,-57.813,-507.326,-17.327,1.035,-27.934,-21.822,-28.805,-0.020,0.886,-0.429,-1.953,-0.854,0.824,73.333,34075.000,1.000
-52.560,-58.685,-500.509,-15.708,1.837,-27.012,-22.206,-29.915,-0.018,0.887,-0.433,-1.770,-0.977,0.732,73.333,34076.000,1.000
-54.574,-60.226,-494.945,-14.671,2.324,-26.610,-22.861,-31.215,-0.017,0.885,-0.436,-1.770,-1.068,0.732,73.333,34077.000,1.000
-56.364,-62.022,-490.523,-14.714,2.257,-26.797,-23.596,-32.595,-0.016,0.885,-0.435,-1.648,-1.099,0.671,73.333,34078.000,1.000
-57.316,-63.437,-486.541,-15.589,1.684,-27.343,-24.208,-33.545,-0.017,0.885,-0.434,-1.495,-1.160,0.732,73.333,34079.000,1.000
-57.110,-63.924,-481.932,-16.501,0.903,-27.775,-24.459,-33.376,-0.015,0.884,-0.437,-1.404,-1.160,0.732,73.333,34080.000,1.000
-55.853,-63.416,-476.153,-16.799,0.238,-27.690,-24.102,-31.817,-0.013,0.884,-0.434,-1.373,-1.190,0.671,73.333,34081.000,1.000
-53.788,-62.187,-469.047,-16.151,-0.140,-26.764,-23.007,-29.189,-0.014,0.881,-0.436,-1.251,-1.221,0.549,73.333,34082.000,1.000
-51.275,-60.663,-461.242,-14.968,-0.262,-24.954,-21.476,-26.465,-0.013,0.880,-0.433,-0.977,-1.190,0.610,73.333,34083.000,1.000
-48.501,-59.041,-453.397,-13.633,-0.203,-22.369,-20.000,-24.487,-0.013,0.880,-0.433,-0.793,-1.373,0.427,73.333,34084.000,1.000
-45.565,-57.370,-445.698,-12.170,0.003,-19.178,-18.843,-23.461,-0.012,0.879,-0.433,-0.580,-1.373,0.366,73.333,34085.000,1.000
-42.684,-55.875,-438.305,-10.425,0.298,-15.625,-17.935,-23.053,-0.015,0.881,-0.433,-0.305,-1.373,0.366,73.333,34086.000,1.000
-40.078,-54.757,-430.992,-8.048,0.561,-11.864,-17.077,-22.702,-0.014,0.879,-0.432,-0.092,-1.282,0.305,73.333,34087.000,1.000
-38.103,-54.202,-423.756,-5.231,0.609,-8.083,-16.284,-22.267,-0.014,0.879,-0.435,0.000,-1.343,0.305,73.333,34088.000,1.000
-37.008,-54.260,-416.704,-2.490,0.334,-4.475,-15.673,-21.840,-0.016,0.880,-0.433,0.244,-1.282,0.275,73.333,34089.000,1.000
-36.788,-54.887,-409.891,-0.491,-0.197,-1.270,-15.375,-21.490,-0.016,0.881,-0.432,0.427,-1.343,0.214,73.333,34090.000,1.000
-37.085,-55.967,-403.542,0.232,-0.743,1.349,-15.375,-21.183,-0.018,0.879,-0.435,0.549,-1.343,0.214,73.333,34091.000,1.000
-37.158,-57.027,-397.271,-0.101,-0.976,3.555,-15.366,-20.645,-0.016,0.881,-0.434,0.671,-1.404,0.336,73.333,34092.000,1.000
-36.536,-57.539,-390.566,-1.034,-0.686,5.636,-15.047,-19.761,-0.017,0.881,-0.433,0.824,-1.434,0.488,73.333,34093.000,1.000
-35.319,-57.249,-383.019,-2.014,0.121,7.791,-14.234,-18.555,-0.016,0.878,-0.434,0.946,-1.526,0.519,73.333,34094.000,1.000
-34.259,-56.434,-374.733,-2.883,1.194,10.004,-12.922,-17.353,-0.016,0.877,-0.437,1.190,-1.526,0.519,73.333,34095.000,1.000
-34.338,-55.809,-366.726,-3.929,2.137,12.135,-11.252,-16.718,-0.017,0.877,-0.435,1.312,-1.434,0.427,73.333,34096.000,1.000
-35.903,-55.929,-359.896,-5.121,2.681,14.158,-9.418,-16.832,-0.020,0.878,-0.435,1.526,-1.587,0.336,73.333,34097.000,1.000
-38.529,-57.005,-354.916,-6.325,2.814,15.759,-7.827,-17.440,-0.018,0.880,-0.438,1.740,-1.617,0.305,73.333,34098.000,1.000
-41.133,-58.707,-351.786,-7.109,2.756,16.360,-6.928,-17.878,-0.016,0.881,-0.439,1.862,-1.587,0.275,73.333,34099.000,1.000
-42.757,-60.534,-349.988,-7.184,2.720,15.454,-7.050,-17.700,-0.016,0.885,-0.438,1.923,-1.526,0.275,73.333,34100.000,1.000
-43.230,-62.375,-349.224,-6.835,2.680,12.838,-8.332,-17.078,-0.015,0.886,-0.441,2.014,-1.526,0.244,73.333,34101.000,1.000
-42.908,-64.308,-348.848,-6.410,2.447,8.942,-10.674,-16.390,-0.013,0.887,-0.440,2.106,-1.465,0.214,73.333,34102.000,1.000
-42.403,-66.413,-348.277,-6.350,1.839,4.700,-13.879,-16.228,-0.013,0.888,-0.443,2.014,-1.404,0.427,73.333,34103.000,1.000
-42.103,-68.477,-346.893,-6.581,0.885,1.280,-17.531,-17.050,-0.014,0.885,-0.446,2.014,-1.404,0.427,73.333,34104.000,1.000
-41.987,-69.984,-343.954,-6.581,-0.122,-0.557,-20.931,-18.864,-0.015,0.885,-0.444,2.106,-1.404,0.458,73.333,34105.000,1.000
-41.719,-70.480,-339.156,-5.959,-0.765,-0.977,-23.360,-21.190,-0.015,0.885,-0.440,2.045,-1.373,0.549,73.333,34106.000,1.000
-40.897,-69.784,-332.464,-4.599,-0.783,-0.772,-24.453,-23.258,-0.015,0.886,-0.445,1.953,-1.343,0.519,73.333,34107.000,1.000
-39.621,-68.234,-324.645,-3.078,-0.303,-0.805,-24.410,-24.632,-0.013,0.889,-0.445,1.892,-1.221,0.580,73.333,34108.000,1.000
-38.111,-66.221,-316.564,-1.850,0.321,-1.180,-23.550,-24.977,-0.013,0.891,-0.446,1.862,-1.129,0.580,73.333,34109.000,1.000
-36.355,-63.842,-308.585,-0.953,0.841,-1.168,-22.035,-23.948,-0.011,0.891,-0.445,1.740,-1.129,0.519,73.333,34110.000,1.000
-34.417,-61.163,-301.015,-0.460,1.243,-0.067,-19.980,-21.558,-0.011,0.891,-0.447,1.556,-1.160,0.488,73.333,34111.000,1.000
-32.726,-58.452,-293.849,-0.594,1.641,2.040,-17.656,-18.372,-0.013,0.893,-0.444,1.465,-1.129,0.427,73.333,34112.000,1.000
-32.030,-56.366,-287.269,-1.976,2.095,4.030,-15.668,-15.607,-0.013,0.892,-0.445,1.343,-1.007,0.458,73.333,34113.000,1.000
-32.561,-55.429,-281.204,-4.689,2.626,4.665,-14.665,-14.281,-0.012,0.894,-0.445,1.312,-0.885,0.427,73.333,34114.000,1.000
-33.842,-55.600,-275.183,-8.133,3.178,3.527,-15.095,-14.726,-0.013,0.893,-0.447,1.190,-0.854,0.427,73.333,34115.000,1.000
-35.085,-56.267,-268.973,-11.488,3.615,1.175,-16.990,-16.608,-0.013,0.893,-0.448,0.977,-0.885,0.458,73.333,34116.000,1.000
-35.419,-56.419,-262.231,-13.725,3.860,-1.097,-19.669,-18.921,-0.013,0.893,-0.446,0.732,-0.824,0.397,73.333,34117.000,1.000
-34.450,-55.472,-255.139,-14.346,3.899,-2.156,-22.086,-20.679,-0.013,0.895,-0.443,0.488,-0.732,0.336,73.333,34118.000,1.000
-32.375,-53.638,-248.227,-13.312,3.749,-1.653,-23.457,-21.254,-0.012,0.895,-0.448,0.427,-0.671,0.336,73.333,34119.000,1.000
-29.858,-51.777,-242.030,-11.024,3.441,-0.167,-23.764,-20.596,-0.013,0.895,-0.446,0.183,-0.580,0.366,73.333,34120.000,1.000
-27.604,-50.866,-237.168,-8.215,3.029,1.197,-23.608,-19.190,-0.010,0.894,-0.445,-0.061,-0.610,0.275,73.333,34121.000,1.000
-25.906,-51.231,-233.635,-5.439,2.626,1.599,-23.594,-17.606,-0.011,0.893,-0.444,-0.336,-0.641,0.275,73.333,34122.000,1.000
-24.992,-52.641,-231.339,-3.443,2.306,0.719,-23.982,-16.442,-0.011,0.893,-0.445,-0.458,-0.671,0.183,73.333,34123.000,1.000
-25.011,-54.488,-230.037,-2.707,2.042,-1.146,-24.537,-15.913,-0.013,0.892,-0.443,-0.580,-0.641,0.183,73.333,34124.000,1.000
-25.900,-56.000,-229.204,-3.266,1.742,-3.338,-24.796,-15.844,-0.014,0.892,-0.442,-0.641,-0.641,0.153,73.333,34125.000,1.000
-27.427,-56.703,-228.611,-4.879,1.377,-5.228,-24.440,-15.921,-0.015,0.890,-0.443,-0.885,-0.519,0.031,73.333,34126.000,1.000
-29.240,-56.683,-228.159,-6.921,1.060,-6.301,-23.399,-15.703,-0.015,0.892,-0.444,-1.038,-0.610,0.092,73.333,34127.000,1.000
-31.123,-56.686,-228.320,-8.969,0.896,-6.449,-21.837,-14.949,-0.014,0.890,-0.444,-1.160,-0.488,0.092,73.333,34128.000,1.000
-32.892,-57.581,-229.522,-10.683,0.915,-6.007,-20.009,-13.615,-0.014,0.888,-0.443,-1.343,-0.427,0.061,73.333,34129.000,1.000
-34.665,-60.011,-231.842,-12.184,1.009,-5.792,-18.518,-12.217,-0.015,0.889,-0.442,-1.434,-0.488,0.031,73.333,34130.000,1.000
-36.929,-64.254,-235.427,-14.116,0.945,-6.919,-18.357,-11.845,-0.013,0.889,-0.440,-1.556,-0.671,-0.031,73.333,34131.000,1.000
-39.905,-69.819,-239.925,-16.698,0.555,-10.000,-20.199,-13.273,-0.014,0.887,-0.439,-1.648,-0.580,-0.061,73.333,34132.000,1.000
-43.250,-75.513,-244.914,-19.627,-0.140,-14.625,-23.669,-16.405,-0.015,0.888,-0.439,-1.770,-0.610,-0.092,73.333,34133.000,1.000
-46.063,-79.798,-249.815,-21.945,-0.926,-19.330,-27.329,-20.099,-0.015,0.887,-0.440,-1.709,-0.671,-0.153,73.333,34134.000,1.000
-47.681,-81.731,-254.176,-22.840,-1.633,-22.632,-29.903,-23.151,-0.016,0.886,-0.443,-1.892,-0.702,-0.153,73.333,34135.000,1.000
-48.152,-81.539,-258.266,-22.315,-2.309,-24.131,-31.212,-25.180,-0.014,0.887,-0.445,-1.862,-0.763,-0.031,73.333,34136.000,1.000
-47.704,-79.978,-262.100,-20.666,-2.990,-24.282,-31.734,-26.271,-0.013,0.889,-0.441,-2.014,-0.732,0.031,73.333,34137.000,1.000
-46.565,-77.901,-265.479,-18.529,-3.514,-23.923,-32.119,-26.830,-0.015,0.890,-0.439,-2.075,-0.793,0.061,73.333,34138.000,1.000
-44.843,-75.915,-267.911,-16.397,-3.570,-23.761,-32.897,-27.278,-0.016,0.890,-0.436,-2.228,-0.793,0.061,73.333,34139.000,1.000
-42.642,-74.327,-268.870,-14.633,-2.973,-24.063,-34.278,-27.909,-0.017,0.891,-0.438,-2.228,-0.763,0.031,73.333,34140.000,1.000
-40.304,-73.398,-268.638,-13.637,-1.879,-24.745,-36.123,-28.925,-0.016,0.891,-0.438,-2.350,-0.885,0.092,73.333,34141.000,1.000
-38.456,-73.357,-267.989,-13.553,-0.726,-25.697,-38.197,-30.390,-0.017,0.888,-0.434,-2.472,-0.885,0.275,73.333,34142.000,1.000
-37.867,-74.368,-268.141,-14.524,-0.015,-27.134,-40.409,-32.380,-0.018,0.888,-0.437,-2.563,-0.977,0.336,73.333,34143.000,1.000
-38.653,-76.103,-269.643,-16.168,0.010,-29.125,-42.496,-34.555,-0.018,0.889,-0.435,-2.594,-1.038,0.366,73.333,34144.000,1.000
-40.283,-77.945,-272.029,-17.801,-0.559,-31.360,-44.034,-36.343,-0.017,0.888,-0.434,-2.594,-1.129,0.305,73.333,34145.000,1.000
-42.145,-79.578,-274.723,-18.968,-1.463,-33.520,-44.803,-37.398,-0.016,0.886,-0.433,-2.594,-1.190,0.336,73.333,34146.000,1.000
-43.777,-80.976,-277.000,-19.348,-2.451,-35.484,-44.888,-37.561,-0.013,0.887,-0.433,-2.625,-1.190,0.275,73.333,34147.000,1.000
-45.190,-82.429,-278.693,-19.194,-3.403,-37.429,-44.651,-37.041,-0.014,0.887,-0.432,-2.594,-1.190,0.275,73.333,34148.000,1.000
-46.621,-84.194,-279.905,-18.840,-4.176,-39.420,-44.419,-36.139,-0.017,0.885,-0.431,-2.686,-1.251,0.366,73.333,34149.000,1.000
-48.339,-86.243,-280.741,-18.670,-4.533,-41.324,-44.473,-35.317,-0.017,0.889,-0.432,-2.686,-1.404,0.427,73.333,34150.000,1.000
-50.478,-88.341,-281.672,-19.183,-4.340,-43.098,-45.151,-35.261,-0.017,0.890,-0.433,-2.716,-1.404,0.488,73.333,34151.000,1.000
-52.696,-89.970,-282.780,-20.349,-3.681,-44.688,-46.561,-36.235,-0.016,0.890,-0.435,-2.716,-1.465,0.458,73.333,34152.000,1.000
-54.594,-90.753,-284.075,-21.982,-2.840,-46.037,-48.385,-37.973,-0.016,0.888,-0.432,-2.747,-1.587,0.488,73.333,34153.000,1.000
-56.007,-90.704,-285.516,-23.870,-2.144,-47.013,-49.939,-39.792,-0.019,0.890,-0.433,-2.747,-1.678,0.580,73.333,34154.000,1.000
-57.110,-90.253,-287.065,-26.059,-1.846,-47.625,-50.712,-41.136,-0.020,0.888,-0.432,-2.747,-1.801,0.580,73.333,34155.000,1.000
-58.258,-90.069,-288.944,-28.802,-2.037,-48.267,-50.772,-41.917,-0.021,0.887,-0.429,-2.777,-1.770,0.580,73.333,34156.000,1.000
-59.627,-90.602,-290.931,-31.982,-2.584,-49.305,-50.520,-42.192,-0.018,0.884,-0.429,-2.716,-1.892,0.580,73.333,34157.000,1.000
-61.227,-91.954,-292.910,-35.446,-3.270,-50.698,-50.197,-42.045,-0.018,0.883,-0.430,-2.625,-2.014,0.519,73.333,34158.000,1.000
-62.701,-93.687,-294.964,-38.788,-3.923,-51.839,-49.573,-41.294,-0.017,0.882,-0.430,-2.472,-2.167,0.488,73.333,34159.000,1.000
-63.663,-95.146,-297.574,-41.625,-4.487,-52.141,-48.376,-39.911,-0.017,0.884,-0.433,-2.380,-2.228,0.427,73.333,34160.000,1.000
-64.052,-95.990,-301.887,-43.744,-4.974,-51.590,-46.710,-38.409,-0.016,0.887,-0.432,-2.228,-2.197,0.549,73.333,34161.000,1.000
-63.936,-96.193,-308.514,-44.691,-5.383,-50.545,-44.991,-37.530,-0.015,0.886,-0.431,-2.136,-2.350,0.549,73.333,34162.000,1.000
-63.731,-96.344,-317.668,-44.572,-5.786,-49.758,-43.984,-38.222,-0.014,0.884,-0.433,-2.045,-2.380,0.641,73.333,34163.000,1.000
-64.007,-97.271,-329.102,-43.945,-6.324,-49.967,-44.328,-40.919,-0.013,0.882,-0.432,-1.984,-2.228,0.671,73.333,34164.000,1.000
-64.981,-99.076,-341.969,-43.215,-7.036,-51.132,-45.743,-44.802,-0.011,0.880,-0.433,-1.892,-2.289,0.732,73.333,34165.000,1.000
-66.216,-100.847,-355.246,-42.214,-7.746,-52.182,-46.919,-47.901,-0.010,0.877,-0.431,-1.770,-2.167,0.793,73.333,34166.000,1.000
-66.943,-101.503,-367.844,-40.353,-8.168,-51.756,-46.504,-48.196,-0.010,0.877,-0.432,-1.678,-2.197,0.793,73.333,34167.000,1.000
-66.987,-101.021,-379.870,-37.845,-8.192,-49.574,-44.377,-45.366,-0.011,0.878,-0.434,-1.404,-2.167,0.916,73.333,34168.000,1.000
-66.708,-100.183,-392.337,-35.416,-7.955,-46.558,-41.609,-40.880,-0.013,0.882,-0.434,-1.129,-1.953,0.946,73.333,34169.000,1.000
-66.553,-99.799,-406.149,-33.834,-7.729,-44.079,-39.544,-36.781,-0.014,0.883,-0.435,-0.946,-1.862,0.946,73.333,34170.000,1.000
-66.650,-100.339,-421.736,-33.590,-7.765,-43.214,-38.892,-34.323,-0.014,0.886,-0.435,-0.763,-1.831,0.977,73.333,34171.000,1.000
-66.581,-101.668,-438.365,-34.384,-8.154,-44.151,-39.370,-33.351,-0.015,0.887,-0.435,-0.702,-1.770,1.007,73.333,34172.000,1.000
-66.013,-103.359,-455.112,-35.696,-8.875,-46.308,-40.133,-33.106,-0.014,0.886,-0.436,-0.519,-1.801,1.038,73.333,34173.000,1.000
-65.033,-105.034,-471.336,-36.835,-9.783,-48.678,-40.296,-32.829,-0.014,0.885,-0.435,-0.458,-1.801,1.068,73.333,34174.000,1.000
-64.305,-106.814,-487.038,-37.461,-10.646,-50.597,-39.601,-32.390,-0.013,0.885,-0.433,-0.305,-1.831,1.007,73.333,34175.000,1.000
-64.775,-109.261,-503.129,-37.994,-11.291,-52.343,-38.693,-32.446,-0.013,0.887,-0.431,-0.214,-1.831,0.946,73.333,34176.000,1.000
-66.731,-112.345,-519.944,-38.846,-11.605,-54.471,-38.447,-33.562,-0.016,0.889,-0.434,-0.153,-1.801,0.763,73.333,34177.000,1.000
-69.510,-115.140,-536.965,-40.168,-11.526,-57.090,-39.124,-35.685,-0.016,0.889,-0.433,0.031,-1.801,0.641,73.333,34178.000,1.000
-71.881,-116.488,-553.093,-41.538,-11.058,-59.761,-40.164,-38.097,-0.014,0.894,-0.431,0.061,-1.892,0.549,73.333,34179.000,1.000
-73.003,-116.088,-567.549,-42.536,-10.401,-61.966,-40.763,-40.127,-0.014,0.897,-0.432,0.000,-1.892,0.458,73.333,34180.000,1.000
-72.735,-114.695,-580.689,-43.084,-9.934,-63.336,-40.270,-41.567,-0.012,0.896,-0.431,-0.092,-1.923,0.488,73.333,34181.000,1.000
-71.218,-113.209,-593.030,-42.943,-9.879,-63.613,-38.434,-42.443,-0.012,0.897,-0.436,-0.092,-1.862,0.397,73.333,34182.000,1.000
-69.078,-112.292,-605.174,-42.271,-10.168,-63.171,-35.955,-43.270,-0.010,0.898,-0.434,-0.122,-1.831,0.397,73.333,34183.000,1.000
-67.204,-112.139,-617.255,-41.478,-10.613,-62.920,-34.078,-44.640,-0.010,0.899,-0.433,-0.366,-1.892,0.275,73.333,34184.000,1.000
-66.291,-112.535,-628.653,-40.977,-11.111,-63.720,-33.622,-46.777,-0.007,0.898,-0.435,-0.458,-1.740,0.244,73.333,34185.000,1.000
-66.628,-113.348,-638.657,-41.010,-11.676,-66.092,-34.579,-49.582,-0.009,0.897,-0.430,-0.610,-1.587,0.397,73.333,34186.000,1.000
-68.014,-114.618,-646.434,-41.401,-12.334,-70.226,-36.493,-52.888,-0.007,0.899,-0.429,-0.763,-1.495,0.305,73.333,34187.000,1.000
-70.048,-116.329,-651.748,-42.179,-13.048,-76.246,-39.079,-56.851,-0.006,0.899,-0.432,-0.916,-1.343,0.275,73.333,34188.000,1.000
-72.038,-117.943,-654.607,-43.168,-13.639,-83.894,-42.106,-61.360,-0.007,0.900,-0.432,-1.099,-1.312,0.244,73.333,34189.000,1.000
-73.162,-118.605,-654.997,-43.931,-13.910,-92.354,-45.079,-65.740,-0.009,0.900,-0.433,-1.251,-1.221,0.244,73.333,34190.000,1.000
-72.849,-117.717,-653.320,-44.137,-13.826,-100.523,-47.282,-69.220,-0.011,0.897,-0.431,-1.434,-1.129,0.183,73.333,34191.000,1.000
-71.047,-115.205,-649.925,-43.515,-13.461,-107.349,-48.165,-71.416,-0.012,0.898,-0.430,-1.617,-1.068,0.122,73.333,34192.000,1.000
-68.695,-111.926,-645.642,-42.468,-12.983,-112.522,-47.822,-72.900,-0.011,0.900,-0.430,-1.862,-1.068,0.061,73.333,34193.000,1.000
-67.138,-109.122,-641.384,-41.684,-12.583,-116.475,-46.888,-74.748,-0.012,0.899,-0.427,-2.075,-1.007,0.061,73.333,34194.000,1.000
-67.214,-107.483,-637.526,-41.809,-12.357,-119.916,-46.289,-77.931,-0.013,0.899,-0.428,-2.289,-0.946,-0.031,73.333,34195.000,1.000
-68.863,-106.838,-634.034,-43.208,-12.273,-123.306,-46.762,-82.779,-0.013,0.895,-0.424,-2.319,-1.007,-0.061,73.333,34196.000,1.000
-71.293,-106.345,-630.006,-45.502,-12.236,-126.412,-48.272,-88.562,-0.014,0.895,-0.426,-2.533,-1.099,-0.275,73.333,34197.000,1.000
-73.674,-105.243,-624.559,-48.200,-12.227,-128.648,-50.153,-94.144,-0.017,0.896,-0.427,-2.594,-1.068,-0.366,73.333,34198.000,1.000
-75.194,-103.158,-617.143,-50.572,-12.196,-129.418,-51.562,-98.409,-0.016,0.895,-0.427,-2.747,-1.038,-0.458,73.333,34199.000,1.000
-75.186,-100.208,-607.704,-51.743,-11.936,-128.436,-51.949,-100.685,-0.014,0.895,-0.422,-2.808,-1.160,-0.610,73.333,34200.000,1.000
-73.447,-96.939,-597.038,-51.148,-11.224,-126.018,-51.279,-101.091,-0.015,0.892,-0.421,-2.991,-1.190,-0.641,73.333,34201.000,1.000
-70.280,-93.904,-585.982,-48.734,-10.101,-122.815,-49.918,-100.322,-0.016,0.892,-0.421,-2.960,-1.160,-0.702,73.333,34202.000,1.000
-66.692,-91.719,-575.618,-45.584,-8.974,-119.529,-48.472,-99.486,-0.013,0.891,-0.421,-3.082,-1.129,-0.793,73.333,34203.000,1.000
-63.846,-90.799,-566.759,-43.104,-8.290,-116.504,-47.409,-99.395,-0.014,0.890,-0.419,-3.052,-1.129,-0.793,73.333,34204.000,1.000
-62.378,-90.934,-559.394,-42.246,-8.218,-113.749,-46.871,-100.120,-0.015,0.891,-0.422,-3.082,-1.099,-0.793,73.333,34205.000,1.000
-62.154,-91.383,-553.009,-43.173,-8.601,-111.231,-46.763,-100.949,-0.015,0.888,-0.422,-3.021,-1.160,-0.824,73.333,34206.000,1.000
-62.504,-91.388,-546.485,-45.027,-9.079,-108.891,-46.976,-100.656,-0.017,0.887,-0.421,-2.930,-1.160,-0.793,73.333,34207.000,1.000
-62.879,-90.809,-539.178,-46.820,-9.356,-106.779,-47.518,-98.494,-0.016,0.888,-0.422,-2.838,-1.251,-0.763,73.333,34208.000,1.000
-62.848,-89.857,-531.052,-47.611,-9.329,-104.824,-48.223,-94.377,-0.018,0.888,-0.425,-2.777,-1.221,-0.671,73.333,34209.000,1.000
-62.239,-88.784,-522.494,-46.927,-9.078,-102.678,-48.784,-88.796,-0.016,0.888,-0.423,-2.686,-1.190,-0.580,73.333,34210.000,1.000
-61.198,-87.759,-514.307,-44.985,-8.744,-99.739,-48.894,-82.612,-0.018,0.889,-0.422,-2.563,-1.160,-0.610,73.333,34211.000,1.000
-59.767,-86.469,-506.720,-42.067,-8.342,-95.357,-48.266,-76.527,-0.019,0.888,-0.423,-2.472,-1.160,-0.610,73.333,34212.000,1.000
-57.949,-84.451,-499.815,-38.715,-7.805,-89.655,-47.055,-71.116,-0.020,0.889,-0.424,-2.472,-1.190,-0.519,73.333,34213.000,1.000
-55.798,-81.616,-493.628,-35.493,-7.133,-83.682,-45.952,-66.739,-0.019,0.890,-0.426,-2.350,-1.190,-0.488,73.333,34214.000,1.000
-53.671,-78.569,-488.210,-33.103,-6.485,-78.793,-45.761,-63.750,-0.016,0.889,-0.424,-2.228,-1.221,-0.397,73.333,34215.000,1.000
-52.060,-76.188,-483.756,-32.176,-6.018,-75.839,-46.707,-62.416,-0.018,0.891,-0.420,-2.228,-1.190,-0.275,73.333,34216.000,1.000
-50.957,-74.664,-479.724,-32.464,-5.652,-74.568,-48.148,-62.291,-0.019,0.891,-0.421,-2.106,-1.221,-0.275,73.333,34217.000,1.000
-50.066,-73.689,-475.644,-33.355,-5.247,-74.111,-49.100,-62.499,-0.018,0.892,-0.419,-1.953,-1.221,-0.183,73.333,34218.000,1.000
-49.019,-72.918,-471.438,-34.028,-4.810,-73.601,-48.791,-62.291,-0.020,0.893,-0.424,-1.892,-1.282,-0.122,73.333,34219.000,1.000
-47.681,-72.238,-467.271,-33.995,-4.467,-72.663,-47.304,-61.732,-0.020,0.895,-0.424,-1.831,-1.221,0.000,73.333,34220.000,1.000
-46.276,-71.783,-463.697,-33.476,-4.300,-71.558,-45.700,-61.609,-0.018,0.896,-0.423,-1.770,-1.251,0.000,73.333,34221.000,1.000
-44.894,-71.460,-460.774,-32.706,-4.219,-70.600,-45.017,-62.331,-0.018,0.897,-0.424,-1.770,-1.221,0.061,73.333,34222.000,1.000
-43.334,-70.928,-458.272,-31.883,-4.055,-69.885,-45.444,-63.649,-0.018,0.898,-0.421,-1.770,-1.434,0.153,73.333,34223.000,1.000
-41.214,-69.800,-455.667,-30.880,-3.699,-69.318,-46.360,-64.886,-0.019,0.897,-0.419,-1.831,-1.434,0.031,73.333,34224.000,1.000
-38.615,-68.092,-452.487,-29.629,-3.208,-68.911,-47.042,-65.618,-0.021,0.896,-0.421,-1.770,-1.373,0.061,73.333,34225.000,1.000
-36.308,-66.373,-448.940,-28.385,-2.809,-68.787,-47.040,-65.930,-0.021,0.893,-0.420,-1.770,-1.434,0.000,73.333,34226.000,1.000
-35.096,-65.234,-445.213,-27.315,-2.738,-68.796,-46.206,-65.962,-0.019,0.892,-0.421,-1.648,-1.434,0.031,73.333,34227.000,1.000
-35.495,-65.158,-441.784,-26.847,-3.127,-68.764,-44.944,-66.058,-0.018,0.892,-0.424,-1.556,-1.556,-0.031,73.333,34228.000,1.000
-37.523,-66.315,-439.101,-27.289,-3.877,-68.662,-44.040,-66.645,-0.018,0.894,-0.427,-1.312,-1.526,0.031,73.333,34229.000,1.000
-40.937,-68.471,-437.253,-28.853,-4.710,-68.676,-44.228,-68.077,-0.015,0.896,-0.427,-1.312,-1.526,0.122,73.333,34230.000,1.000
-45.290,-71.018,-436.164,-31.600,-5.348,-69.063,-45.656,-70.266,-0.017,0.897,-0.425,-1.282,-1.495,0.214,73.333,34231.000,1.000
-49.587,-72.937,-434.905,-34.678,-5.607,-69.568,-47.540,-72.205,-0.016,0.897,-0.424,-1.343,-1.373,0.305,73.333,34232.000,1.000
-52.737,-73.515,-432.464,-36.887,-5.461,-69.472,-48.662,-72.612,-0.016,0.895,-0.424,-1.221,-1.312,0.336,73.333,34233.000,1.000
-54.006,-72.627,-428.148,-37.300,-4.980,-67.952,-48.115,-70.695,-0.013,0.893,-0.425,-1.160,-1.373,0.397,73.333,34234.000,1.000
-53.364,-70.461,-421.704,-36.043,-4.310,-64.654,-45.873,-66.740,-0.013,0.893,-0.426,-1.007,-1.251,0.580,73.333,34235.000,1.000
-51.657,-67.557,-413.780,-34.308,-3.689,-60.125,-42.870,-62.085,-0.014,0.894,-0.424,-0.916,-1.160,0.610,73.333,34236.000,1.000
-50.266,-64.806,-405.390,-33.289,-3.328,-55.588,-40.521,-58.356,-0.015,0.892,-0.422,-0.824,-1.068,0.580,73.333,34237.000,1.000
-50.478,-63.077,-397.904,-33.844,-3.331,-52.407,-39.981,-56.743,-0.018,0.892,-0.421,-0.793,-1.007,0.488,73.333,34238.000,1.000
-52.410,-62.398,-391.907,-35.773,-3.608,-51.131,-41.324,-57.024,-0.019,0.892,-0.421,-0.641,-0.977,0.549,73.333,34239.000,1.000
-55.022,-62.122,-386.669,-38.128,-3.917,-51.162,-43.550,-57.731,-0.020,0.893,-0.420,-0.610,-1.068,0.458,73.333,34240.000,1.000
-56.928,-61.652,-381.140,-39.980,-3.964,-51.218,-45.243,-57.233,-0.017,0.894,-0.422,-0.549,-1.068,0.427,73.333,34241.000,1.000
-57.092,-60.618,-374.330,-40.630,-3.513,-50.122,-45.371,-54.681,-0.018,0.891,-0.425,-0.397,-1.129,0.275,73.333,34242.000,1.000
-55.664,-59.305,-366.448,-40.333,-2.624,-47.917,-44.140,-50.890,-0.019,0.891,-0.427,-0.275,-1.221,0.214,73.333,34243.000,1.000
-53.618,-58.366,-358.452,-39.636,-1.601,-45.644,-42.682,-47.560,-0.017,0.890,-0.426,-0.061,-1.312,0.092,73.333,34244.000,1.000
-51.839,-58.082,-351.016,-38.775,-0.750,-44.220,-41.996,-45.932,-0.015,0.891,-0.423,0.000,-1.251,0.061,73.333,34245.000,1.000
-50.650,-58.235,-344.547,-37.820,-0.274,-43.908,-42.303,-46.230,-0.015,0.889,-0.424,0.092,-1.282,-0.061,73.333,34246.000,1.000
-49.899,-58.444,-338.941,-36.783,-0.277,-44.469,-43.214,-47.840,-0.014,0.890,-0.421,0.244,-1.343,-0.153,73.333,34247.000,1.000
-49.537,-58.672,-334.240,-36.059,-0.823,-45.710,-44.353,-50.064,-0.017,0.891,-0.424,0.397,-1.373,-0.061,73.333,34248.000,1.000
-49.414,-58.860,-330.132,-35.715,-1.837,-47.388,-45.475,-52.133,-0.016,0.892,-0.423,0.488,-1.282,-0.031,73.333,34249.000,1.000
-49.133,-58.631,-325.672,-35.438,-3.065,-49.109,-46.351,-53.360,-0.014,0.891,-0.426,0.641,-1.160,-0.031,73.333,34250.000,1.000
-48.302,-57.626,-320.146,-34.980,-4.182,-50.514,-46.709,-53.543,-0.015,0.891,-0.423,0.732,-1.221,0.000,73.333,34251.000,1.000
-46.694,-55.685,-312.963,-34.058,-4.902,-51.216,-46.290,-52.936,-0.017,0.892,-0.424,0.793,-1.129,-0.031,73.333,34252.000,1.000
-44.417,-53.011,-304.110,-32.702,-5.116,-50.878,-45.066,-52.208,-0.016,0.895,-0.422,0.885,-1.160,0.000,73.333,34253.000,1.000
-41.429,-49.845,-293.619,-30.696,-4.820,-49.192,-43.091,-51.655,-0.016,0.895,-0.423,0.946,-1.129,0.061,73.333,34254.000,1.000
-37.641,-46.423,-281.327,-27.788,-4.058,-46.282,-40.577,-50.990,-0.017,0.894,-0.426,1.068,-1.099,0.122,73.333,34255.000,1.000
-33.616,-43.335,-267.790,-24.454,-2.998,-43.087,-38.206,-50.006,-0.016,0.897,-0.426,0.946,-1.038,0.122,73.333,34256.000,1.000
-30.516,-41.307,-254.055,-21.637,-1.905,-40.740,-36.911,-48.896,-0.019,0.896,-0.425,0.946,-1.007,0.244,73.333,34257.000,1.000
-29.475,-40.858,-241.700,-20.444,-1.059,-39.830,-37.222,-48.245,-0.018,0.896,-0.424,0.977,-1.038,0.305,73.333,34258.000,1.000
-30.711,-41.896,-232.051,-21.227,-0.641,-40.062,-38.771,-48.351,-0.019,0.895,-0.423,1.007,-0.977,0.336,73.333,34259.000,1.000
-33.603,-43.860,-225.736,-23.623,-0.704,-40.799,-40.764,-49.139,-0.018,0.895,-0.422,1.007,-1.038,0.336,73.333,34260.000,1.000
-37.156,-46.145,-222.815,-26.915,-1.160,-41.631,-42.532,-50.347,-0.018,0.896,-0.423,1.007,-1.038,0.427,73.333,34261.000,1.000
-40.167,-48.203,-222.165,-29.949,-1.763,-42.320,-43.594,-51.443,-0.018,0.896,-0.422,0.916,-1.099,0.366,73.333,34262.000,1.000
-41.902,-49.966,-222.532,-32.066,-2.274,-43.041,-43.893,-52.186,-0.016,0.896,-0.426,1.099,-0.977,0.488,73.333,34263.000,1.000
-42.375,-51.746,-223.087,-33.146,-2.572,-44.264,-43.760,-52.680,-0.016,0.894,-0.427,0.946,-0.977,0.488,73.333,34264.000,1.000
-42.238,-53.839,-223.583,-33.563,-2.713,-46.309,-43.640,-53.151,-0.017,0.894,-0.428,0.885,-0.977,0.427,73.333,34265.000,1.000
-42.338,-56.329,-224.708,-34.007,-2.917,-49.042,-43.687,-53.685,-0.017,0.893,-0.427,0.854,-1.038,0.427,73.333,34266.000,1.000
-43.052,-58.938,-227.169,-34.708,-3.371,-51.814,-43.521,-53.911,-0.017,0.892,-0.425,0.916,-0.946,0.488,73.333,34267.000,1.000
-44.257,-61.324,-231.520,-35.656,-4.086,-53.983,-42.651,-53.420,-0.016,0.893,-0.428,0.793,-0.946,0.549,73.333,34268.000,1.000
-45.345,-63.114,-237.531,-36.515,-4.874,-55.153,-41.014,-52.049,-0.014,0.894,-0.428,0.854,-0.885,0.488,73.333,34269.000,1.000
-45.570,-63.967,-244.078,-36.971,-5.516,-55.226,-39.149,-50.232,-0.014,0.894,-0.429,0.793,-0.824,0.458,73.333,34270.000,1.000
-44.401,-63.670,-249.906,-36.901,-5.942,-54.300,-37.558,-48.726,-0.015,0.891,-0.428,0.854,-0.854,0.519,73.333,34271.000,1.000
-41.632,-62.138,-253.769,-35.987,-6.201,-52.507,-36.153,-47.804,-0.015,0.891,-0.430,0.854,-0.824,0.610,73.333,34272.000,1.000
-37.789,-59.856,-255.588,-34.330,-6.377,-50.322,-34.756,-47.369,-0.014,0.891,-0.432,0.824,-0.671,0.488,73.333,34273.000,1.000
-33.772,-57.680,-256.212,-32.256,-6.478,-48.262,-33.357,-46.980,-0.014,0.893,-0.428,0.763,-0.702,0.488,73.333,34274.000,1.000
-30.467,-56.385,-256.726,-30.275,-6.473,-46.583,-32.069,-46.214,-0.013,0.894,-0.429,0.824,-0.671,0.549,73.333,34275.000,1.000
-28.561,-56.397,-258.446,-29.067,-6.408,-45.370,-31.068,-45.108,-0.011,0.895,-0.429,0.763,-0.671,0.580,73.333,34276.000,1.000
-28.144,-57.336,-261.947,-28.820,-6.362,-44.449,-30.409,-43.877,-0.014,0.891,-0.429,0.793,-0.641,0.549,73.333,34277.000,1.000
-28.865,-58.377,-267.235,-29.484,-6.450,-43.618,-30.081,-42.806,-0.016,0.891,-0.428,0.702,-0.488,0.519,73.333,34278.000,1.000
-30.139,-58.946,-273.702,-30.630,-6.755,-42.797,-30.142,-41.957,-0.015,0.894,-0.427,0.702,-0.519,0.519,73.333,34279.000,1.000
-31.537,-59.130,-280.337,-31.777,-7.230,-42.110,-30.786,-41.219,-0.014,0.895,-0.428,0.488,-0.488,0.580,73.333,34280.000,1.000
-32.948,-59.322,-286.418,-32.657,-7.724,-41.744,-32.052,-40.403,-0.015,0.895,-0.429,0.366,-0.549,0.519,73.333,34281.000,1.000
-34.297,-59.430,-291.177,-32.900,-8.040,-41.536,-33.560,-39.147,-0.014,0.894,-0.427,0.458,-0.549,0.427,73.333,34282.000,1.000
-35.602,-59.016,-294.413,-32.494,-8.049,-41.116,-34.746,-37.328,-0.015,0.895,-0.424,0.305,-0.702,0.519,73.333,34283.000,1.000
-36.826,-57.694,-296.301,-31.432,-7.656,-40.016,-35.069,-34.968,-0.018,0.894,-0.423,0.214,-0.702,0.397,73.333,34284.000,1.000
-38.047,-55.642,-297.251,-29.807,-6.856,-38.016,-34.452,-32.341,-0.018,0.896,-0.423,0.183,-0.732,0.397,73.333,34285.000,1.000
-39.532,-53.833,-298.323,-28.116,-5.839,-35.503,-33.512,-30.110,-0.018,0.895,-0.425,-0.031,-0.824,0.458,73.333,34286.000,1.000
-41.275,-53.289,-300.385,-26.815,-4.906,-33.133,-33.030,-28.863,-0.018,0.896,-0.425,-0.092,-1.007,0.519,73.333,34287.000,1.000
-43.013,-54.297,-303.982,-26.455,-4.377,-31.571,-33.425,-28.934,-0.018,0.895,-0.426,-0.305,-0.916,0.427,73.333,34288.000,1.000
-44.323,-55.990,-308.743,-27.120,-4.418,-31.045,-34.438,-30.042,-0.017,0.895,-0.427,-0.275,-1.068,0.305,73.333,34289.000,1.000
-45.041,-57.038,-313.576,-28.447,-4.943,-31.166,-35.365,-31.534,-0.019,0.895,-0.425,-0.488,-1.190,0.305,73.333,34290.000,1.000
-45.507,-56.801,-317.818,-30.026,-5.700,-31.241,-35.689,-32.907,-0.019,0.895,-0.426,-0.519,-1.282,0.458,73.333,34291.000,1.000
-46.174,-55.697,-321.067,-31.397,-6.380,-30.697,-35.512,-33.920,-0.017,0.896,-0.427,-0.610,-1.373,0.366,73.333,34292.000,1.000
-47.377,-54.922,-323.583,-32.619,-6.771,-29.596,-35.499,-34.840,-0.016,0.896,-0.424,-0.702,-1.434,0.397,73.333,34293.000,1.000
-48.890,-55.268,-325.820,-33.827,-6.809,-28.434,-36.194,-35.971,-0.017,0.894,-0.426,-0.671,-1.465,0.366,73.333,34294.000,1.000
-50.070,-56.456,-327.842,-35.005,-6.594,-27.748,-37.624,-37.278,-0.017,0.891,-0.423,-0.732,-1.648,0.427,73.333,34295.000,1.000
-50.343,-57.530,-329.458,-35.914,-6.306,-27.781,-39.316,-38.374,-0.019,0.893,-0.424,-0.824,-1.740,0.458,73.333,34296.000,1.000
-49.430,-57.438,-329.885,-35.917,-6.030,-28.207,-40.576,-38.686,-0.018,0.892,-0.426,-0.885,-1.801,0.458,73.333,34297.000,1.000
-47.827,-55.989,-328.818,-34.962,-5.779,-28.561,-40.965,-38.125,-0.016,0.894,-0.424,-0.824,-1.953,0.519,73.333,34298.000,1.000
-46.579,-54.060,-326.687,-33.587,-5.563,-28.519,-40.302,-37.049,-0.016,0.891,-0.421,-0.854,-2.014,0.549,73.333,34299.000,1.000
-46.660,-52.948,-324.472,-32.613,-5.453,-28.101,-38.808,-36.181,-0.017,0.892,-0.420,-0.854,-2.014,0.580,73.333,34300.000,1.000
-48.356,-53.417,-323.547,-32.692,-5.548,-27.731,-37.227,-36.316,-0.015,0.892,-0.423,-0.885,-2.014,0.671,73.333,34301.000,1.000
-50.977,-55.099,-324.304,-33.634,-5.846,-27.753,-36.303,-37.492,-0.013,0.892,-0.423,-0.793,-2.075,0.641,73.333,34302.000,1.000
-53.452,-57.026,-326.134,-34.901,-6.206,-28.179,-36.271,-38.940,-0.013,0.891,-0.420,-0.793,-2.136,0.580,73.333,34303.000,1.000
-54.831,-58.199,-327.645,-35.734,-6.430,-28.611,-36.820,-39.493,-0.017,0.890,-0.424,-0.702,-2.167,0.610,73.333,34304.000,1.000
-54.976,-58.257,-327.695,-35.886,-6.525,-28.825,-37.693,-38.696,-0.014,0.890,-0.423,-0.763,-2.075,0.580,73.333,34305.000,1.000
-54.542,-57.693,-326.527,-35.897,-6.708,-29.128,-38.850,-37.218,-0.012,0.890,-0.423,-0.702,-2.106,0.580,73.333,34306.000,1.000
-53.961,-56.967,-324.701,-35.988,-7.025,-29.607,-39.941,-35.761,-0.015,0.890,-0.425,-0.702,-2.106,0.488,73.333,34307.000,1.000
-53.351,-56.271,-322.948,-36.118,-7.304,-29.968,-40.465,-34.595,-0.015,0.889,-0.428,-0.641,-2.075,0.458,73.333,34308.000,1.000
-52.779,-55.768,-321.898,-36.048,-7.415,-29.982,-40.348,-33.640,-0.013,0.890,-0.426,-0.641,-2.014,0.641,73.333,34309.000,1.000
-52.438,-55.726,-321.818,-35.704,-7.403,-29.886,-40.202,-32.922,-0.011,0.890,-0.425,-0.427,-2.014,0.580,73.333,34310.000,1.000
-52.611,-56.377,-322.861,-35.453,-7.440,-30.319,-40.866,-32.748,-0.011,0.890,-0.424,-0.397,-1.984,0.580,73.333,34311.000,1.000
-53.410,-57.516,-324.511,-35.584,-7.726,-31.776,-42.747,-33.318,-0.009,0.891,-0.424,-0.275,-2.014,0.549,73.333,34312.000,1.000
-54.804,-58.616,-326.116,-36.210,-8.392,-34.228,-45.503,-34.606,-0.010,0.891,-0.423,-0.275,-1.862,0.580,73.333,34313.000,1.000
-56.380,-59.017,-326.916,-36.610,-9.272,-36.752,-47.878,-35.972,-0.009,0.891,-0.424,-0.275,-1.740,0.427,73.333,34314.000,1.000
-57.572,-58.496,-326.357,-35.830,-9.964,-38.051,-48.382,-36.598,-0.009,0.891,-0.425,-0.214,-1.678,0.427,73.333,34315.000,1.000
-58.133,-57.593,-324.955,-33.863,-10.226,-37.560,-46.387,-36.347,-0.009,0.894,-0.422,-0.214,-1.587,0.366,73.333,34316.000,1.000
-58.203,-56.992,-323.622,-31.570,-10.135,-35.782,-42.572,-35.798,-0.008,0.894,-0.426,-0.275,-1.617,0.397,73.333,34317.000,1.000
-58.306,-57.060,-323.396,-30.223,-9.943,-33.890,-38.519,-35.788,-0.008,0.894,-0.423,-0.244,-1.465,0.366,73.333,34318.000,1.000
-58.674,-57.566,-324.489,-30.139,-9.732,-32.620,-35.477,-36.366,-0.007,0.894,-0.425,-0.305,-1.312,0.275,73.333,34319.000,1.000
-59.041,-57.997,-326.186,-30.682,-9.358,-31.854,-33.681,-36.807,-0.008,0.893,-0.426,-0.244,-1.160,0.275,73.333,34320.000,1.000
-58.962,-57.997,-327.922,-31.172,-8.718,-31.098,-32.633,-36.361,-0.006,0.895,-0.422,-0.244,-1.099,0.275,73.333,34321.000,1.000
-57.965,-57.299,-329.167,-31.085,-7.913,-29.864,-31.768,-34.624,-0.008,0.895,-0.426,-0.305,-1.007,0.305,73.333,34322.000,1.000
-56.061,-56.074,-330.007,-30.638,-7.241,-28.170,-31.120,-32.159,-0.005,0.895,-0.424,-0.214,-0.854,0.122,73.333,34323.000,1.000
-53.754,-54.829,-330.793,-30.269,-6.975,-26.458,-31.047,-30.191,-0.007,0.894,-0.427,-0.244,-0.702,0.031,73.333,34324.000,1.000
-51.848,-53.960,-331.650,-30.246,-7.182,-25.157,-31.525,-29.737,-0.009,0.893,-0.431,-0.397,-0.732,-0.061,73.333,34325.000,1.000
-51.183,-53.603,-332.836,-30.689,-7.698,-24.456,-31.989,-30.919,-0.010,0.894,-0.428,-0.366,-0.580,-0.092,73.333,34326.000,1.000
-52.118,-53.618,-334.280,-31.350,-8.205,-24.298,-31.918,-32.833,-0.012,0.895,-0.427,-0.458,-0.549,-0.183,73.333,34327.000,1.000
-54.402,-53.887,-335.934,-32.090,-8.436,-24.699,-31.405,-34.367,-0.012,0.894,-0.426,-0.488,-0.519,-0.244,73.333,34328.000,1.000
-57.007,-54.216,-337.530,-32.599,-8.306,-25.520,-30.653,-34.579,-0.012,0.896,-0.424,-0.488,-0.366,-0.305,73.333,34329.000,1.000
-58.613,-54.350,-338.553,-32.595,-7.951,-26.331,-29.582,-33.018,-0.011,0.899,-0.424,-0.580,-0.275,-0.397,73.333,34330.000,1.000
-58.422,-54.129,-338.799,-32.127,-7.631,-26.631,-28.079,-29.982,-0.013,0.899,-0.424,-0.610,-0.214,-0.427,73.333,34331.000,1.000
-56.537,-53.456,-337.996,-31.229,-7.500,-25.921,-26.201,-26.313,-0.011,0.900,-0.426,-0.702,-0.305,-0.458,73.333,34332.000,1.000
-54.098,-52.555,-336.489,-30.343,-7.564,-24.092,-24.282,-23.365,-0.012,0.902,-0.427,-0.793,-0.153,-0.519,73.333,34333.000,1.000
-52.366,-51.604,-334.891,-29.820,-7.731,-21.461,-22.649,-22.160,-0.013,0.901,-0.423,-0.824,-0.092,-0.641,73.333,34334.000,1.000
-51.852,-50.430,-333.351,-29.585,-7.890,-18.572,-21.440,-22.638,-0.014,0.901,-0.424,-0.824,-0.092,-0.641,73.333,34335.000,1.000
-52.194,-48.860,-331.664,-29.188,-7.930,-15.899,-20.584,-23.620,-0.014,0.901,-0.422,-0.946,-0.275,-0.671,73.333,34336.000,1.000
-52.422,-46.768,-328.905,-27.705,-7.694,-13.401,-19.682,-23.373,-0.015,0.902,-0.425,-1.068,-0.305,-0.549,73.333,34337.000,1.000
-51.799,-44.123,-324.388,-24.717,-7.102,-10.761,-18.130,-20.984,-0.015,0.905,-0.426,-1.190,-0.214,-0.610,73.333,34338.000,1.000
-50.160,-40.923,-318.038,-20.548,-6.270,-7.827,-15.561,-16.862,-0.016,0.905,-0.424,-1.221,-0.183,-0.610,73.333,34339.000,1.000
-48.051,-37.490,-310.523,-16.395,-5.562,-5.060,-12.521,-12.519,-0.017,0.905,-0.423,-1.312,-0.183,-0.519,73.333,34340.000,1.000
-46.505,-34.734,-303.342,-13.800,-5.392,-3.312,-10.165,-9.609,-0.018,0.904,-0.422,-1.495,-0.122,-0.580,73.333,34341.000,1.000
-46.196,-33.516,-297.429,-13.213,-5.864,-2.858,-9.058,-8.590,-0.018,0.905,-0.422,-1.617,-0.183,-0.488,73.333,34342.000,1.000
-47.149,-34.027,-293.014,-14.103,-6.756,-3.296,-8.930,-8.851,-0.018,0.905,-0.424,-1.556,-0.305,-0.366,73.333,34343.000,1.000
-48.712,-35.377,-289.511,-15.325,-7.742,-3.908,-9.356,-9.408,-0.017,0.905,-0.426,-1.770,-0.183,-0.275,73.333,34344.000,1.000
-50.107,-36.174,-285.885,-15.883,-8.572,-4.138,-10.411,-9.680,-0.019,0.904,-0.424,-1.801,-0.305,-0.275,73.333,34345.000,1.000
-51.026,-35.680,-281.738,-15.453,-9.040,-3.934,-12.373,-9.709,-0.019,0.905,-0.424,-1.770,-0.366,-0.061,73.333,34346.000,1.000
-51.616,-34.231,-277.195,-14.244,-8.951,-3.662,-15.067,-9.760,-0.017,0.903,-0.423,-1.984,-0.458,0.031,73.333,34347.000,1.000
-52.335,-33.003,-273.220,-13.369,-8.368,-3.997,-17.990,-10.360,-0.020,0.901,-0.420,-1.953,-0.366,0.153,73.333,34348.000,1.000
-53.245,-32.844,-270.593,-13.781,-7.609,-5.239,-20.457,-11.720,-0.018,0.897,-0.417,-2.014,-0.366,0.153,73.333,34349.000,1.000
-53.996,-33.665,-269.085,-15.474,-6.953,-7.023,-21.855,-13.432,-0.019,0.896,-0.418,-1.923,-0.458,0.153,73.333,34350.000,1.000
-54.419,-35.021,-268.238,-17.711,-6.492,-8.905,-22.056,-14.897,-0.021,0.894,-0.417,-1.984,-0.519,0.275,73.333,34351.000,1.000
-54.559,-36.497,-267.490,-19.398,-6.213,-10.562,-21.360,-15.582,-0.021,0.892,-0.417,-2.075,-0.641,0.275,73.333,34352.000,1.000
-54.545,-37.818,-266.801,-20.095,-6.148,-11.664,-20.019,-15.293,-0.019,0.891,-0.417,-1.831,-0.732,0.427,73.333,34353.000,1.000
-54.294,-38.704,-266.414,-19.816,-6.303,-11.714,-17.900,-13.909,-0.016,0.894,-0.419,-1.740,-0.732,0.488,73.333,34354.000,1.000
-53.724,-39.026,-266.667,-18.882,-6.593,-10.512,-15.100,-11.538,-0.015,0.896,-0.419,-1.587,-0.793,0.610,73.333,34355.000,1.000
-52.925,-38.830,-268.112,-17.901,-6.863,-8.442,-12.409,-8.809,-0.015,0.895,-0.414,-1.495,-0.824,0.580,73.333,34356.000,1.000
-51.940,-38.012,-270.493,-17.187,-6.908,-6.025,-10.814,-6.523,-0.015,0.896,-0.414,-1.495,-0.916,0.610,73.333,34357.000,1.000
-51.039,-36.869,-273.265,-17.008,-6.622,-3.917,-11.057,-5.516,-0.013,0.893,-0.413,-1.526,-0.946,0.763,73.333,34358.000,1.000
-50.448,-36.225,-275.951,-17.175,-6.084,-2.737,-13.156,-6.126,-0.012,0.889,-0.413,-1.495,-0.824,0.732,73.333,34359.000,1.000
-49.982,-36.706,-278.155,-17.095,-5.499,-2.571,-16.081,-7.954,-0.010,0.887,-0.416,-1.434,-0.763,0.824,73.333,34360.000,1.000
-49.061,-37.988,-279.692,-16.191,-5.009,-2.719,-18.162,-10.011,-0.010,0.885,-0.418,-1.373,-0.732,0.916,73.333,34361.000,1.000
-47.008,-38.735,-280.007,-14.034,-4.566,-1.974,-18.189,-11.126,-0.010,0.885,-0.418,-1.129,-0.732,0.977,73.333,34362.000,1.000
-43.967,-37.991,-279.336,-11.229,-4.127,0.223,-16.397,-11.032,-0.009,0.886,-0.417,-0.916,-0.732,1.038,73.333,34363.000,1.000
-40.995,-36.179,-278.981,-8.979,-3.752,3.267,-14.164,-10.392,-0.010,0.890,-0.418,-0.732,-0.702,1.099,73.333,34364.000,1.000
-39.428,-34.724,-280.450,-8.350,-3.530,5.860,-12.947,-10.131,-0.009,0.888,-0.416,-0.671,-0.671,1.068,73.333,34365.000,1.000
-40.013,-34.896,-284.762,-9.734,-3.549,6.943,-13.234,-10.729,-0.010,0.892,-0.417,-0.427,-0.641,1.099,73.333,34366.000,1.000
-42.265,-36.789,-291.360,-12.348,-3.845,6.462,-14.279,-11.704,-0.008,0.892,-0.417,-0.336,-0.610,1.038,73.333,34367.000,1.000
-44.970,-39.528,-298.877,-15.081,-4.371,5.058,-15.007,-12.235,-0.008,0.893,-0.416,-0.336,-0.671,1.007,73.333,34368.000,1.000
-46.806,-41.803,-305.782,-16.862,-4.938,3.619,-14.806,-11.648,-0.011,0.895,-0.416,-0.275,-0.671,0.916,73.333,34369.000,1.000
-47.030,-42.571,-310.965,-17.227,-5.296,2.854,-13.747,-9.833,-0.012,0.895,-0.415,-0.092,-0.702,0.885,73.333,34370.000,1.000
-45.788,-41.608,-314.382,-16.613,-5.316,2.977,-12.324,-7.329,-0.012,0.895,-0.415,0.000,-0.763,0.702,73.333,34371.000,1.000
-43.703,-39.270,-316.174,-15.618,-5.040,3.751,-11.073,-4.771,-0.014,0.894,-0.415,0.153,-0.916,0.519,73.333,34372.000,1.000
-41.654,-36.270,-316.770,-14.886,-4.622,4.491,-10.446,-2.593,-0.014,0.896,-0.417,0.183,-1.038,0.427,73.333,34373.000,1.000
-40.267,-33.192,-316.553,-14.518,-4.146,4.668,-10.435,-0.630,-0.015,0.896,-0.416,0.153,-1.038,0.336,73.333,34374.000,1.000
-39.815,-30.357,-315.722,-14.300,-3.602,4.277,-10.615,1.391,-0.013,0.897,-0.419,0.244,-1.190,0.183,73.333,34375.000,1.000
-40.452,-28.274,-314.932,-14.308,-3.033,3.487,-10.700,3.029,-0.014,0.899,-0.419,0.275,-1.343,0.031,73.333,34376.000,1.000
-42.048,-27.622,-314.775,-14.674,-2.585,2.397,-10.723,3.358,-0.014,0.896,-0.418,0.305,-1.343,-0.061,73.333,34377.000,1.000
-44.271,-28.998,-315.883,-15.739,-2.505,0.776,-10.878,1.497,-0.015,0.896,-0.419,0.458,-1.343,-0.092,73.333,34378.000,1.000
-46.506,-32.311,-318.301,-17.478,-2.903,-1.704,-11.138,-2.566,-0.010,0.895,-0.419,0.580,-1.404,-0.153,73.333,34379.000,1.000
-48.126,-36.696,-321.283,-19.558,-3.542,-5.190,-11.292,-8.109,-0.009,0.895,-0.419,0.610,-1.434,-0.061,73.333,34380.000,1.000
-48.850,-41.062,-324.203,-21.769,-3.965,-9.707,-11.268,-14.484,-0.009,0.894,-0.419,0.702,-1.465,0.000,73.333,34381.000,1.000
-48.581,-44.347,-326.445,-23.725,-3.836,-15.112,-11.181,-21.327,-0.011,0.894,-0.421,0.854,-1.434,0.153,73.333,34382.000,1.000
-47.370,-45.808,-327.847,-25.163,-3.203,-21.134,-11.160,-28.558,-0.010,0.896,-0.422,1.007,-1.373,0.122,73.333,34383.000,1.000
-45.250,-45.045,-328.380,-25.782,-2.400,-27.267,-11.007,-35.901,-0.010,0.896,-0.419,1.068,-1.373,0.153,73.333,34384.000,1.000
-42.395,-42.176,-327.969,-25.605,-1.828,-33.080,-10.313,-42.837,-0.012,0.897,-0.421,1.129,-1.373,0.275,73.333,34385.000,1.000
-39.224,-38.052,-326.940,-25.152,-1.753,-38.548,-8.833,-48.735,-0.015,0.897,-0.418,1.099,-1.465,0.305,73.333,34386.000,1.000
-36.170,-34.013,-325.516,-24.816,-2.174,-43.791,-6.809,-52.943,-0.016,0.899,-0.418,1.129,-1.465,0.427,73.333,34387.000,1.000
-33.800,-31.581,-324.411,-25.080,-2.918,-48.960,-5.098,-55.520,-0.015,0.900,-0.418,1.312,-1.556,0.336,73.333,34388.000,1.000
-32.402,-31.481,-324.494,-26.069,-3.757,-53.933,-4.460,-57.083,-0.017,0.898,-0.418,1.312,-1.556,0.336,73.333,34389.000,1.000
-31.817,-33.035,-326.077,-27.540,-4.516,-58.249,-4.970,-58.239,-0.019,0.897,-0.418,1.404,-1.678,0.244,73.333,34390.000,1.000
-31.752,-34.694,-329.039,-29.185,-5.127,-61.363,-6.057,-59.240,-0.015,0.897,-0.418,1.343,-1.770,0.244,73.333,34391.000,1.000
-31.898,-34.977,-332.537,-30.478,-5.544,-62.791,-6.935,-59.905,-0.017,0.898,-0.419,1.373,-1.801,0.183,73.333,34392.000,1.000
-32.134,-33.496,-335.906,-31.327,-5.722,-62.585,-7.321,-60.248,-0.017,0.898,-0.423,1.251,-1.892,0.183,73.333,34393.000,1.000
-32.314,-30.937,-338.709,-31.908,-5.605,-61.308,-7.495,-60.458,-0.016,0.897,-0.422,1.251,-1.892,0.214,73.333,34394.000,1.000
-32.305,-28.461,-340.743,-32.570,-5.211,-59.682,-7.857,-60.658,-0.016,0.896,-0.423,1.190,-1.862,0.031,73.333,34395.000,1.000
-32.128,-27.104,-342.618,-33.632,-4.665,-58.254,-8.426,-60.679,-0.016,0.894,-0.420,1.251,-1.831,0.183,73.333,34396.000,1.000
-31.795,-27.171,-344.920,-34.783,-4.080,-57.110,-8.749,-59.890,-0.017,0.895,-0.415,1.251,-1.923,0.153,73.333,34397.000,1.000
-31.527,-28.408,-348.067,-35.775,-3.578,-56.284,-8.600,-57.993,-0.015,0.894,-0.416,1.282,-1.892,0.122,73.333,34398.000,1.000
-31.538,-30.203,-351.777,-36.389,-3.279,-55.805,-8.271,-55.212,-0.014,0.894,-0.418,1.343,-1.984,0.092,73.333,34399.000,1.000
-31.692,-31.810,-355.009,-36.291,-3.186,-55.429,-8.144,-51.919,-0.012,0.892,-0.420,1.343,-1.984,0.214,73.333,34400.000,1.000
-31.427,-32.651,-356.971,-35.273,-3.192,-54.779,-8.242,-48.419,-0.012,0.892,-0.420,1.526,-1.953,0.214,73.333,34401.000,1.000
-30.038,-32.423,-357.231,-33.322,-3.215,-53.649,-8.284,-44.922,-0.013,0.892,-0.421,1.526,-1.862,0.305,73.333,34402.000,1.000
-27.476,-31.462,-356.276,-31.064,-3.317,-52.174,-8.064,-41.820,-0.013,0.889,-0.422,1.526,-1.831,0.366,73.333,34403.000,1.000
-24.225,-30.414,-354.832,-29.028,-3.530,-50.382,-7.509,-39.343,-0.014,0.889,-0.422,1.587,-1.770,0.427,73.333,34404.000,1.000
-20.885,-29.659,-353.333,-27.450,-3.799,-48.096,-6.789,-37.598,-0.015,0.889,-0.424,1.648,-1.740,0.580,73.333,34405.000,1.000
-17.887,-29.117,-352.317,-26.509,-4.138,-45.200,-6.255,-36.664,-0.012,0.891,-0.427,1.709,-1.526,0.397,73.333,34406.000,1.000
-15.194,-28.163,-351.783,-25.910,-4.559,-41.523,-6.014,-36.136,-0.012,0.892,-0.427,1.740,-1.526,0.641,73.333,34407.000,1.000
-12.683,-26.216,-351.599,-25.295,-4.977,-37.084,-5.869,-35.388,-0.013,0.893,-0.426,1.678,-1.556,0.702,73.333,34408.000,1.000
-10.281,-23.185,-351.485,-24.187,-5.246,-32.172,-5.464,-33.823,-0.014,0.892,-0.423,1.648,-1.434,0.732,73.333,34409.000,1.000
-7.955,-19.593,-350.967,-22.313,-5.330,-27.249,-4.720,-31.273,-0.012,0.893,-0.422,1.678,-1.404,0.824,73.333,34410.000,1.000
-5.684,-16.353,-349.973,-19.913,-5.324,-22.812,-4.066,-28.293,-0.013,0.896,-0.427,1.587,-1.373,0.885,73.333,34411.000,1.000
-3.376,-14.155,-348.612,-17.341,-5.338,-19.218,-4.065,-25.799,-0.010,0.895,-0.429,1.465,-1.282,1.007,73.333,34412.000,1.000
-1.153,-13.329,-347.641,-15.234,-5.473,-16.793,-4.935,-24.649,-0.012,0.897,-0.429,1.465,-1.099,1.007,73.333,34413.000,1.000
1.047,-13.500,-347.549,-13.778,-5.708,-15.379,-6.157,-24.798,-0.012,0.901,-0.429,1.434,-1.038,1.129,73.333,34414.000,1.000
3.612,-13.588,-347.758,-12.502,-5.844,-14.194,-6.846,-25.401,-0.011,0.902,-0.425,1.282,-0.977,1.099,73.333,34415.000,1.000
6.774,-12.627,-347.616,-10.807,-5.701,-12.584,-6.459,-25.694,-0.010,0.902,-0.427,1.129,-0.916,1.068,73.333,34416.000,1.000
10.386,-10.433,-346.998,-8.209,-5.303,-10.493,-5.028,-25.331,-0.010,0.903,-0.427,0.916,-0.824,1.190,73.333,34417.000,1.000
13.845,-7.722,-347.043,-5.000,-4.894,-8.436,-3.121,-24.564,-0.010,0.904,-0.430,0.732,-0.793,1.129,73.333,34418.000,1.000
16.585,-5.352,-349.083,-1.753,-4.688,-7.002,-1.471,-23.792,-0.011,0.905,-0.432,0.549,-0.732,1.190,73.333,34419.000,1.000
18.258,-3.932,-353.516,0.870,-4.748,-6.703,-0.673,-23.400,-0.013,0.907,-0.430,0.458,-0.702,1.190,73.333,34420.000,1.000
18.719,-3.857,-360.198,2.094,-5.051,-7.872,-0.835,-23.706,-0.014,0.904,-0.425,0.061,-0.763,1.099,73.333,34421.000,1.000
18.355,-4.905,-368.183,1.717,-5.443,-10.201,-1.434,-24.536,-0.013,0.904,-0.422,-0.122,-0.641,1.038,73.333,34422.000,1.000
17.923,-6.333,-376.199,0.017,-5.658,-12.895,-1.917,-25.528,-0.011,0.904,-0.429,-0.305,-0.641,1.038,73.333,34423.000,1.000
18.349,-7.209,-382.715,-2.020,-5.429,-15.016,-2.090,-26.291,-0.008,0.906,-0.430,-0.519,-0.580,1.099,73.333,34424.000,1.000
20.156,-6.974,-386.627,-3.312,-4.704,-15.943,-2.088,-26.700,-0.007,0.907,-0.429,-0.793,-0.702,1.007,73.333,34425.000,1.000
23.003,-5.821,-388.536,-3.581,-3.753,-15.681,-2.116,-27.109,-0.004,0.909,-0.428,-0.946,-0.549,1.129,73.333,34426.000,1.000
26.102,-4.208,-389.987,-3.026,-2.966,-14.541,-2.192,-27.850,-0.003,0.909,-0.428,-1.129,-0.519,1.190,73.333,34427.000,1.000
28.752,-2.515,-392.583,-2.022,-2.580,-12.980,-2.220,-28.904,-0.004,0.909,-0.431,-1.404,-0.366,1.221,73.333,34428.000,1.000
30.858,-0.903,-396.632,-0.434,-2.542,-11.403,-2.120,-29.621,-0.006,0.908,-0.429,-1.740,-0.244,1.251,73.333,34429.000,1.000
32.633,0.441,-401.164,1.845,-2.645,-10.155,-2.076,-29.310,-0.002,0.906,-0.429,-1.831,-0.214,1.312,73.333,34430.000,1.000
34.064,1.052,-405.692,4.116,-2.790,-9.518,-2.465,-27.982,-0.002,0.903,-0.426,-2.045,-0.031,1.343,73.333,34431.000,1.000
35.069,0.641,-410.420,5.532,-3.029,-9.415,-3.353,-26.197,-0.002,0.903,-0.422,-2.136,0.061,1.434,73.333,34432.000,1.000
35.736,-0.517,-415.820,5.692,-3.417,-9.438,-4.358,-24.685,-0.005,0.901,-0.423,-2.228,0.122,1.312,73.333,34433.000,1.000
36.769,-1.363,-421.136,5.531,-3.797,-8.843,-4.770,-23.490,-0.008,0.901,-0.422,-2.350,0.061,1.221,73.333,34434.000,1.000
39.020,-0.763,-424.521,6.561,-3.904,-7.027,-4.059,-22.069,-0.009,0.899,-0.422,-2.502,0.153,1.160,73.333,34435.000,1.000
42.531,1.426,-425.289,9.247,-3.624,-4.251,-2.448,-20.156,-0.010,0.897,-0.420,-2.625,0.092,1.007,73.333,34436.000,1.000
46.557,4.476,-424.206,12.972,-3.030,-1.393,-0.833,-17.853,-0.011,0.897,-0.420,-2.747,0.031,0.793,73.333,34437.000,1.000
50.171,7.481,-422.927,16.615,-2.329,0.651,-0.099,-15.390,-0.009,0.894,-0.418,-2.838,-0.092,0.458,73.333,34438.000,1.000
53.052,10.056,-422.666,19.748,-1.785,1.558,-0.339,-12.711,-0.008,0.892,-0.418,-2.869,-0.214,0.305,73.333,34439.000,1.000
55.355,12.218,-423.805,22.512,-1.629,1.555,-0.974,-9.804,-0.005,0.891,-0.418,-2.747,-0.153,0.031,73.333,34440.000,1.000
57.318,14.018,-426.507,24.972,-1.888,1.107,-1.318,-6.993,-0.004,0.893,-0.420,-2.655,-0.214,0.000,73.333,34441.000,1.000
59.425,15.763,-430.091,27.406,-2.271,0.841,-0.930,-4.444,-0.005,0.894,-0.418,-2.655,-0.214,-0.092,73.333,34442.000,1.000
62.112,17.776,-433.465,30.006,-2.427,1.210,0.120,-2.179,-0.001,0.894,-0.416,-2.502,-0.214,-0.122,73.333,34443.000,1.000
65.469,20.145,-435.563,32.938,-2.251,2.387,1.423,-0.128,-0.004,0.895,-0.416,-2.502,-0.183,-0.153,73.333,34444.000,1.000
68.948,22.515,-435.966,35.927,-1.914,4.079,2.360,1.447,-0.002,0.893,-0.417,-2.441,-0.153,-0.336,73.333,34445.000,1.000
71.537,24.154,-435.590,38.135,-1.631,5.516,2.310,1.825,-0.002,0.895,-0.417,-2.441,-0.122,-0.458,73.333,34446.000,1.000
72.606,24.645,-435.634,39.083,-1.438,6.151,1.073,0.574,-0.001,0.895,-0.414,-2.289,0.000,-0.488,73.333,34447.000,1.000
72.239,24.176,-437.142,38.661,-1.298,6.052,-1.001,-2.101,-0.004,0.895,-0.412,-2.380,0.061,-0.519,73.333,34448.000,1.000
71.236,23.541,-440.284,37.304,-1.191,5.860,-3.058,-5.209,-0.005,0.896,-0.416,-2.380,0.061,-0.458,73.333,34449.000,1.000
70.501,23.553,-444.236,35.640,-1.094,6.246,-4.217,-7.483,-0.008,0.896,-0.415,-2.319,0.031,-0.549,73.333,34450.000,1.000
70.483,24.405,-448.052,34.099,-0.951,7.469,-4.013,-8.058,-0.007,0.896,-0.412,-2.289,0.000,-0.702,73.333,34451.000,1.000
71.268,25.860,-450.639,33.145,-0.708,9.429,-2.469,-6.719,-0.008,0.897,-0.410,-2.258,-0.092,-0.671,73.333,34452.000,1.000
72.445,27.338,-451.805,32.648,-0.414,11.483,-0.232,-4.443,-0.008,0.896,-0.407,-2.289,-0.031,-0.641,73.333,34453.000,1.000
73.349,28.254,-452.309,32.119,-0.125,12.719,1.688,-2.876,-0.009,0.896,-0.410,-2.167,-0.092,-0.763,73.333,34454.000,1.000
73.357,28.364,-453.084,31.013,0.141,12.422,2.342,-3.270,-0.010,0.895,-0.410,-2.014,-0.122,-0.824,73.333,34455.000,1.000
72.199,27.785,-454.844,28.946,0.338,10.299,1.190,-5.734,-0.013,0.894,-0.413,-1.923,-0.122,-0.977,73.333,34456.000,1.000
70.255,26.917,-457.257,26.199,0.475,6.625,-1.669,-9.145,-0.011,0.891,-0.407,-1.801,-0.244,-0.946,73.333,34457.000,1.000
68.006,25.825,-459.786,23.145,0.582,1.966,-5.510,-12.183,-0.011,0.891,-0.408,-1.556,-0.244,-0.946,73.333,34458.000,1.000
65.710,24.125,-462.198,20.199,0.604,-2.873,-9.122,-14.071,-0.012,0.892,-0.412,-1.373,-0.397,-1.068,73.333,34459.000,1.000
63.363,21.460,-464.632,17.548,0.355,-7.090,-11.518,-14.970,-0.013,0.889,-0.408,-1.312,-0.519,-1.129,73.333,34460.000,1.000
60.959,18.030,-467.592,15.100,-0.333,-10.254,-12.438,-15.613,-0.015,0.889,-0.409,-1.129,-0.580,-1.160,73.333,34461.000,1.000
58.758,14.659,-470.854,13.108,-1.391,-12.212,-12.165,-16.346,-0.014,0.890,-0.411,-0.885,-0.580,-1.160,73.333,34462.000,1.000
56.768,11.865,-474.077,11.635,-2.557,-13.195,-11.379,-17.224,-0.014,0.888,-0.410,-0.610,-0.732,-1.160,73.333,34463.000,1.000
54.764,9.567,-477.220,10.550,-3.512,-13.630,-10.775,-18.115,-0.014,0.886,-0.411,-0.427,-0.732,-1.221,73.333,34464.000,1.000
52.579,7.525,-480.460,9.653,-4.096,-13.853,-10.687,-18.814,-0.014,0.888,-0.413,-0.153,-0.702,-1.129,73.333,34465.000,1.000
50.285,5.720,-484.067,8.919,-4.398,-13.946,-10.988,-19.063,-0.011,0.889,-0.413,0.061,-0.793,-1.129,73.333,34466.000,1.000
48.386,4.622,-487.378,8.971,-4.528,-13.571,-11.167,-18.296,-0.014,0.890,-0.414,0.397,-0.885,-1.068,73.333,34467.000,1.000
47.415,4.708,-489.617,10.172,-4.515,-12.373,-10.715,-16.155,-0.015,0.889,-0.414,0.580,-0.977,-1.099,73.333,34468.000,1.000
47.568,5.919,-490.840,12.219,-4.407,-10.345,-9.467,-12.960,-0.013,0.888,-0.414,0.793,-1.099,-1.068,73.333,34469.000,1.000
48.293,7.385,-492.083,14.066,-4.400,-8.047,-7.906,-9.917,-0.014,0.891,-0.417,0.977,-1.221,-1.007,73.333,34470.000,1.000
48.524,7.930,-494.681,14.527,-4.720,-6.305,-6.852,-8.425,-0.015,0.891,-0.416,1.099,-1.251,-0.977,73.333,34471.000,1.000
47.505,7.071,-498.575,13.355,-5.394,-5.501,-6.751,-8.838,-0.017,0.890,-0.421,1.526,-1.221,-0.824,73.333,34472.000,1.000
44.766,4.813,-502.957,10.688,-6.246,-5.774,-7.657,-10.587,-0.017,0.891,-0.417,1.770,-1.221,-0.763,73.333,34473.000,1.000
40.195,1.301,-507.032,6.923,-6.941,-7.223,-9.398,-12.689,-0.016,0.893,-0.420,1.923,-1.282,-0.763,73.333,34474.000,1.000
34.259,-3.159,-510.332,2.607,-7.158,-9.820,-11.838,-14.491,-0.019,0.894,-0.420,2.075,-1.404,-0.610,73.333,34475.000,1.000
27.962,-8.074,-513.020,-1.692,-6.860,-13.404,-15.064,-16.122,-0.019,0.894,-0.419,2.350,-1.556,-0.641,73.333,34476.000,1.000
22.586,-12.726,-514.880,-5.001,-6.292,-17.569,-19.085,-17.902,-0.018,0.895,-0.421,2.472,-1.617,-0.488,73.333,34477.000,1.000
18.861,-16.678,-515.747,-6.649,-5.815,-21.854,-23.483,-19.923,-0.019,0.894,-0.425,2.533,-1.709,-0.458,73.333,34478.000,1.000
16.783,-19.822,-515.842,-6.491,-5.678,-25.735,-27.351,-21.760,-0.020,0.895,-0.419,2.686,-1.770,-0.427,73.333,34479.000,1.000
15.880,-22.109,-515.523,-5.003,-5.897,-28.705,-29.864,-22.732,-0.019,0.897,-0.418,2.808,-1.801,-0.366,73.333,34480.000,1.000
15.484,-23.594,-515.044,-3.124,-6.315,-30.493,-30.811,-22.373,-0.018,0.896,-0.421,2.777,-1.953,-0.336,73.333,34481.000,1.000
15.063,-24.446,-513.858,-1.588,-6.720,-30.981,-30.558,-20.623,-0.019,0.896,-0.418,2.899,-1.953,-0.214,73.333,34482.000,1.000
14.225,-25.102,-511.673,-1.161,-7.028,-30.279,-29.837,-18.135,-0.018,0.898,-0.421,2.869,-2.045,-0.214,73.333,34483.000,1.000
12.902,-25.964,-508.793,-2.161,-7.251,-28.661,-29.257,-15.645,-0.018,0.901,-0.421,2.869,-2.167,0.000,73.333,34484.000,1.000
11.168,-27.186,-505.632,-4.269,-7.366,-26.549,-29.059,-13.442,-0.020,0.901,-0.420,2.899,-2.167,0.031,73.333,34485.000,1.000
8.969,-28.843,-502.553,-6.877,-7.326,-24.498,-29.279,-11.586,-0.019,0.900,-0.422,2.899,-2.228,0.122,73.333,34486.000,1.000
6.221,-30.950,-499.161,-9.241,-7.189,-22.882,-29.812,-10.253,-0.016,0.902,-0.426,2.747,-2.258,0.061,73.333,34487.000,1.000
2.806,-33.436,-495.044,-11.142,-7.161,-21.876,-30.455,-10.041,-0.017,0.903,-0.427,2.625,-2.289,0.122,73.333,34488.000,1.000
-0.818,-35.531,-489.879,-12.371,-7.368,-21.219,-30.873,-11.177,-0.018,0.903,-0.424,2.502,-2.472,0.031,73.333,34489.000,1.000
-3.514,-35.794,-483.120,-12.485,-7.678,-20.267,-30.781,-12.949,-0.017,0.903,-0.427,2.411,-2.472,0.153,73.333,34490.000,1.000
-4.316,-33.290,-474.466,-11.224,-7.791,-18.448,-30.092,-14.193,-0.018,0.903,-0.428,2.289,-2.502,0.336,73.333,34491.000,1.000
-3.261,-28.406,-463.921,-8.701,-7.460,-15.640,-29.083,-14.216,-0.017,0.906,-0.430,2.075,-2.441,0.336,73.333,34492.000,1.000
-1.806,-22.937,-452.833,-6.173,-6.768,-12.699,-28.736,-13.695,-0.015,0.905,-0.428,2.045,-2.380,0.305,73.333,34493.000,1.000
-1.885,-19.093,-443.314,-5.331,-6.077,-11.088,-30.300,-14.075,-0.012,0.906,-0.427,1.984,-2.289,0.397,73.333,34494.000,1.000
-4.698,-18.431,-436.785,-7.248,-5.768,-11.888,-34.358,-16.525,-0.012,0.907,-0.428,1.648,-2.289,0.458,73.333,34495.000,1.000
-10.115,-21.314,-433.587,-11.805,-6.032,-15.125,-40.285,-21.216,-0.014,0.907,-0.428,1.343,-2.350,0.519,73.333,34496.000,1.000
-16.773,-26.544,-432.604,-17.514,-6.745,-19.662,-46.483,-26.937,-0.013,0.908,-0.432,1.190,-2.350,0.610,73.333,34497.000,1.000
-23.305,-32.222,-432.442,-22.941,-7.571,-24.036,-51.365,-31.925,-0.012,0.906,-0.429,0.946,-2.228,0.671,73.333,34498.000,1.000
