EEG 1,EEG 2,EEG 3,EEG 4,EEG 5,EEG 6,EEG 7,EEG 8,Accelerometer X,Accelerometer Y,Accelerometer Z,Gyroscope X,Gyroscope Y,Gyroscope Z,Battery Level,Counter,Validation Indicator
4633.207,3187.430,-2816.332,-9192.762,5026.288,5063.210,-2739.019,5076.240,-0.035,0.971,-0.078,0.000,0.000,0.000,80.000,1.000,1.000
30678.509,21294.546,-11706.641,-59398.722,36478.564,36620.609,-16220.678,35129.542,-0.041,0.985,-0.092,0.000,0.000,0.000,80.000,2.000,1.000
96555.617,66591.199,-37141.690,-196526.512,122325.522,122780.419,-52997.414,112263.313,-0.043,0.991,-0.097,0.000,0.000,0.000,80.000,3.000,1.000
198577.714,136459.485,-79983.573,-419376.048,266579.465,267828.671,-114151.572,230411.799,-0.044,0.994,-0.097,0.000,0.000,0.000,80.000,4.000,1.000
312692.928,216334.732,-124119.164,-642408.554,436997.092,439872.700,-182416.851,351426.465,-0.042,0.996,-0.099,0.000,0.000,0.000,80.000,5.000,1.000
416834.612,295871.205,-142980.734,-735943.608,586665.860,591357.351,-228874.178,434920.017,-0.042,0.997,-0.098,-2.319,0.275,2.899,80.000,6.000,1.000
499413.830,373196.446,-116380.619,-618038.399,679480.715,684548.025,-226178.205,465390.654,-0.039,0.995,-0.098,-3.784,-0.031,4.181,80.000,7.000,1.000
555666.627,447951.440,-42698.016,-313550.766,703598.715,707080.777,-160579.653,459197.066,-0.039,0.990,-0.098,-1.801,-0.427,2.075,80.000,8.000,1.000
587801.819,516873.880,60928.413,64001.449,674756.306,675849.345,-34886.873,451370.719,-0.042,0.991,-0.101,-1.190,-0.671,1.343,80.000,9.000,1.000
604407.338,574541.414,167856.376,378560.982,627109.586,626334.383,134870.439,471162.428,-0.040,0.988,-0.101,-1.068,-0.610,1.160,80.000,10.000,1.000
611742.128,613579.005,255724.607,542942.082,592299.826,589959.019,320700.934,522003.206,-0.041,0.988,-0.099,-1.038,-0.671,1.038,80.000,11.000,1.000
605147.900,623939.951,316916.729,559209.327,581359.599,573216.486,488091.806,576647.571,-0.041,0.988,-0.099,-1.007,-0.610,1.160,80.000,12.000,1.000
572959.670,597041.614,357465.731,500489.087,585112.209,556987.407,609386.317,593964.263,-0.042,0.983,-0.100,-1.038,-0.580,1.282,80.000,13.000,1.000
510041.631,533795.794,386700.689,448267.603,590090.464,517704.607,672830.929,549747.046,-0.040,0.983,-0.100,-1.007,-0.580,1.251,80.000,14.000,1.000
424356.427,446470.634,408578.696,437562.300,591565.086,448160.338,680854.630,453947.277,-0.041,0.982,-0.100,-1.038,-0.610,1.282,80.000,15.000,1.000
330108.007,350962.948,421379.652,452725.841,592023.932,359026.406,644324.220,338517.988,-0.042,0.981,-0.100,-0.946,-0.702,1.434,80.000,16.000,1.000
239346.116,259429.058,423392.888,465968.717,592264.017,266957.090,579048.842,232821.505,-0.045,0.979,-0.098,-0.793,-0.732,1.434,80.000,17.000,1.000
161472.495,180771.964,417506.569,470424.647,588846.130,185580.598,503024.593,151343.501,-0.044,0.978,-0.101,-0.671,-0.671,1.343,80.000,18.000,1.000
105211.696,123273.899,409851.435,475838.330,579963.388,124275.210,430736.235,97692.765,-0.043,0.977,-0.100,-0.549,-0.824,1.495,80.000,19.000,1.000
75298.069,91694.329,404697.194,484812.239,569676.602,88217.228,368510.330,71223.170,-0.044,0.977,-0.102,-0.488,-0.854,1.343,80.000,20.000,1.000
67194.270,81986.786,401855.894,486391.451,563817.342,75767.505,317248.257,66927.751,-0.045,0.975,-0.099,-0.305,-0.793,1.404,80.000,21.000,1.000
68611.589,82370.693,399095.555,473111.277,563132.740,77428.937,278374.209,73516.869,-0.043,0.974,-0.099,-0.214,-0.885,1.404,80.000,22.000,1.000
68284.586,81643.356,395780.413,454209.988,562889.430,80777.784,253876.384,77708.268,-0.043,0.974,-0.098,-0.153,-0.885,1.343,80.000,23.000,1.000
62903.959,76142.145,393195.249,445557.649,559080.798,78201.684,241108.917,72707.921,-0.043,0.975,-0.098,-0.092,-0.977,1.465,80.000,24.000,1.000
55460.098,68529.509,391997.760,450429.905,552860.537,70007.851,231632.193,61440.044,-0.042,0.974,-0.100,-0.031,-0.946,1.495,80.000,25.000,1.000
48699.249,61529.161,390855.996,456902.383,547818.716,60486.421,217690.683,50788.190,-0.040,0.975,-0.099,0.153,-0.916,1.404,80.000,26.000,1.000
42055.559,54685.535,388119.075,453987.311,544177.095,52242.751,198772.213,43833.847,-0.040,0.975,-0.098,0.305,-0.854,1.495,80.000,27.000,1.000
34307.242,46738.172,384002.786,444353.864,537588.118,44836.589,180146.063,38543.970,-0.041,0.976,-0.100,0.458,-0.946,1.526,80.000,28.000,1.000
26621.738,38705.993,380270.746,438334.157,523743.292,37494.577,165686.542,32522.411,-0.040,0.978,-0.100,0.519,-0.854,1.556,80.000,29.000,1.000
21397.938,32990.509,377976.875,439507.173,502486.820,31073.818,154078.168,26525.093,-0.039,0.977,-0.099,0.610,-0.824,1.587,80.000,30.000,1.000
18959.518,30120.210,376325.118,441275.442,476895.424,26785.474,142112.747,22666.888,-0.039,0.979,-0.101,0.641,-0.824,1.556,80.000,31.000,1.000
16987.279,27923.577,373949.289,437015.109,449907.174,24125.636,129479.264,20863.120,-0.039,0.982,-0.102,0.641,-0.824,1.587,80.000,32.000,1.000
13377.320,24191.395,370684.953,428739.895,422996.180,21185.890,118625.913,18693.616,-0.040,0.981,-0.100,0.671,-0.671,1.556,80.000,33.000,1.000
8550.058,19139.502,367548.479,423419.528,397258.781,16849.647,110774.001,14512.151,-0.038,0.984,-0.099,0.763,-0.702,1.617,80.000,34.000,1.000
4389.456,14629.797,365236.801,423489.178,374120.977,11880.794,104054.797,9350.710,-0.036,0.983,-0.101,0.763,-0.671,1.648,80.000,35.000,1.000
1668.546,11607.084,363280.841,424457.525,354381.501,7690.423,96051.748,5328.292,-0.037,0.982,-0.099,0.671,-0.580,1.648,80.000,36.000,1.000
-592.188,9197.114,360819.688,421506.187,337237.281,4639.998,86856.614,3034.346,-0.038,0.982,-0.099,0.793,-0.580,1.740,80.000,37.000,1.000
-3457.054,6224.969,357753.652,415384.800,320958.133,1956.636,78567.788,1212.458,-0.038,0.985,-0.102,0.763,-0.458,1.709,80.000,38.000,1.000
-6700.977,2757.488,354757.330,410468.878,304476.288,-1044.064,72352.353,-1356.733,-0.038,0.985,-0.101,0.702,-0.397,1.801,80.000,39.000,1.000
-9403.547,-260.070,352323.962,408824.808,288012.357,-4209.504,67170.117,-4488.253,-0.036,0.985,-0.099,0.702,-0.427,1.862,80.000,40.000,1.000
-11305.126,-2399.566,350196.753,408250.299,272301.619,-7009.856,61475.668,-7204.605,-0.035,0.988,-0.100,0.641,-0.336,1.923,80.000,41.000,1.000
-13009.770,-4196.761,347817.436,405784.713,257664.306,-9292.028,55200.060,-9088.371,-0.036,0.989,-0.102,0.519,-0.275,1.831,80.000,42.000,1.000
-15046.610,-6306.841,345049.021,401303.553,243924.231,-11353.826,49467.547,-10615.467,-0.036,0.989,-0.102,0.519,-0.244,1.892,80.000,43.000,1.000
-17268.898,-8719.934,342245.726,396991.764,230849.782,-13493.195,44882.359,-12400.807,-0.037,0.988,-0.101,0.366,-0.214,1.892,80.000,44.000,1.000
-19255.176,-10971.374,339731.171,394354.533,218361.629,-15732.938,40858.439,-14530.011,-0.039,0.990,-0.104,0.305,-0.092,1.831,80.000,45.000,1.000
-20902.615,-12804.972,337436.808,392771.766,206433.901,-17919.036,36599.115,-16637.344,-0.039,0.991,-0.102,0.244,0.000,1.801,80.000,46.000,1.000
-22401.752,-14367.957,335076.718,390696.475,195055.185,-19892.064,32099.110,-18363.877,-0.038,0.990,-0.098,0.092,-0.031,1.709,80.000,47.000,1.000
-23868.027,-15897.261,332515.308,387425.928,184273.911,-21569.597,27909.185,-19652.817,-0.039,0.990,-0.098,0.000,0.031,1.617,80.000,48.000,1.000
-25274.256,-17473.481,329868.600,383549.821,174090.074,-23019.587,24298.938,-20757.607,-0.042,0.989,-0.097,-0.214,-0.031,1.678,80.000,49.000,1.000
-26643.652,-19064.520,327318.014,380147.954,164299.810,-24473.179,21034.068,-22038.610,-0.041,0.986,-0.099,-0.397,0.122,1.495,80.000,50.000,1.000
-28039.636,-20601.972,324920.660,377767.103,154649.125,-26116.757,17831.645,-23628.014,-0.041,0.985,-0.101,-0.427,-0.031,1.495,80.000,51.000,1.000
-29367.830,-21971.681,322589.189,375936.412,145199.101,-27821.685,14670.465,-25228.938,-0.036,0.984,-0.100,-0.488,-0.122,1.465,80.000,52.000,1.000
-30433.947,-23093.653,320193.325,373573.071,136330.034,-29230.704,11633.346,-26383.513,-0.034,0.987,-0.103,-0.366,-0.092,1.526,80.000,53.000,1.000
-31272.768,-24085.348,317676.690,370098.394,128230.179,-30217.203,8732.314,-27042.764,-0.034,0.987,-0.104,-0.366,-0.122,1.587,80.000,54.000,1.000
-32202.196,-25203.793,315113.650,366221.071,120540.355,-31123.863,5998.986,-27722.910,-0.034,0.989,-0.104,-0.305,-0.031,1.617,80.000,55.000,1.000
-33396.444,-26512.367,312648.795,363272.380,112749.105,-32361.196,3536.223,-28903.291,-0.036,0.990,-0.101,-0.244,0.000,1.617,80.000,56.000,1.000
-34572.993,-27724.086,310340.478,361567.295,104881.919,-33836.497,1321.208,-30363.249,-0.035,0.990,-0.102,-0.336,0.122,1.678,80.000,57.000,1.000
-35338.704,-28546.298,308069.835,359823.078,97501.493,-35027.987,-891.803,-31402.184,-0.038,0.985,-0.102,-0.549,0.122,1.801,80.000,58.000,1.000
-35774.440,-29118.894,305662.018,356676.315,90932.378,-35684.121,-3272.444,-31765.002,-0.037,0.982,-0.101,-0.397,0.153,1.740,80.000,59.000,1.000
-36388.078,-29888.920,303110.990,352535.937,84758.150,-36207.902,-5607.074,-32044.343,-0.037,0.978,-0.105,-0.305,0.183,1.617,80.000,60.000,1.000
-37419.550,-31008.722,300613.945,349210.603,78341.284,-37143.250,-7530.118,-32929.494,-0.040,0.973,-0.106,-0.244,0.183,1.709,80.000,61.000,1.000
-38465.087,-32083.743,298328.303,347550.764,71693.667,-38424.092,-9064.118,-34257.690,-0.041,0.976,-0.102,0.031,0.244,1.678,80.000,62.000,1.000
-39009.018,-32685.199,296150.148,346203.250,65476.346,-39436.616,-10670.524,-35190.347,-0.042,0.976,-0.101,0.244,0.061,1.617,80.000,63.000,1.000
-39159.537,-32960.539,293831.215,343325.097,60084.678,-39852.662,-12637.947,-35341.146,-0.044,0.978,-0.098,0.366,0.000,1.526,80.000,64.000,1.000
-39534.439,-33468.691,291309.208,339089.579,55072.712,-40098.515,-14640.262,-35330.056,-0.045,0.980,-0.100,0.427,-0.061,1.282,80.000,65.000,1.000
-40412.433,-34419.642,288807.502,335542.988,49737.721,-40788.712,-16151.014,-35964.759,-0.047,0.979,-0.101,0.519,-0.275,1.160,80.000,66.000,1.000
-41329.562,-35365.730,286544.840,333869.242,44076.304,-41884.555,-17192.928,-37137.960,-0.046,0.983,-0.105,0.580,-0.397,0.946,80.000,67.000,1.000
-41711.128,-35803.960,284433.713,332741.000,38785.661,-42741.239,-18353.741,-37960.816,-0.044,0.985,-0.104,0.549,-0.458,0.824,80.000,68.000,1.000
-41675.506,-35876.460,282187.549,330032.585,34296.668,-42991.383,-19989.085,-37973.776,-0.043,0.986,-0.105,0.610,-0.580,0.732,80.000,69.000,1.000
-41881.912,-36189.792,279707.438,325509.272,30171.127,-43052.001,-21711.032,-37781.337,-0.043,0.988,-0.103,0.671,-0.732,0.702,80.000,70.000,1.000
-42620.980,-36984.849,277222.912,320826.905,25696.523,-43554.337,-22909.000,-38231.681,-0.044,0.987,-0.101,0.610,-0.916,0.641,80.000,71.000,1.000
-43411.862,-37802.632,274984.317,317054.321,20854.409,-44482.093,-23604.704,-39261.755,-0.042,0.989,-0.099,0.610,-0.977,0.641,80.000,72.000,1.000
-43669.177,-38115.269,272920.753,313197.569,16327.590,-45202.661,-24441.961,-39990.650,-0.040,0.990,-0.101,0.488,-1.007,0.641,80.000,73.000,1.000
-43512.572,-38053.415,270734.091,307573.223,12548.459,-45339.264,-25803.560,-39926.250,-0.041,0.991,-0.102,0.275,-0.977,0.671,80.000,74.000,1.000
-43596.897,-38225.821,268288.814,300094.322,9106.932,-45280.325,-27279.512,-39627.518,-0.040,0.991,-0.103,0.275,-1.099,0.732,80.000,75.000,1.000
-44207.545,-38883.817,265728.457,292465.457,5320.244,-45637.267,-28234.149,-39928.186,-0.040,0.990,-0.104,0.214,-1.099,0.824,80.000,76.000,1.000
-44877.953,-39584.885,263155.035,286063.882,1159.861,-46411.840,-28688.229,-40804.266,-0.039,0.989,-0.103,0.000,-1.099,0.885,80.000,77.000,1.000
-45045.419,-39809.613,260350.655,280345.571,-2736.700,-47012.760,-29290.915,-41430.998,-0.039,0.986,-0.104,-0.122,-1.190,1.099,80.000,78.000,1.000
-44822.484,-39670.734,256956.391,273891.507,-5957.035,-47074.677,-30423.946,-41321.263,-0.039,0.987,-0.104,-0.122,-1.160,1.190,80.000,79.000,1.000
-44824.672,-39744.070,252905.200,266592.562,-8868.446,-46944.034,-31683.575,-40972.668,-0.040,0.984,-0.102,-0.092,-1.190,1.312,80.000,80.000,1.000
-45317.573,-40274.143,248569.072,259913.261,-12096.769,-47185.688,-32448.890,-41163.420,-0.039,0.984,-0.103,-0.153,-1.343,1.434,80.000,81.000,1.000
-45869.105,-40854.258,244420.017,254864.732,-15677.369,-47814.751,-32736.855,-41895.589,-0.040,0.985,-0.104,-0.122,-1.251,1.526,80.000,82.000,1.000
-45962.869,-41001.089,240605.464,250529.422,-19039.568,-48302.003,-33165.641,-42424.797,-0.039,0.984,-0.102,-0.214,-1.282,1.526,80.000,83.000,1.000
-45702.062,-40812.711,236936.608,245230.604,-21807.705,-48311.251,-34098.090,-42291.820,-0.039,0.982,-0.098,-0.244,-1.282,1.648,80.000,84.000,1.000
-45644.532,-40815.093,233247.986,238767.883,-24300.650,-48142.154,-35158.956,-41925.201,-0.037,0.981,-0.099,-0.244,-1.343,1.617,80.000,85.000,1.000
-46030.153,-41236.775,229628.970,232653.499,-27072.095,-48297.100,-35771.923,-42025.204,-0.039,0.982,-0.101,-0.183,-1.312,1.617,80.000,86.000,1.000
-46474.108,-41715.926,226249.333,228035.502,-30159.869,-48798.582,-35949.718,-42615.200,-0.037,0.981,-0.100,-0.183,-1.312,1.617,80.000,87.000,1.000
-46517.617,-41815.137,223069.629,224160.048,-33068.412,-49186.108,-36254.103,-43048.250,-0.036,0.982,-0.100,-0.214,-1.282,1.678,80.000,88.000,1.000
-46248.615,-41611.439,219861.540,219445.983,-35465.665,-49158.523,-37013.578,-42907.842,-0.037,0.983,-0.099,-0.214,-1.282,1.617,80.000,89.000,1.000
-46152.429,-41564.938,216507.765,213647.089,-37619.246,-48965.645,-37892.075,-42549.049,-0.036,0.983,-0.100,-0.244,-1.190,1.465,80.000,90.000,1.000
-46437.580,-41881.870,213158.789,208139.194,-40004.994,-49041.756,-38376.144,-42579.331,-0.037,0.982,-0.102,-0.244,-1.129,1.404,80.000,91.000,1.000
-46774.261,-42255.059,210029.824,204001.365,-42663.611,-49417.847,-38477.168,-43036.196,-0.037,0.982,-0.099,-0.305,-1.129,1.404,80.000,92.000,1.000
-46771.195,-42306.934,207118.761,200563.432,-45179.932,-49709.844,-38689.699,-43375.982,-0.035,0.983,-0.104,-0.244,-1.129,1.343,80.000,93.000,1.000
-46504.073,-42098.872,204223.860,196368.291,-47269.053,-49658.679,-39301.769,-43235.004,-0.036,0.983,-0.101,-0.397,-1.068,1.251,80.000,94.000,1.000
-46384.165,-42021.865,201221.583,191157.430,-49146.886,-49465.747,-40022.583,-42899.397,-0.034,0.982,-0.103,-0.336,-1.068,1.251,80.000,95.000,1.000
-46587.668,-42254.745,198220.046,186160.954,-51208.942,-49492.810,-40408.817,-42880.320,-0.035,0.982,-0.103,-0.336,-1.038,1.190,80.000,96.000,1.000
-46838.732,-42541.486,195392.995,182375.924,-53496.185,-49771.480,-40467.733,-43222.270,-0.035,0.981,-0.102,-0.336,-0.946,1.190,80.000,97.000,1.000
-46809.749,-42561.866,192738.263,179241.111,-55672.204,-49986.852,-40617.449,-43480.217,-0.035,0.982,-0.100,-0.336,-0.916,1.190,80.000,98.000,1.000
-46559.716,-42360.165,190088.897,175466.646,-57500.523,-49920.049,-41100.879,-43344.737,-0.037,0.981,-0.101,-0.305,-0.977,1.038,80.000,99.000,1.000
-46425.033,-42259.025,187344.759,170792.781,-59150.399,-49728.803,-41675.956,-43039.157,-0.036,0.982,-0.101,-0.275,-0.854,0.977,80.000,100.000,1.000
-46551.748,-42412.272,184599.833,166272.820,-60941.634,-49709.038,-41975.486,-42983.210,-0.035,0.982,-0.101,-0.305,-0.854,0.916,80.000,101.000,1.000
-46719.475,-42617.315,182002.185,162787.456,-62913.700,-49895.818,-42006.476,-43227.297,-0.036,0.982,-0.098,-0.275,-0.763,0.916,80.000,102.000,1.000
-46665.231,-42613.381,179551.995,159880.881,-64802.183,-50042.469,-42112.606,-43420.378,-0.035,0.982,-0.097,-0.336,-0.763,0.824,80.000,103.000,1.000
-46434.296,-42429.836,177110.821,156450.897,-66415.131,-49969.898,-42491.202,-43304.884,-0.036,0.985,-0.099,-0.336,-0.641,0.885,80.000,104.000,1.000
-46291.837,-42320.970,174593.632,152252.810,-67878.030,-49793.661,-42943.806,-43042.041,-0.038,0.983,-0.101,-0.336,-0.671,0.732,80.000,105.000,1.000
-46353.428,-42410.945,172074.572,148161.507,-69440.362,-49743.920,-43172.783,-42959.006,-0.037,0.984,-0.102,-0.244,-0.641,0.793,80.000,106.000,1.000
-46448.663,-42543.184,169673.676,144930.124,-71141.568,-49854.417,-43183.998,-43105.086,-0.037,0.985,-0.100,-0.336,-0.641,0.702,80.000,107.000,1.000
-46374.137,-42512.600,167392.970,142200.834,-72786.781,-49939.502,-43252.607,-43215.359,-0.040,0.983,-0.100,-0.427,-0.671,0.671,80.000,108.000,1.000
-46163.648,-42338.842,165122.742,139059.758,-74229.772,-49858.702,-43536.405,-43087.823,-0.039,0.982,-0.101,-0.397,-0.641,0.763,80.000,109.000,1.000
-46018.897,-42218.684,162794.403,135283.030,-75560.284,-49694.100,-43880.718,-42840.544,-0.040,0.983,-0.097,-0.427,-0.671,0.702,80.000,110.000,1.000
-46027.706,-42252.246,160465.141,131572.932,-76961.669,-49619.330,-44053.143,-42726.840,-0.041,0.984,-0.100,-0.488,-0.641,0.641,80.000,111.000,1.000
-46062.424,-42324.384,158229.384,128554.572,-78461.714,-49665.259,-44056.503,-42795.937,-0.042,0.983,-0.099,-0.427,-0.671,0.793,80.000,112.000,1.000
-45971.289,-42278.853,156090.091,125959.682,-79913.332,-49697.955,-44100.976,-42854.834,-0.041,0.984,-0.099,-0.366,-0.702,0.671,80.000,113.000,1.000
-45778.824,-42125.379,153962.755,123055.966,-81202.887,-49611.205,-44307.333,-42744.800,-0.042,0.984,-0.100,-0.336,-0.824,0.641,80.000,114.000,1.000
-45633.067,-42007.316,151793.294,119646.293,-82390.433,-49459.269,-44559.966,-42539.439,-0.043,0.985,-0.102,-0.336,-0.854,0.671,80.000,115.000,1.000
-45599.449,-42000.549,149623.740,116274.067,-83610.860,-49367.132,-44685.324,-42420.503,-0.045,0.985,-0.100,-0.366,-0.854,0.610,80.000,116.000,1.000
-45587.891,-42024.333,147525.799,113440.905,-84894.183,-49362.386,-44684.877,-42432.312,-0.043,0.984,-0.100,-0.366,-0.946,0.702,80.000,117.000,1.000
-45489.548,-41964.755,145503.674,110956.233,-86144.921,-49353.810,-44711.968,-42444.347,-0.043,0.983,-0.100,-0.397,-1.038,0.793,80.000,118.000,1.000
-45318.201,-41824.299,143495.853,108254.707,-87283.123,-49263.192,-44853.947,-42340.855,-0.043,0.984,-0.096,-0.336,-1.068,0.824,80.000,119.000,1.000
-45173.901,-41702.426,141461.564,105167.583,-88343.997,-49121.566,-45028.234,-42164.871,-0.042,0.984,-0.096,-0.366,-1.099,0.885,80.000,120.000,1.000
-45101.875,-41655.322,139429.631,102096.586,-89416.080,-49013.268,-45111.783,-42040.525,-0.042,0.986,-0.096,-0.366,-1.068,0.977,80.000,121.000,1.000
-45043.738,-41631.369,137451.458,99429.620,-90522.141,-48962.231,-45104.767,-42005.150,-0.041,0.984,-0.098,-0.244,-1.099,1.007,80.000,122.000,1.000
-44929.019,-41553.500,135531.224,97040.452,-91602.751,-48913.136,-45112.995,-41976.508,-0.042,0.984,-0.098,-0.275,-1.099,1.038,80.000,123.000,1.000
-44766.903,-41420.955,133626.213,94510.126,-92604.738,-48814.341,-45197.731,-41873.843,-0.041,0.982,-0.098,-0.366,-1.129,1.038,80.000,124.000,1.000
-44621.069,-41298.534,131707.064,91698.666,-93545.546,-48681.241,-45305.966,-41716.672,-0.041,0.985,-0.097,-0.366,-1.160,1.068,80.000,125.000,1.000
-44520.537,-41225.514,129792.131,88888.005,-94478.964,-48565.387,-45357.387,-41583.592,-0.041,0.986,-0.098,-0.366,-1.160,1.190,80.000,126.000,1.000
-44431.075,-41172.165,127916.117,86366.718,-95424.116,-48485.599,-45350.822,-41507.188,-0.038,0.986,-0.097,-0.366,-1.068,1.312,80.000,127.000,1.000
-44310.865,-41088.945,126083.138,84061.458,-96351.190,-48412.282,-45351.128,-41444.456,-0.039,0.986,-0.101,-0.275,-1.099,1.312,80.000,128.000,1.000
-44163.073,-40969.654,124266.076,81679.426,-97227.373,-48311.837,-45394.568,-41342.567,-0.039,0.986,-0.099,-0.275,-1.068,1.343,80.000,129.000,1.000
-44020.616,-40848.835,122445.212,79108.727,-98054.528,-48185.421,-45448.705,-41201.961,-0.040,0.984,-0.098,-0.305,-1.099,1.282,80.000,130.000,1.000
-43898.659,-40751.497,120630.686,76531.181,-98858.005,-48059.140,-45467.004,-41064.208,-0.039,0.985,-0.097,-0.244,-1.099,1.434,80.000,131.000,1.000
-43782.039,-40666.998,118843.620,74148.025,-99654.074,-47950.081,-45449.941,-40957.021,-0.039,0.986,-0.098,-0.366,-1.099,1.404,80.000,132.000,1.000
-43652.676,-40571.154,117087.527,71924.778,-100437.700,-47851.576,-45434.130,-40868.041,-0.039,0.985,-0.098,-0.305,-1.038,1.526,80.000,133.000,1.000
-43510.980,-40457.010,115347.382,69672.151,-101194.706,-47746.059,-45439.219,-40767.023,-0.038,0.984,-0.095,-0.336,-0.946,1.404,80.000,134.000,1.000
-43368.088,-40337.331,113611.231,67304.687,-101917.429,-47624.391,-45449.915,-40640.404,-0.037,0.987,-0.098,-0.366,-0.977,1.434,80.000,135.000,1.000
-43230.157,-40225.806,111882.866,64925.498,-102609.905,-47492.461,-45445.668,-40501.186,-0.037,0.984,-0.096,-0.397,-0.885,1.312,80.000,136.000,1.000
-43096.663,-40124.219,110172.871,62665.548,-103283.762,-47363.816,-45426.619,-40372.125,-0.038,0.982,-0.096,-0.336,-0.793,1.221,80.000,137.000,1.000
-42965.928,-40024.837,108484.613,60521.268,-103948.907,-47246.848,-45405.044,-40263.157,-0.039,0.981,-0.095,-0.336,-0.824,1.343,80.000,138.000,1.000
-42834.545,-39918.468,106812.663,58386.468,-104603.467,-47136.155,-45385.688,-40162.347,-0.036,0.982,-0.096,-0.366,-0.763,1.434,80.000,139.000,1.000
-42695.950,-39800.986,105150.993,56197.716,-105233.921,-47017.004,-45365.011,-40047.978,-0.036,0.982,-0.093,-0.244,-0.793,1.282,80.000,140.000,1.000
-42547.851,-39676.990,103498.379,53996.145,-105830.108,-46881.235,-45341.230,-39912.039,-0.037,0.982,-0.097,-0.183,-0.732,1.160,80.000,141.000,1.000
-42399.004,-39557.118,101857.125,51855.226,-106400.209,-46738.471,-45314.431,-39771.326,-0.037,0.983,-0.098,-0.183,-0.671,1.251,80.000,142.000,1.000
-42259.909,-39446.870,100230.101,49792.233,-106963.899,-46606.473,-45280.550,-39649.632,-0.037,0.983,-0.095,-0.214,-0.610,1.373,80.000,143.000,1.000
-42126.451,-39337.766,98618.955,47764.948,-107527.118,-46488.483,-45235.540,-39547.543,-0.037,0.984,-0.095,-0.153,-0.580,1.251,80.000,144.000,1.000
-41982.388,-39215.784,97022.339,45729.416,-108071.810,-46367.036,-45185.957,-39438.416,-0.038,0.983,-0.100,-0.214,-0.580,1.221,80.000,145.000,1.000
-41822.237,-39080.387,95435.665,43681.093,-108578.179,-46225.579,-45144.300,-39300.434,-0.036,0.982,-0.100,-0.122,-0.580,1.282,80.000,146.000,1.000
-41662.546,-38948.360,93855.250,41649.010,-109052.008,-46071.414,-45110.253,-39146.113,-0.037,0.985,-0.098,-0.092,-0.580,1.251,80.000,147.000,1.000
-41521.488,-38833.209,92283.398,39664.721,-109518.578,-45928.029,-45066.766,-39008.440,-0.039,0.985,-0.099,-0.153,-0.549,1.343,80.000,148.000,1.000
-41392.726,-38725.813,90726.560,37733.918,-109988.299,-45804.205,-45002.208,-38898.026,-0.039,0.983,-0.100,-0.122,-0.519,1.373,80.000,149.000,1.000
-41251.754,-38604.828,89186.737,35828.807,-110440.692,-45681.497,-44929.685,-38788.085,-0.038,0.984,-0.098,0.000,-0.580,1.343,80.000,150.000,1.000
-41089.087,-38465.601,87657.419,33912.774,-110850.470,-45538.713,-44872.179,-38649.730,-0.038,0.985,-0.098,-0.031,-0.488,1.312,80.000,151.000,1.000
-40924.752,-38328.368,86131.264,31981.829,-111221.963,-45381.425,-44830.527,-38491.967,-0.038,0.985,-0.096,-0.061,-0.427,1.221,80.000,152.000,1.000
-40781.852,-38212.126,84610.238,30075.623,-111584.809,-45235.706,-44780.337,-38351.492,-0.040,0.985,-0.095,0.031,-0.427,1.251,80.000,153.000,1.000
-40654.226,-38108.118,83103.679,28233.038,-111954.943,-45112.687,-44705.090,-38243.501,-0.039,0.984,-0.095,-0.061,-0.458,1.312,80.000,154.000,1.000
-40513.566,-37990.095,81615.641,26439.655,-112313.713,-44991.925,-44620.167,-38139.486,-0.039,0.985,-0.098,0.000,-0.458,1.160,80.000,155.000,1.000
-40347.583,-37848.860,80138.521,24639.719,-112634.608,-44847.221,-44551.993,-38003.492,-0.039,0.985,-0.097,0.061,-0.458,1.221,80.000,156.000,1.000
-40176.924,-37704.560,78662.522,22807.168,-112922.053,-44681.221,-44500.204,-37839.622,-0.039,0.984,-0.095,0.031,-0.519,1.251,80.000,157.000,1.000
-40027.041,-37579.481,77188.812,20984.156,-113208.701,-44522.136,-44436.929,-37686.803,-0.040,0.985,-0.094,0.000,-0.549,1.282,80.000,158.000,1.000
-39893.684,-37468.162,75728.112,19228.292,-113513.585,-44386.452,-44345.579,-37567.197,-0.042,0.984,-0.096,-0.092,-0.549,1.190,80.000,159.000,1.000
-39749.708,-37345.962,74285.903,17532.854,-113818.210,-44258.256,-44245.708,-37458.166,-0.041,0.981,-0.098,0.031,-0.549,1.251,80.000,160.000,1.000
-39583.528,-37204.006,72854.449,15830.267,-114092.804,-44112.400,-44167.713,-37325.080,-0.041,0.983,-0.094,-0.031,-0.519,1.251,80.000,161.000,1.000
-39415.522,-37062.045,71423.130,14081.057,-114336.518,-43949.137,-44111.304,-37169.019,-0.040,0.981,-0.096,0.061,-0.519,1.221,80.000,162.000,1.000
-39269.539,-36941.243,69993.104,12330.052,-114577.154,-43792.925,-44045.312,-37023.793,-0.039,0.983,-0.095,0.031,-0.610,1.190,80.000,163.000,1.000
-39139.327,-36834.324,68575.842,10649.363,-114831.783,-43657.656,-43949.298,-36907.428,-0.041,0.985,-0.100,0.061,-0.610,1.160,80.000,164.000,1.000
-38996.593,-36714.613,67177.250,9041.085,-115083.253,-43527.111,-43840.581,-36796.290,-0.040,0.984,-0.100,0.061,-0.793,1.221,80.000,165.000,1.000
-38829.639,-36571.792,65789.184,7432.646,-115304.108,-43377.245,-43749.882,-36657.354,-0.042,0.982,-0.098,0.153,-0.824,1.190,80.000,166.000,1.000
-38659.264,-36425.525,64400.135,5774.006,-115494.074,-43209.277,-43679.813,-36493.914,-0.042,0.986,-0.098,0.092,-0.793,1.099,80.000,167.000,1.000
-38510.227,-36298.435,63010.633,4105.488,-115679.524,-43048.043,-43602.963,-36341.745,-0.042,0.986,-0.099,0.153,-0.732,1.007,80.000,168.000,1.000
-38377.888,-36185.689,61632.351,2502.857,-115876.488,-42908.024,-43500.281,-36220.988,-0.043,0.985,-0.099,0.183,-0.824,1.007,80.000,169.000,1.000
-38235.455,-36062.754,60272.160,973.522,-116069.484,-42774.488,-43386.801,-36109.977,-0.040,0.986,-0.099,0.275,-0.793,0.977,80.000,170.000,1.000
-38070.824,-35919.566,58923.000,-554.043,-116234.228,-42624.727,-43290.025,-35975.660,-0.042,0.983,-0.100,0.305,-0.885,0.977,80.000,171.000,1.000
-37902.127,-35774.003,57573.789,-2133.190,-116371.436,-42459.081,-43212.025,-35817.957,-0.042,0.985,-0.102,0.244,-0.885,0.916,80.000,172.000,1.000
-37751.862,-35647.063,56224.345,-3727.383,-116505.765,-42299.692,-43127.692,-35668.134,-0.040,0.983,-0.100,0.214,-0.885,0.916,80.000,173.000,1.000
-37616.535,-35534.597,54884.968,-5261.374,-116652.613,-42159.984,-43019.992,-35545.369,-0.039,0.982,-0.100,0.244,-0.977,0.885,80.000,174.000,1.000
-37472.903,-35413.860,53561.875,-6723.958,-116798.813,-42027.290,-42903.031,-35431.838,-0.041,0.983,-0.099,0.366,-1.007,0.793,80.000,175.000,1.000
-37310.313,-35274.359,52248.825,-8181.382,-116921.898,-41880.752,-42801.459,-35298.342,-0.040,0.981,-0.101,0.336,-1.068,0.885,80.000,176.000,1.000
-37144.154,-35130.732,50935.986,-9685.425,-117020.336,-41718.946,-42716.288,-35143.676,-0.041,0.984,-0.101,0.397,-1.129,0.824,80.000,177.000,1.000
-36993.518,-35001.620,49623.297,-11203.807,-117114.249,-41560.337,-42624.700,-34994.808,-0.040,0.983,-0.100,0.488,-1.251,0.854,80.000,178.000,1.000
-36855.299,-34884.670,48320.070,-12666.506,-117217.283,-41417.335,-42512.198,-34869.714,-0.042,0.983,-0.097,0.427,-1.190,0.824,80.000,179.000,1.000
-36709.671,-34761.318,47031.968,-14061.737,-117319.179,-41280.244,-42392.095,-34754.306,-0.043,0.983,-0.097,0.336,-1.190,0.793,80.000,180.000,1.000
-36547.565,-34622.655,45753.566,-15449.978,-117400.975,-41131.365,-42285.922,-34622.636,-0.041,0.984,-0.098,0.366,-1.251,0.946,80.000,181.000,1.000
-36381.946,-34480.472,44476.195,-16880.222,-117459.909,-40968.612,-42193.339,-34471.027,-0.042,0.984,-0.099,0.336,-1.312,0.916,80.000,182.000,1.000
-36229.141,-34350.162,43199.645,-18325.257,-117510.686,-40807.287,-42093.442,-34320.762,-0.041,0.984,-0.099,0.244,-1.221,0.885,80.000,183.000,1.000
-36087.300,-34230.189,41931.774,-19722.084,-117563.586,-40659.069,-41973.899,-34188.393,-0.041,0.986,-0.097,0.275,-1.282,1.068,80.000,184.000,1.000
-35940.583,-34105.590,40677.254,-21058.423,-117610.913,-40517.653,-41847.469,-34065.466,-0.039,0.985,-0.097,0.366,-1.404,1.007,80.000,185.000,1.000
-35781.531,-33968.954,39431.316,-22386.930,-117639.204,-40369.105,-41734.159,-33932.949,-0.041,0.984,-0.097,0.336,-1.404,0.977,80.000,186.000,1.000
-35620.537,-33829.820,38186.574,-23751.883,-117649.210,-40211.163,-41634.911,-33788.119,-0.041,0.986,-0.098,0.214,-1.434,1.007,80.000,187.000,1.000
-35470.686,-33700.686,36942.941,-25130.853,-117656.435,-40055.220,-41532.287,-33647.148,-0.040,0.987,-0.097,0.275,-1.434,1.038,80.000,188.000,1.000
-35329.894,-33579.757,35707.231,-26468.081,-117671.779,-39909.528,-41414.691,-33521.475,-0.039,0.988,-0.098,0.214,-1.373,1.007,80.000,189.000,1.000
-35184.411,-33453.967,34483.759,-27750.063,-117688.857,-39767.899,-41290.699,-33401.761,-0.039,0.987,-0.095,0.153,-1.434,0.977,80.000,190.000,1.000
-35027.565,-33316.868,33268.957,-29020.453,-117693.976,-39618.490,-41175.427,-33270.441,-0.039,0.986,-0.097,0.061,-1.282,1.038,80.000,191.000,1.000
-34867.818,-33176.585,32056.695,-30318.467,-117684.105,-39459.492,-41069.379,-33124.393,-0.038,0.987,-0.097,0.031,-1.373,1.038,80.000,192.000,1.000
-34716.328,-33043.969,30846.489,-31627.296,-117668.999,-39300.447,-40958.565,-32977.292,-0.039,0.986,-0.098,-0.031,-1.404,0.885,80.000,193.000,1.000
-34572.169,-32918.137,29643.652,-32900.308,-117656.315,-39148.530,-40833.824,-32840.467,-0.038,0.989,-0.099,-0.122,-1.434,0.854,80.000,194.000,1.000
-34424.779,-32788.854,28451.786,-34125.272,-117641.644,-38999.684,-40702.751,-32709.517,-0.038,0.987,-0.097,-0.183,-1.434,0.885,80.000,195.000,1.000
-34268.757,-32650.848,27268.119,-35338.462,-117615.893,-38845.511,-40578.660,-32572.831,-0.041,0.983,-0.096,-0.244,-1.495,0.885,80.000,196.000,1.000
-34110.371,-32510.343,26087.551,-36573.649,-117578.342,-38685.202,-40463.134,-32428.373,-0.040,0.983,-0.098,-0.244,-1.526,0.793,80.000,197.000,1.000
-33958.243,-32376.314,24909.256,-37818.624,-117537.783,-38526.628,-40346.120,-32286.141,-0.039,0.982,-0.097,-0.275,-1.465,0.854,80.000,198.000,1.000
-33812.381,-32249.443,23736.899,-39035.981,-117501.109,-38376.018,-40221.253,-32154.434,-0.038,0.981,-0.099,-0.244,-1.373,0.793,80.000,199.000,1.000
-33666.100,-32123.388,22572.802,-40215.384,-117465.524,-38231.051,-40094.887,-32029.676,-0.039,0.982,-0.098,-0.275,-1.343,0.824,80.000,200.000,1.000
-33516.342,-31994.623,21414.588,-41385.165,-117423.338,-38085.269,-39976.980,-31902.238,-0.037,0.981,-0.098,-0.153,-1.282,0.854,80.000,201.000,1.000
-33367.392,-31866.605,20258.842,-42571.389,-117371.406,-37936.426,-39867.290,-31768.744,-0.038,0.979,-0.098,-0.214,-1.343,0.885,80.000,202.000,1.000
-33223.810,-31743.614,19106.286,-43763.208,-117313.227,-37788.026,-39755.828,-31634.537,-0.038,0.980,-0.098,-0.153,-1.373,0.885,80.000,203.000,1.000
-33083.315,-31623.683,17961.159,-44929.607,-117252.364,-37643.173,-39635.512,-31504.566,-0.039,0.978,-0.097,-0.092,-1.282,0.977,80.000,204.000,1.000
-32939.296,-31500.442,16825.737,-46061.114,-117187.324,-37500.153,-39509.951,-31376.464,-0.038,0.979,-0.099,-0.061,-1.190,1.038,80.000,205.000,1.000
-32788.965,-31370.730,15697.551,-47179.639,-117114.131,-37355.026,-39386.851,-31244.305,-0.037,0.980,-0.098,-0.031,-1.099,0.885,80.000,206.000,1.000
-32636.205,-31237.874,14572.857,-48306.863,-117032.059,-37206.794,-39267.478,-31106.884,-0.038,0.981,-0.099,0.061,-1.160,0.946,80.000,207.000,1.000
-32486.330,-31107.174,13451.371,-49436.493,-116944.745,-37058.234,-39146.442,-30969.446,-0.038,0.982,-0.103,0.153,-1.129,0.946,80.000,208.000,1.000
-32340.302,-30979.940,12336.047,-50545.898,-116855.463,-36911.636,-39019.980,-30836.850,-0.038,0.984,-0.099,0.183,-1.099,0.946,80.000,209.000,1.000
-32195.164,-30853.474,11228.775,-51627.855,-116763.552,-36765.914,-38891.001,-30707.851,-0.037,0.984,-0.098,0.183,-1.007,0.885,80.000,210.000,1.000
-32048.888,-30725.855,10128.061,-52698.801,-116666.169,-36618.522,-38764.696,-30577.585,-0.034,0.983,-0.097,0.122,-0.854,0.977,80.000,211.000,1.000
-31902.609,-30598.495,9031.416,-53775.444,-116562.150,-36468.872,-38641.622,-30443.930,-0.035,0.984,-0.098,0.153,-0.793,1.099,80.000,212.000,1.000
-31757.802,-30473.289,7938.712,-54853.372,-116452.837,-36318.656,-38517.552,-30309.231,-0.035,0.983,-0.096,0.122,-0.763,1.007,80.000,213.000,1.000
-31613.441,-30349.133,6852.010,-55914.924,-116339.450,-36169.206,-38389.203,-30176.305,-0.034,0.982,-0.101,0.183,-0.610,0.946,80.000,214.000,1.000
-31467.273,-30223.000,5772.569,-56953.096,-116221.529,-36020.162,-38258.317,-30045.077,-0.036,0.983,-0.101,0.153,-0.610,0.885,80.000,215.000,1.000
-31318.886,-30093.589,4699.329,-57979.006,-116097.988,-35870.521,-38128.920,-29913.461,-0.035,0.985,-0.100,0.183,-0.580,1.007,80.000,216.000,1.000
-31170.379,-29962.745,3630.483,-59005.816,-115968.904,-35720.252,-38002.300,-29780.599,-0.035,0.986,-0.101,0.061,-0.519,1.068,80.000,217.000,1.000
-31024.108,-29833.287,2565.676,-60032.518,-115835.785,-35570.485,-37876.352,-29647.901,-0.034,0.987,-0.101,0.153,-0.427,1.251,80.000,218.000,1.000
-30880.444,-29706.137,1506.137,-61047.571,-115699.780,-35421.914,-37748.546,-29516.617,-0.033,0.984,-0.101,0.092,-0.366,1.343,80.000,219.000,1.000
-30737.956,-29580.166,453.026,-62044.836,-115560.455,-35273.940,-37618.587,-29386.045,-0.033,0.984,-0.101,0.061,-0.305,1.343,80.000,220.000,1.000
-30595.283,-29454.164,-593.775,-63029.999,-115416.400,-35125.514,-37487.931,-29254.757,-0.035,0.985,-0.104,0.092,-0.214,1.465,80.000,221.000,1.000
-30452.165,-29328.242,-1635.276,-64011.151,-115266.756,-34976.482,-37357.699,-29122.768,-0.037,0.985,-0.102,0.275,-0.122,1.495,80.000,222.000,1.000
-30308.889,-29203.285,-2672.216,-64987.999,-115112.125,-34827.844,-37227.952,-28991.723,-0.035,0.986,-0.101,0.214,-0.061,1.587,80.000,223.000,1.000
-30165.631,-29079.594,-3704.560,-65953.538,-114954.005,-34680.737,-37098.524,-28863.259,-0.034,0.988,-0.098,0.183,0.031,1.617,80.000,224.000,1.000
-30022.422,-28956.551,-4731.961,-66903.869,-114793.775,-34535.651,-36970.034,-28737.769,-0.033,0.987,-0.098,0.153,0.183,1.556,80.000,225.000,1.000
-29879.127,-28833.026,-5754.198,-67842.110,-114631.548,-34391.909,-36843.031,-28613.886,-0.034,0.986,-0.101,0.031,0.183,1.709,80.000,226.000,1.000
-29735.405,-28708.098,-6771.119,-68773.314,-114466.005,-34248.043,-36717.014,-28489.322,-0.037,0.984,-0.103,0.122,0.153,1.648,80.000,227.000,1.000
-29591.274,-28581.806,-7782.594,-69698.707,-114295.966,-34103.252,-36591.229,-28362.921,-0.038,0.981,-0.102,0.183,0.153,1.617,80.000,228.000,1.000
-29447.675,-28455.166,-8788.698,-70615.945,-114121.806,-33958.043,-36465.199,-28235.491,-0.040,0.980,-0.100,0.275,0.214,1.526,80.000,229.000,1.000
-29305.741,-28329.310,-9789.686,-71523.466,-113945.229,-33813.438,-36338.463,-28108.557,-0.042,0.983,-0.098,0.305,0.122,1.282,80.000,230.000,1.000
-29165.446,-28204.416,-10785.653,-72422.374,-113767.176,-33669.385,-36210.172,-27982.283,-0.045,0.984,-0.099,0.336,-0.031,1.038,80.000,231.000,1.000
-29025.474,-28079.874,-11776.461,-73314.492,-113586.482,-33524.388,-36079.708,-27855.110,-0.048,0.984,-0.098,0.275,-0.275,0.854,80.000,232.000,1.000
-28884.464,-27955.345,-12762.024,-74199.950,-113401.174,-33376.964,-35947.539,-27725.427,-0.048,0.988,-0.098,0.244,-0.366,0.610,80.000,233.000,1.000
-28742.261,-27831.196,-13742.343,-75076.827,-113210.497,-33227.121,-35814.521,-27593.274,-0.048,0.989,-0.096,0.122,-0.458,0.427,80.000,234.000,1.000
-28600.074,-27708.260,-14717.384,-75943.342,-113015.949,-33077.002,-35681.500,-27460.984,-0.046,0.990,-0.094,-0.061,-0.549,0.183,80.000,235.000,1.000
-28459.426,-27587.035,-15687.147,-76800.085,-112820.021,-32929.510,-35549.564,-27331.612,-0.045,0.991,-0.099,-0.153,-0.671,0.122,80.000,236.000,1.000
-28320.935,-27467.010,-16651.849,-77649.854,-112623.741,-32785.814,-35419.915,-27206.229,-0.044,0.991,-0.099,-0.305,-0.732,0.092,80.000,237.000,1.000
-28184.172,-27347.007,-17611.933,-78495.192,-112425.919,-32644.634,-35293.092,-27083.252,-0.044,0.992,-0.097,-0.397,-0.854,-0.031,80.000,238.000,1.000
-28048.396,-27226.166,-18567.733,-79335.778,-112224.549,-32503.725,-35167.739,-26960.310,-0.043,0.992,-0.096,-0.336,-0.885,0.000,80.000,239.000,1.000
-27912.850,-27104.367,-19519.084,-80168.376,-112018.852,-32361.822,-35040.957,-26836.224,-0.041,0.993,-0.093,-0.519,-1.038,0.122,80.000,240.000,1.000
-27776.391,-26981.493,-20465.373,-80989.624,-111809.419,-32218.703,-34910.320,-26710.766,-0.043,0.994,-0.096,-0.793,-1.099,0.275,80.000,241.000,1.000
-27637.798,-26857.262,-21406.143,-81799.501,-111596.861,-32074.382,-34775.975,-26583.779,-0.043,0.991,-0.096,-0.885,-1.160,0.275,80.000,242.000,1.000
-27497.083,-26732.223,-22341.560,-82601.723,-111381.195,-31929.213,-34640.698,-26455.641,-0.043,0.990,-0.095,-1.038,-1.129,0.366,80.000,243.000,1.000
-27356.032,-26608.038,-23272.069,-83399.798,-111162.284,-31784.196,-34506.979,-26327.874,-0.042,0.988,-0.095,-1.068,-1.129,0.641,80.000,244.000,1.000
-27217.015,-26486.590,-24197.813,-84193.311,-110940.987,-31641.102,-34375.173,-26202.800,-0.042,0.986,-0.095,-1.007,-1.129,0.732,80.000,245.000,1.000
-27081.167,-26368.538,-25118.552,-84978.809,-110718.841,-31501.362,-34244.429,-26081.733,-0.041,0.983,-0.096,-1.007,-1.160,0.824,80.000,246.000,1.000
-26947.516,-26252.559,-26034.083,-85754.088,-110496.071,-31364.307,-34114.288,-25963.268,-0.043,0.981,-0.095,-0.946,-1.251,1.038,80.000,247.000,1.000
-26814.148,-26136.459,-26944.657,-86520.548,-110271.150,-31227.366,-33984.919,-25844.252,-0.044,0.982,-0.095,-0.977,-1.282,1.129,80.000,248.000,1.000
-26680.237,-26019.060,-27850.824,-87280.689,-110042.691,-31088.268,-33855.722,-25722.702,-0.045,0.981,-0.096,-0.885,-1.312,1.251,80.000,249.000,1.000
-26546.296,-25900.660,-28752.747,-88034.336,-109811.126,-30946.852,-33724.992,-25599.419,-0.046,0.980,-0.098,-0.763,-1.251,1.404,80.000,250.000,1.000
-26412.637,-25781.713,-29649.944,-88778.899,-109577.760,-30804.412,-33591.376,-25476.282,-0.046,0.982,-0.094,-0.793,-1.404,1.404,80.000,251.000,1.000
-26278.733,-25662.145,-30541.948,-89513.697,-109342.966,-30662.136,-33455.668,-25353.847,-0.045,0.982,-0.093,-0.793,-1.434,1.373,80.000,252.000,1.000
-26144.262,-25542.230,-31428.965,-90242.094,-109106.136,-30520.675,-33320.568,-25231.324,-0.044,0.981,-0.091,-0.702,-1.404,1.434,80.000,253.000,1.000
-26009.961,-25423.128,-32311.616,-90967.893,-108866.781,-30380.359,-33187.838,-25108.264,-0.043,0.981,-0.094,-0.610,-1.587,1.434,80.000,254.000,1.000
-25876.998,-25306.085,-33190.194,-91690.776,-108625.389,-30241.539,-33056.797,-24985.768,-0.044,0.979,-0.097,-0.641,-1.556,1.465,80.000,255.000,1.000
-25745.678,-25191.066,-34064.308,-92406.762,-108382.649,-30104.202,-32925.682,-24865.298,-0.042,0.978,-0.094,-0.580,-1.556,1.373,80.000,256.000,1.000
-25615.056,-25076.641,-34933.297,-93113.161,-108138.113,-29967.447,-32793.868,-24746.690,-0.042,0.976,-0.091,-0.549,-1.587,1.312,80.000,257.000,1.000
-25483.987,-24961.342,-35796.926,-93811.502,-107890.436,-29829.983,-32662.312,-24628.262,-0.042,0.975,-0.090,-0.397,-1.556,1.312,80.000,258.000,1.000
-25352.350,-24844.816,-36655.559,-94504.766,-107638.847,-29691.125,-32531.577,-24508.596,-0.041,0.974,-0.091,-0.397,-1.465,1.343,80.000,259.000,1.000
-25220.908,-24727.681,-37509.638,-95193.034,-107384.217,-29551.363,-32400.779,-24387.832,-0.040,0.976,-0.091,-0.275,-1.434,1.373,80.000,260.000,1.000
-25090.097,-24610.302,-38359.131,-95873.224,-107127.981,-29411.491,-32268.702,-24266.913,-0.038,0.977,-0.096,-0.214,-1.434,1.343,80.000,261.000,1.000
-24959.426,-24492.297,-39203.685,-96543.298,-106870.428,-29271.493,-32135.469,-24146.113,-0.039,0.978,-0.094,-0.092,-1.434,1.312,80.000,262.000,1.000
-24828.430,-24373.580,-40043.243,-97205.335,-106610.919,-29130.921,-32002.613,-24024.989,-0.039,0.976,-0.095,0.000,-1.312,1.282,80.000,263.000,1.000
-24697.852,-24255.285,-40878.310,-97863.248,-106349.305,-28989.952,-31871.189,-23903.571,-0.038,0.979,-0.094,0.183,-1.312,1.190,80.000,264.000,1.000
-24569.007,-24139.052,-41709.555,-98518.212,-106086.678,-28849.847,-31740.906,-23782.994,-0.037,0.981,-0.093,0.244,-1.221,1.282,80.000,265.000,1.000
-24442.018,-24025.247,-42537.219,-99167.517,-105824.244,-28711.756,-31610.877,-23664.160,-0.037,0.979,-0.096,0.305,-1.099,1.343,80.000,266.000,1.000
-24315.477,-23912.603,-43360.924,-99808.370,-105561.994,-28575.418,-31480.919,-23546.482,-0.037,0.980,-0.098,0.336,-0.977,1.373,80.000,267.000,1.000
-24187.867,-23799.607,-44179.972,-100441.267,-105298.908,-28439.508,-31351.892,-23428.718,-0.036,0.981,-0.096,0.397,-0.946,1.434,80.000,268.000,1.000
-24058.884,-23685.694,-44996.020,-101068.376,-105033.889,-28302.877,-31224.210,-23310.643,-0.035,0.983,-0.095,0.366,-0.854,1.495,80.000,269.000,1.000
-23929.193,-23571.180,-45822.858,-101689.990,-104766.699,-28165.520,-31096.971,-23193.550,-0.037,0.983,-0.096,0.397,-0.702,1.434,80.000,270.000,1.000
-23799.050,-23456.066,-46687.293,-102303.944,-104497.597,-28027.766,-30968.455,-23078.435,-0.036,0.983,-0.094,0.427,-0.641,1.648,80.000,271.000,1.000
-23667.781,-23339.587,-47594.486,-102908.856,-104226.404,-27889.132,-30837.497,-22964.204,-0.036,0.986,-0.097,0.397,-0.488,1.770,80.000,272.000,1.000
-23535.046,-23221.532,-48499.021,-103506.837,-103952.731,-27749.041,-30704.635,-22848.539,-0.036,0.985,-0.095,0.427,-0.458,1.740,80.000,273.000,1.000
-23402.040,-23103.214,-49354.590,-104101.386,-103676.503,-27607.950,-30571.251,-22730.260,-0.036,0.986,-0.095,0.244,-0.366,1.831,80.000,274.000,1.000
-23270.736,-22986.578,-50213.916,-104693.261,-103398.320,-27467.435,-30438.392,-22610.733,-0.035,0.987,-0.096,0.275,-0.275,1.923,80.000,275.000,1.000
-23142.250,-22872.570,-51227.284,-105280.052,-103119.401,-27329.089,-30306.597,-22492.657,-0.036,0.986,-0.097,0.336,-0.122,1.862,80.000,276.000,1.000
-23016.234,-22760.744,-52451.924,-105859.702,-102840.903,-27193.409,-30176.400,-22377.576,-0.037,0.986,-0.094,0.244,-0.122,1.862,80.000,277.000,1.000
-22891.615,-22650.156,-53704.572,-106432.726,-102563.177,-27059.691,-30048.416,-22264.976,-0.036,0.986,-0.095,0.214,0.061,1.953,80.000,278.000,1.000
-22767.657,-22540.250,-54741.367,-107000.594,-102285.627,-26926.789,-29922.488,-22153.478,-0.038,0.987,-0.095,0.183,0.031,1.953,80.000,279.000,1.000
-22644.085,-22430.931,-55586.385,-107563.202,-102007.517,-26794.195,-29797.535,-22042.396,-0.037,0.989,-0.094,0.183,-0.031,1.892,80.000,280.000,1.000
-22520.329,-22321.651,-56552.402,-108118.589,-101728.164,-26661.724,-29672.012,-21931.482,-0.040,0.987,-0.095,0.153,0.092,1.862,80.000,281.000,1.000
-22395.355,-22211.147,-57851.523,-108665.385,-101446.636,-26528.708,-29544.699,-21819.944,-0.042,0.988,-0.094,0.153,0.092,1.678,80.000,282.000,1.000
-22268.534,-22098.428,-59285.635,-109204.666,-101162.129,-26394.368,-29415.328,-21706.566,-0.041,0.986,-0.094,0.000,0.061,1.526,80.000,283.000,1.000
-22140.316,-21983.540,-60484.432,-109738.419,-100874.372,-26258.456,-29283.970,-21590.652,-0.041,0.985,-0.094,-0.092,0.153,1.434,80.000,284.000,1.000
-22011.961,-21867.540,-61397.770,-110267.041,-100583.885,-26121.694,-29150.833,-21473.057,-0.041,0.985,-0.095,-0.153,0.061,1.404,80.000,285.000,1.000
-21884.837,-21751.915,-62367.232,-110789.288,-100291.603,-25985.565,-29016.806,-21355.872,-0.038,0.983,-0.097,-0.275,0.122,1.404,80.000,286.000,1.000
-21759.817,-21637.993,-63679.966,-111304.574,-99998.193,-25851.561,-28883.633,-21240.831,-0.036,0.982,-0.098,-0.214,0.214,1.373,80.000,287.000,1.000
-21637.055,-21526.568,-65209.093,-111814.234,-99703.905,-25720.431,-28753.109,-21128.201,-0.036,0.987,-0.099,-0.031,0.214,1.343,80.000,288.000,1.000
-21516.216,-21417.728,-66607.128,-112320.033,-99408.667,-25591.712,-28625.607,-21017.057,-0.036,0.989,-0.097,0.000,0.153,1.404,80.000,289.000,1.000
-21396.700,-21310.912,-67752.746,-112822.084,-99112.440,-25464.123,-28499.907,-20906.398,-0.036,0.990,-0.093,0.092,0.275,1.434,80.000,290.000,1.000
-21277.608,-21204.894,-68851.434,-113318.548,-98815.179,-25336.081,-28374.062,-20795.499,-0.037,0.990,-0.094,0.061,0.336,1.526,80.000,291.000,1.000
-21157.868,-21098.102,-70124.751,-113807.531,-98516.747,-25206.269,-28246.672,-20683.824,-0.035,0.988,-0.096,-0.061,0.244,1.465,80.000,292.000,1.000
-21036.747,-20989.455,-71548.503,-114288.914,-98217.145,-25074.477,-28117.870,-20571.252,-0.035,0.985,-0.096,0.000,0.305,1.495,80.000,293.000,1.000
-20914.300,-20878.959,-72938.352,-114764.028,-97916.409,-24941.644,-27988.608,-20458.013,-0.035,0.982,-0.099,0.153,0.336,1.526,80.000,294.000,1.000
-20791.381,-20767.690,-74192.814,-115234.142,-97614.764,-24809.243,-27859.711,-20344.599,-0.038,0.979,-0.100,0.092,0.427,1.556,80.000,295.000,1.000
-20669.255,-20657.043,-75370.238,-115699.469,-97312.620,-24678.298,-27731.510,-20231.570,-0.040,0.978,-0.099,0.305,0.275,1.495,80.000,296.000,1.000
-20548.896,-20547.886,-76569.593,-116159.582,-97010.106,-24548.819,-27604.023,-20119.239,-0.043,0.980,-0.100,0.458,0.275,1.556,80.000,297.000,1.000
-20430.305,-20440.203,-77818.279,-116614.241,-96706.944,-24420.093,-27477.155,-20007.391,-0.044,0.981,-0.095,0.519,0.122,1.373,80.000,298.000,1.000
-20312.608,-20333.361,-79078.159,-117063.500,-96402.755,-24291.200,-27350.406,-19895.349,-0.044,0.984,-0.095,0.488,0.092,1.221,80.000,299.000,1.000
-20194.899,-20226.917,-80303.820,-117507.417,-96097.643,-24161.720,-27223.262,-19782.798,-0.045,0.983,-0.099,0.519,0.000,1.190,80.000,300.000,1.000
-20076.769,-20120.866,-81473.817,-117945.543,-95791.871,-24031.784,-27095.535,-19670.086,-0.046,0.984,-0.101,0.549,-0.092,1.129,80.000,301.000,1.000
-19958.219,-20015.387,-82599.737,-118377.198,-95485.365,-23901.903,-26967.594,-19558.108,-0.046,0.983,-0.099,0.549,-0.275,1.129,80.000,302.000,1.000
-19839.503,-19910.582,-83726.367,-118802.497,-95178.092,-23772.926,-26840.603,-19448.224,-0.043,0.985,-0.099,0.610,-0.427,0.977,80.000,303.000,1.000
-19720.990,-19806.127,-84896.639,-119222.480,-94870.151,-23645.272,-26715.418,-19341.134,-0.042,0.985,-0.097,0.641,-0.519,0.946,80.000,304.000,1.000
-19603.044,-19701.398,-86094.913,-119638.288,-94561.778,-23518.593,-26591.712,-19235.976,-0.044,0.987,-0.098,0.641,-0.549,0.702,80.000,305.000,1.000
-19485.860,-19595.839,-87248.188,-120050.078,-94253.008,-23392.064,-26468.126,-19130.757,-0.044,0.986,-0.099,0.671,-0.732,0.824,80.000,306.000,1.000
-19369.234,-19489.202,-88313.460,-120456.872,-93943.276,-23264.853,-26343.157,-19023.670,-0.043,0.987,-0.100,0.671,-0.763,0.854,80.000,307.000,1.000
-19252.701,-19381.797,-89346.806,-120857.861,-93632.013,-23136.765,-26216.285,-18914.325,-0.042,0.987,-0.099,0.671,-0.824,0.854,80.000,308.000,1.000
-19136.025,-19274.484,-90442.722,-121253.477,-93319.230,-23008.298,-26088.019,-18803.851,-0.042,0.988,-0.097,0.641,-0.793,0.763,80.000,309.000,1.000
-19019.418,-19168.389,-91605.770,-121645.066,-93005.642,-22880.424,-25959.597,-18694.210,-0.042,0.987,-0.099,0.580,-0.824,0.793,80.000,310.000,1.000
-18903.429,-19064.394,-92730.250,-122034.027,-92692.365,-22754.215,-25832.551,-18587.093,-0.041,0.988,-0.099,0.549,-0.854,0.793,80.000,311.000,1.000
-18788.451,-18962.548,-93731.889,-122421.102,-92380.233,-22630.211,-25707.814,-18482.895,-0.041,0.988,-0.099,0.488,-0.885,0.977,80.000,312.000,1.000
-18674.150,-18861.671,-94662.564,-122805.457,-92068.985,-22507.761,-25584.895,-18380.455,-0.041,0.985,-0.099,0.519,-1.007,1.007,80.000,313.000,1.000
-18559.718,-18759.956,-95645.539,-123184.694,-91757.123,-22385.185,-25462.079,-18277.981,-0.041,0.986,-0.100,0.458,-1.038,1.099,80.000,314.000,1.000
-18444.777,-18656.550,-96709.429,-123556.838,-91443.404,-22261.451,-25338.345,-18174.690,-0.038,0.986,-0.100,0.549,-1.007,1.190,80.000,315.000,1.000
-18329.783,-18552.140,-97747.997,-123922.086,-91128.098,-22137.073,-25214.279,-18071.113,-0.041,0.986,-0.099,0.488,-1.099,1.282,80.000,316.000,1.000
-18215.496,-18448.056,-98667.414,-124282.314,-90812.569,-22013.171,-25090.995,-17968.049,-0.040,0.989,-0.100,0.397,-1.099,1.373,80.000,317.000,1.000
-18102.250,-18345.137,-99520.528,-124638.884,-90497.980,-21890.210,-24968.903,-17865.672,-0.039,0.987,-0.096,0.305,-1.160,1.465,80.000,318.000,1.000
-17989.788,-18243.324,-100438.431,-124991.253,-90184.239,-21767.559,-24847.256,-17763.225,-0.040,0.987,-0.097,0.305,-1.160,1.526,80.000,319.000,1.000
-17877.615,-18142.150,-101449.421,-125338.033,-89870.427,-21644.422,-24725.122,-17659.659,-0.037,0.987,-0.100,0.183,-1.221,1.526,80.000,320.000,1.000
-17765.402,-18041.254,-102436.975,-125678.814,-89555.749,-21520.827,-24602.270,-17554.527,-0.040,0.987,-0.097,0.214,-1.129,1.465,80.000,321.000,1.000
-17653.241,-17940.657,-103299.522,-126014.861,-89240.044,-21397.761,-24479.157,-17448.422,-0.039,0.985,-0.097,0.092,-1.160,1.465,80.000,322.000,1.000
-17541.585,-17840.701,-104091.797,-126347.959,-88923.566,-21276.459,-24356.527,-17342.644,-0.037,0.984,-0.098,0.031,-1.190,1.617,80.000,323.000,1.000
-17430.849,-17741.556,-104950.138,-126678.689,-88606.228,-21157.307,-24234.758,-17238.329,-0.036,0.983,-0.097,0.000,-1.068,1.587,80.000,324.000,1.000
-17321.129,-17643.140,-105904.906,-127006.458,-88287.945,-21039.963,-24114.143,-17136.185,-0.036,0.984,-0.099,-0.031,-1.099,1.587,80.000,325.000,1.000
-17212.219,-17545.222,-106839.574,-127330.429,-87969.104,-20923.863,-23994.960,-17036.295,-0.036,0.983,-0.098,-0.153,-1.068,1.465,80.000,326.000,1.000
-17103.744,-17447.445,-107652.794,-127649.788,-87650.058,-20808.192,-23876.850,-16937.976,-0.037,0.980,-0.098,-0.122,-1.099,1.526,80.000,327.000,1.000
-16995.284,-17349.432,-108397.998,-127963.766,-87330.730,-20692.037,-23758.824,-16840.102,-0.037,0.979,-0.098,-0.122,-1.068,1.495,80.000,328.000,1.000
-16886.414,-17250.721,-109207.309,-128271.706,-87010.569,-20574.580,-23639.616,-16741.322,-0.036,0.980,-0.095,-0.031,-0.977,1.434,80.000,329.000,1.000
-16776.720,-17150.831,-110108.002,-128573.301,-86689.090,-20455.447,-23518.492,-16640.584,-0.035,0.980,-0.099,-0.061,-0.977,1.312,80.000,330.000,1.000
-16666.117,-17049.566,-110986.401,-128868.978,-86366.394,-20334.892,-23395.828,-16537.947,-0.037,0.980,-0.097,-0.031,-1.007,1.221,80.000,331.000,1.000
-16555.072,-16947.335,-111747.244,-129159.960,-86043.157,-20213.581,-23272.925,-16434.773,-0.035,0.981,-0.099,0.061,-0.916,1.251,80.000,332.000,1.000
-16444.313,-16845.093,-112444.067,-129447.714,-85720.336,-20092.347,-23151.247,-16332.679,-0.036,0.983,-0.099,-0.061,-0.977,1.129,80.000,333.000,1.000
-16334.504,-16744.015,-113199.289,-129733.533,-85398.765,-19972.162,-23031.583,-16232.264,-0.035,0.982,-0.097,-0.092,-0.854,1.038,80.000,334.000,1.000
-16226.019,-16645.101,-114030.934,-130018.256,-85079.018,-19854.213,-22914.172,-16133.230,-0.036,0.981,-0.097,-0.092,-0.854,1.129,80.000,335.000,1.000
-16118.602,-16548.329,-114829.151,-130301.012,-84760.817,-19738.926,-22798.441,-16034.748,-0.036,0.982,-0.095,-0.061,-0.763,1.038,80.000,336.000,1.000
-16011.308,-16452.303,-115511.119,-130578.709,-84442.636,-19625.095,-22682.562,-15935.566,-0.037,0.983,-0.098,0.000,-0.763,1.099,80.000,337.000,1.000
-15903.280,-16355.371,-116137.148,-130848.199,-84122.813,-19510.965,-22564.585,-15834.931,-0.038,0.985,-0.096,-0.061,-0.671,0.885,80.000,338.000,1.000
-15794.509,-16256.996,-116830.405,-131108.915,-83800.749,-19395.760,-22443.957,-15733.559,-0.037,0.986,-0.093,0.000,-0.702,0.824,80.000,339.000,1.000
-15685.491,-16157.810,-117614.971,-131362.785,-83476.955,-19279.976,-22321.895,-15633.284,-0.036,0.986,-0.099,-0.061,-0.641,0.763,80.000,340.000,1.000
-15576.547,-16058.584,-118391.740,-131611.843,-83152.088,-19164.315,-22199.975,-15535.386,-0.038,0.985,-0.099,-0.031,-0.610,0.824,80.000,341.000,1.000
-15467.915,-15959.755,-119077.019,-131856.914,-82826.428,-19048.862,-22078.819,-15439.454,-0.039,0.983,-0.099,-0.153,-0.549,0.671,80.000,342.000,1.000
-15360.051,-15861.630,-119710.700,-132098.257,-82500.316,-18933.285,-21958.309,-15343.854,-0.040,0.986,-0.097,-0.092,-0.641,0.702,80.000,343.000,1.000
-15253.312,-15764.316,-120393.097,-132336.303,-82174.184,-18817.073,-21838.044,-15246.943,-0.040,0.987,-0.097,-0.214,-0.580,0.641,80.000,344.000,1.000
-15147.379,-15667.624,-121146.882,-132571.492,-81848.275,-18699.944,-21717.868,-15148.211,-0.039,0.987,-0.097,-0.244,-0.610,0.549,80.000,345.000,1.000
-15041.387,-15571.214,-121892.264,-132803.489,-81522.339,-18582.160,-21597.992,-15048.329,-0.038,0.987,-0.094,-0.275,-0.519,0.488,80.000,346.000,1.000
-14934.756,-15475.033,-122559.935,-133031.320,-81195.868,-18464.659,-21478.911,-14948.534,-0.041,0.988,-0.095,-0.183,-0.580,0.549,80.000,347.000,1.000
-14827.706,-15379.470,-123181.869,-133254.455,-80868.797,-18348.743,-21361.287,-14849.959,-0.041,0.986,-0.095,-0.244,-0.671,0.580,80.000,348.000,1.000
-14720.947,-15284.704,-123841.064,-133473.224,-80541.484,-18234.960,-21245.173,-14752.778,-0.042,0.986,-0.095,-0.366,-0.641,0.610,80.000,349.000,1.000
-14615.222,-15190.434,-124558.275,-133688.440,-80214.539,-18122.750,-21129.993,-14656.283,-0.041,0.986,-0.097,-0.366,-0.671,0.641,80.000,350.000,1.000
-14511.112,-15096.303,-125270.097,-133900.515,-79888.387,-18010.989,-21014.936,-14559.639,-0.042,0.985,-0.099,-0.458,-0.793,0.641,80.000,351.000,1.000
-14408.834,-15002.348,-125919.292,-134108.908,-79562.800,-17898.688,-20899.247,-14462.458,-0.041,0.985,-0.095,-0.458,-0.824,0.610,80.000,352.000,1.000
-14308.119,-14909.020,-126529.190,-134312.844,-79237.336,-17785.675,-20782.773,-14365.118,-0.042,0.989,-0.096,-0.519,-0.824,0.793,80.000,353.000,1.000
-14208.286,-14816.624,-127165.678,-134512.268,-78911.789,-17672.398,-20665.829,-14268.426,-0.042,0.988,-0.097,-0.549,-0.946,0.732,80.000,354.000,1.000
-14108.252,-14724.807,-127846.788,-134707.489,-78586.022,-17559.155,-20548.548,-14172.730,-0.042,0.985,-0.094,-0.519,-1.038,0.854,80.000,355.000,1.000
-14006.887,-14632.584,-128523.072,-134898.233,-78259.481,-17445.540,-20430.311,-14077.201,-0.043,0.984,-0.095,-0.549,-1.068,0.916,80.000,356.000,1.000
-13903.875,-14539.261,-129148.168,-135084.033,-77931.587,-17331.102,-20310.512,-13980.812,-0.042,0.986,-0.096,-0.671,-1.099,0.977,80.000,357.000,1.000
-13800.078,-14445.228,-129738.773,-135265.182,-77602.638,-17216.465,-20189.971,-13884.046,-0.043,0.985,-0.095,-0.702,-1.160,1.129,80.000,358.000,1.000
-13696.871,-14351.600,-130346.630,-135442.591,-77273.493,-17103.003,-20070.588,-13788.727,-0.042,0.984,-0.097,-0.610,-1.190,1.129,80.000,359.000,1.000
-13595.189,-14259.366,-130988.512,-135616.997,-76944.885,-16991.830,-19954.116,-13696.548,-0.041,0.984,-0.096,-0.610,-1.282,1.129,80.000,360.000,1.000
-13495.077,-14168.575,-131629.092,-135788.266,-76616.975,-16882.875,-19840.960,-13607.756,-0.041,0.981,-0.098,-0.671,-1.312,1.312,80.000,361.000,1.000
-13395.823,-14078.259,-132232.676,-135955.572,-76289.482,-16774.809,-19729.859,-13520.892,-0.041,0.981,-0.095,-0.641,-1.282,1.312,80.000,362.000,1.000
-13296.414,-13987.117,-132809.110,-136118.079,-75962.291,-16665.959,-19618.781,-13433.508,-0.041,0.980,-0.094,-0.610,-1.373,1.465,80.000,363.000,1.000
-13196.023,-13894.239,-133395.078,-136275.220,-75635.364,-16555.022,-19505.802,-13343.121,-0.040,0.984,-0.095,-0.610,-1.251,1.465,80.000,364.000,1.000
-13094.466,-13799.776,-134003.435,-136427.029,-75308.564,-16441.776,-19390.180,-13248.644,-0.040,0.987,-0.096,-0.488,-1.282,1.465,80.000,365.000,1.000
-12992.400,-13705.031,-134609.665,-136574.274,-74981.734,-16327.356,-19272.770,-13151.209,-0.040,0.985,-0.094,-0.488,-1.251,1.526,80.000,366.000,1.000
-12890.813,-13611.641,-135187.793,-136718.027,-74654.814,-16213.659,-19155.319,-13053.405,-0.040,0.985,-0.095,-0.366,-1.312,1.526,80.000,367.000,1.000
-12790.238,-13520.508,-135743.436,-136859.086,-74327.987,-16102.371,-19039.491,-12957.679,-0.039,0.983,-0.095,-0.488,-1.282,1.709,80.000,368.000,1.000
-12690.609,-13431.308,-136302.241,-136997.728,-74001.442,-15993.998,-18925.940,-12865.050,-0.038,0.984,-0.093,-0.366,-1.312,1.709,80.000,369.000,1.000
-12591.531,-13342.917,-136874.896,-137133.760,-73675.317,-15887.741,-18814.228,-12774.906,-0.037,0.983,-0.094,-0.336,-1.221,1.740,80.000,370.000,1.000
-12492.479,-13254.055,-137445.932,-137266.538,-73349.531,-15781.911,-18703.113,-12685.582,-0.036,0.985,-0.094,-0.366,-1.221,1.709,80.000,371.000,1.000
-12393.108,-13164.034,-137996.898,-137395.359,-73023.743,-15674.872,-18591.322,-12595.621,-0.036,0.986,-0.094,-0.366,-1.251,1.617,80.000,372.000,1.000
-12293.538,-13073.180,-138529.734,-137519.978,-72697.714,-15566.119,-18478.609,-12504.824,-0.036,0.986,-0.093,-0.305,-1.160,1.678,80.000,373.000,1.000
-12194.141,-12982.288,-139060.910,-137640.612,-72371.295,-15456.242,-18365.573,-12413.835,-0.036,0.985,-0.092,-0.336,-1.160,1.678,80.000,374.000,1.000
-12095.126,-12891.870,-139598.855,-137757.725,-72044.442,-15346.298,-18252.947,-12323.216,-0.034,0.985,-0.093,-0.244,-1.099,1.709,80.000,375.000,1.000
-11996.550,-12801.873,-140135.247,-137871.703,-71717.264,-15237.137,-18140.925,-12232.931,-0.033,0.985,-0.093,-0.305,-0.977,1.678,80.000,376.000,1.000
-11898.591,-12712.009,-140658.186,-137982.705,-71390.146,-15129.127,-18029.043,-12142.544,-0.034,0.986,-0.092,-0.305,-0.916,1.709,80.000,377.000,1.000
-11801.533,-12622.181,-141167.146,-138090.788,-71063.754,-15022.378,-17916.844,-12051.820,-0.034,0.987,-0.092,-0.305,-0.824,1.648,80.000,378.000,1.000
-11705.614,-12532.610,-141671.229,-138195.994,-70738.473,-14916.813,-17804.414,-11961.190,-0.034,0.989,-0.094,-0.366,-0.763,1.617,80.000,379.000,1.000
-11610.803,-12443.734,-142176.642,-138298.212,-70414.116,-14812.300,-17692.586,-11871.783,-0.036,0.986,-0.095,-0.275,-0.732,1.526,80.000,380.000,1.000
-11516.586,-12355.758,-142680.086,-138396.745,-70089.832,-14708.287,-17581.925,-11784.172,-0.035,0.985,-0.094,-0.366,-0.641,1.434,80.000,381.000,1.000
-11422.177,-12268.508,-143174.358,-138490.667,-69764.471,-14603.727,-17471.913,-11697.550,-0.037,0.983,-0.094,-0.427,-0.610,1.373,80.000,382.000,1.000
-11327.125,-12181.796,-143657.252,-138579.883,-69437.606,-14498.025,-17361.803,-11610.749,-0.036,0.983,-0.094,-0.397,-0.549,1.343,80.000,383.000,1.000
-11231.632,-12095.576,-144132.865,-138665.241,-69109.729,-14391.497,-17251.274,-11523.200,-0.036,0.984,-0.091,-0.244,-0.549,1.343,80.000,384.000,1.000
-11136.218,-12009.846,-144606.370,-138747.728,-68781.874,-14285.053,-17140.470,-11434.918,-0.035,0.985,-0.090,-0.305,-0.458,1.251,80.000,385.000,1.000
-11041.250,-11924.401,-145079.077,-138827.749,-68455.038,-14179.514,-17029.719,-11346.233,-0.038,0.985,-0.093,-0.275,-0.427,1.190,80.000,386.000,1.000
-10946.712,-11838.710,-145547.796,-138904.944,-68129.538,-14075.122,-16919.320,-11257.765,-0.039,0.986,-0.094,-0.275,-0.458,1.068,80.000,387.000,1.000
-10852.196,-11752.056,-146008.130,-138978.438,-67804.863,-13971.418,-16809.435,-11169.959,-0.039,0.986,-0.092,-0.214,-0.427,1.068,80.000,388.000,1.000
-10757.338,-11664.032,-146458.706,-139047.591,-67480.040,-13867.467,-16699.787,-11082.436,-0.038,0.984,-0.093,-0.244,-0.458,1.068,80.000,389.000,1.000
-10662.353,-11575.283,-146902.911,-139112.805,-67154.530,-13762.970,-16590.301,-10994.802,-0.039,0.984,-0.094,-0.153,-0.488,1.068,80.000,390.000,1.000
-10567.888,-11487.235,-147345.366,-139175.153,-66828.393,-13658.667,-16481.481,-10907.595,-0.038,0.984,-0.093,-0.183,-0.397,1.038,80.000,391.000,1.000
-10474.382,-11401.065,-147786.553,-139235.521,-66501.926,-13555.614,-16373.911,-10821.890,-0.040,0.984,-0.091,-0.122,-0.427,1.099,80.000,392.000,1.000
-10381.825,-11317.148,-148222.240,-139294.288,-66175.779,-13454.591,-16267.941,-10738.379,-0.040,0.984,-0.092,-0.031,-0.458,1.007,80.000,393.000,1.000
-10289.956,-11234.985,-148648.571,-139351.249,-65850.669,-13355.569,-16163.226,-10656.605,-0.039,0.983,-0.094,-0.031,-0.519,0.946,80.000,394.000,1.000
-10198.437,-11153.443,-149067.114,-139405.588,-65526.819,-13257.628,-16058.659,-10574.945,-0.043,0.985,-0.091,0.031,-0.671,0.916,80.000,395.000,1.000
-10107.057,-11071.237,-149483.025,-139456.043,-65203.741,-13159.368,-15952.759,-10491.365,-0.041,0.985,-0.094,0.061,-0.641,0.885,80.000,396.000,1.000
-10015.945,-10987.644,-149898.170,-139501.674,-64880.683,-13059.635,-15844.476,-10404.752,-0.040,0.987,-0.092,-0.061,-0.671,0.885,80.000,397.000,1.000
-9925.377,-10902.753,-150308.089,-139542.523,-64557.220,-12958.089,-15733.948,-10315.685,-0.039,0.987,-0.094,-0.031,-0.793,0.854,80.000,398.000,1.000
-9835.328,-10817.013,-150707.094,-139579.408,-64233.119,-12854.997,-15622.173,-10225.673,-0.042,0.987,-0.092,0.000,-0.763,0.854,80.000,399.000,1.000
-9745.381,-10731.087,-151095.835,-139613.402,-63908.498,-12751.243,-15510.643,-10136.175,-0.042,0.985,-0.090,0.092,-0.885,0.946,80.000,400.000,1.000
-9655.150,-10645.795,-151480.950,-139645.278,-63584.059,-12648.224,-15400.805,-10048.140,-0.042,0.986,-0.089,0.153,-0.885,0.977,80.000,401.000,1.000
-9564.737,-10561.890,-151866.732,-139675.347,-63260.839,-12547.244,-15293.404,-9962.146,-0.042,0.985,-0.092,0.092,-0.916,0.977,80.000,402.000,1.000
-9474.727,-10479.805,-152249.891,-139703.541,-62939.662,-12448.841,-15188.375,-9878.581,-0.043,0.985,-0.094,0.061,-1.068,0.977,80.000,403.000,1.000
-9385.654,-10399.322,-152624.161,-139729.267,-62620.303,-12352.219,-15084.777,-9797.194,-0.042,0.986,-0.093,0.031,-0.977,0.977,80.000,404.000,1.000
-9297.534,-10319.631,-152988.981,-139751.705,-62301.627,-12255.832,-14981.473,-9717.153,-0.042,0.984,-0.093,0.092,-1.007,1.007,80.000,405.000,1.000
-9209.936,-10239.650,-153350.146,-139770.380,-61982.466,-12158.385,-14877.742,-9637.496,-0.042,0.984,-0.095,0.153,-1.129,1.007,80.000,406.000,1.000
-9122.271,-10158.451,-153711.248,-139785.297,-61662.235,-12059.329,-14773.309,-9557.262,-0.040,0.982,-0.091,0.183,-1.129,1.129,80.000,407.000,1.000
-9034.027,-10075.654,-154067.948,-139796.627,-61341.050,-11958.961,-14668.331,-9475.642,-0.042,0.981,-0.094,0.214,-1.251,1.099,80.000,408.000,1.000
-8945.034,-9991.447,-154413.151,-139804.433,-61019.151,-11857.926,-14562.901,-9392.228,-0.041,0.982,-0.092,0.336,-1.251,1.068,80.000,409.000,1.000
-8855.600,-9906.573,-154746.669,-139808.944,-60696.802,-11756.853,-14456.965,-9307.234,-0.041,0.982,-0.093,0.397,-1.282,1.038,80.000,410.000,1.000
-8766.398,-9822.146,-155076.055,-139810.800,-60374.613,-11656.310,-14350.675,-9221.285,-0.041,0.983,-0.094,0.397,-1.251,1.160,80.000,411.000,1.000
-8678.049,-9739.270,-155407.237,-139810.851,-60053.491,-11556.988,-14244.759,-9135.253,-0.039,0.983,-0.094,0.519,-1.404,1.129,80.000,412.000,1.000
-8590.685,-9658.565,-155737.459,-139809.586,-59734.194,-11459.668,-14140.422,-9050.217,-0.039,0.983,-0.096,0.488,-1.495,1.129,80.000,413.000,1.000
-8504.038,-9579.846,-156059.610,-139806.818,-59416.815,-11364.513,-14038.256,-8966.880,-0.040,0.983,-0.092,0.580,-1.587,1.068,80.000,414.000,1.000
-8417.885,-9502.388,-156372.004,-139802.024,-59100.970,-11270.841,-13937.785,-8885.209,-0.040,0.984,-0.093,0.488,-1.556,0.916,80.000,415.000,1.000
-8332.185,-9425.299,-156679.933,-139794.533,-58785.907,-11177.468,-13837.779,-8804.613,-0.039,0.984,-0.092,0.671,-1.556,1.007,80.000,416.000,1.000
-8246.769,-9347.795,-156987.444,-139783.563,-58470.572,-11083.312,-13736.942,-8724.438,-0.040,0.984,-0.092,0.610,-1.617,1.007,80.000,417.000,1.000
-8161.221,-9269.417,-157291.309,-139768.416,-58154.174,-10988.045,-13634.795,-8644.428,-0.040,0.982,-0.094,0.732,-1.648,1.068,80.000,418.000,1.000
-8075.284,-9190.189,-157585.249,-139748.754,-57836.562,-10892.177,-13531.820,-8564.836,-0.039,0.983,-0.094,0.671,-1.495,1.068,80.000,419.000,1.000
-7989.273,-9110.733,-157868.827,-139725.070,-57518.432,-10796.805,-13429.189,-8486.315,-0.038,0.983,-0.093,0.702,-1.648,1.068,80.000,420.000,1.000
-7903.814,-9031.704,-158148.485,-139698.579,-57200.794,-10702.718,-13327.757,-8408.990,-0.038,0.985,-0.094,0.732,-1.587,1.068,80.000,421.000,1.000
-7819.198,-8953.148,-158429.341,-139670.397,-56884.179,-10609.665,-13227.321,-8331.855,-0.040,0.985,-0.095,0.732,-1.617,1.038,80.000,422.000,1.000
-7735.226,-8874.657,-158709.019,-139640.752,-56568.523,-10516.710,-13127.192,-8253.643,-0.039,0.986,-0.095,0.732,-1.556,0.916,80.000,423.000,1.000
-7651.568,-8795.877,-158981.162,-139609.033,-56253.217,-10422.920,-13026.814,-8174.010,-0.039,0.984,-0.095,0.702,-1.587,0.977,80.000,424.000,1.000
-7568.068,-8716.988,-159243.915,-139575.147,-55937.697,-10328.275,-12926.372,-8094.098,-0.039,0.986,-0.098,0.641,-1.617,1.007,80.000,425.000,1.000
-7484.870,-8638.691,-159501.888,-139540.614,-55621.963,-10233.832,-12826.673,-8015.826,-0.038,0.986,-0.097,0.580,-1.526,1.038,80.000,426.000,1.000
-7402.343,-8561.714,-159759.460,-139507.690,-55306.521,-10140.851,-12728.369,-7940.447,-0.038,0.986,-0.095,0.580,-1.465,0.977,80.000,427.000,1.000
-7320.665,-8486.172,-160015.013,-139476.928,-54992.036,-10049.892,-12631.422,-7867.514,-0.038,0.988,-0.094,0.488,-1.495,1.007,80.000,428.000,1.000
-7239.450,-8411.252,-160263.334,-139445.715,-54678.631,-9960.318,-12534.773,-7794.902,-0.036,0.987,-0.096,0.519,-1.434,0.977,80.000,429.000,1.000
-7157.892,-8335.771,-160502.592,-139409.496,-54365.793,-9870.785,-12437.025,-7720.228,-0.037,0.986,-0.094,0.488,-1.434,0.977,80.000,430.000,1.000
-7075.369,-8259.002,-160736.085,-139364.260,-54052.693,-9779.973,-12337.332,-7642.271,-0.036,0.987,-0.095,0.427,-1.312,0.916,80.000,431.000,1.000
-6991.904,-8181.150,-160967.154,-139308.778,-53738.698,-9687.246,-12235.913,-7561.597,-0.038,0.988,-0.095,0.366,-1.312,0.946,80.000,432.000,1.000
-6908.113,-8103.171,-161194.996,-139245.322,-53424.029,-9593.084,-12134.086,-7480.235,-0.040,0.988,-0.097,0.305,-1.190,0.946,80.000,433.000,1.000
-6824.838,-8026.002,-161416.610,-139178.154,-53109.563,-9498.471,-12033.160,-7400.265,-0.040,0.987,-0.096,0.183,-1.129,0.854,80.000,434.000,1.000
-6742.745,-7950.123,-161632.020,-139111.106,-52796.257,-9404.342,-11933.733,-7322.846,-0.040,0.987,-0.094,0.061,-1.099,0.885,80.000,435.000,1.000
-6662.061,-7875.505,-161845.012,-139045.782,-52484.660,-9311.407,-11835.752,-7248.154,-0.039,0.988,-0.092,0.000,-1.221,0.946,80.000,436.000,1.000
-6582.412,-7801.650,-162058.126,-138981.310,-52174.690,-9219.966,-11738.766,-7175.533,-0.039,0.988,-0.092,-0.122,-1.129,0.946,80.000,437.000,1.000
-6502.842,-7727.637,-162268.831,-138915.415,-51865.635,-9129.694,-11642.171,-7103.661,-0.038,0.988,-0.095,-0.153,-1.129,0.793,80.000,438.000,1.000
-6422.454,-7652.498,-162471.968,-138845.991,-51556.300,-9039.601,-11545.287,-7031.128,-0.038,0.988,-0.092,-0.153,-1.190,0.763,80.000,439.000,1.000
-6341.192,-7575.980,-162665.594,-138772.284,-51245.851,-8948.685,-11447.833,-6957.304,-0.039,0.985,-0.092,-0.305,-1.099,0.916,80.000,440.000,1.000
-6259.718,-7498.588,-162852.359,-138694.619,-50934.168,-8856.303,-11349.798,-6882.237,-0.039,0.985,-0.097,-0.336,-1.038,0.824,80.000,441.000,1.000
-6178.665,-7421.138,-163035.435,-138613.714,-50621.576,-8762.378,-11251.213,-6806.269,-0.039,0.983,-0.093,-0.336,-1.068,0.793,80.000,442.000,1.000
-6098.351,-7344.641,-163215.198,-138530.541,-50308.961,-8667.882,-11152.628,-6730.121,-0.040,0.984,-0.093,-0.366,-1.099,0.763,80.000,443.000,1.000
-6018.995,-7270.061,-163390.235,-138446.170,-49997.619,-8574.519,-11054.973,-6654.562,-0.041,0.984,-0.094,-0.336,-1.068,0.824,80.000,444.000,1.000
-5940.810,-7197.879,-163560.752,-138361.516,-49688.943,-8483.957,-10959.195,-6580.093,-0.042,0.984,-0.095,-0.275,-1.068,0.702,80.000,445.000,1.000
-5863.898,-7127.764,-163729.224,-138277.035,-49383.873,-8397.029,-10865.822,-6506.951,-0.042,0.984,-0.095,-0.305,-1.099,0.641,80.000,446.000,1.000
-5788.209,-7058.888,-163897.399,-138192.532,-49082.429,-8313.402,-10774.656,-6435.212,-0.041,0.985,-0.094,-0.244,-1.068,0.793,80.000,447.000,1.000
-5713.479,-6990.416,-164063.811,-138107.098,-48783.721,-8231.856,-10684.833,-6364.572,-0.043,0.984,-0.093,-0.122,-1.190,0.793,80.000,448.000,1.000
-5639.119,-6921.545,-164224.852,-138019.300,-48486.032,-8150.554,-10594.858,-6294.024,-0.043,0.982,-0.093,-0.244,-1.190,0.824,80.000,449.000,1.000
-5564.382,-6851.681,-164378.501,-137927.991,-48187.562,-8067.904,-10503.550,-6222.598,-0.041,0.980,-0.095,-0.092,-1.221,0.916,80.000,450.000,1.000
-5488.824,-6780.664,-164525.890,-137832.917,-47887.188,-7983.222,-10410.689,-6150.075,-0.040,0.981,-0.097,-0.061,-1.282,0.946,80.000,451.000,1.000
-5412.514,-6708.763,-164669.092,-137734.619,-47584.612,-7896.626,-10316.616,-6076.722,-0.041,0.980,-0.094,-0.061,-1.251,1.099,80.000,452.000,1.000
-5335.758,-6636.418,-164808.471,-137633.777,-47280.332,-7808.724,-10221.794,-6002.869,-0.041,0.980,-0.094,0.153,-1.129,1.038,80.000,453.000,1.000
-5258.793,-6563.864,-164942.495,-137530.566,-46975.285,-7720.213,-10126.534,-5928.860,-0.040,0.981,-0.094,0.214,-1.129,1.038,80.000,454.000,1.000
-5181.769,-6491.264,-165070.091,-137424.866,-46670.669,-7631.945,-10031.413,-5855.466,-0.040,0.984,-0.093,0.122,-1.190,1.099,80.000,455.000,1.000
-5104.879,-6418.973,-165192.109,-137316.735,-46367.670,-7544.842,-9937.452,-5783.756,-0.041,0.983,-0.093,0.153,-1.190,1.190,80.000,456.000,1.000
-5028.279,-6347.377,-165310.117,-137206.286,-46066.956,-7459.357,-9845.449,-5714.175,-0.042,0.984,-0.095,0.122,-1.190,1.251,80.000,457.000,1.000
-4951.864,-6276.428,-165424.630,-137093.255,-45768.425,-7375.136,-9755.300,-5645.897,-0.040,0.983,-0.093,0.061,-1.068,1.160,80.000,458.000,1.000
-4875.401,-6205.560,-165534.915,-136977.191,-45471.143,-7291.194,-9665.813,-5577.323,-0.041,0.983,-0.095,0.153,-1.221,1.343,80.000,459.000,1.000
-4798.827,-6134.268,-165640.440,-136858.140,-45173.936,-7206.765,-9575.719,-5507.513,-0.039,0.985,-0.097,0.122,-1.160,1.312,80.000,460.000,1.000
-4722.319,-6062.425,-165741.485,-136736.632,-44875.940,-7121.644,-9484.374,-5436.561,-0.038,0.987,-0.096,0.244,-1.038,1.221,80.000,461.000,1.000
-4646.296,-5990.344,-165838.584,-136613.379,-44576.847,-7036.110,-9391.845,-5365.033,-0.036,0.985,-0.094,0.214,-1.099,1.404,80.000,462.000,1.000
-4571.444,-5918.822,-165932.200,-136489.195,-44277.201,-6950.981,-9299.040,-5293.815,-0.036,0.988,-0.093,0.214,-0.946,1.373,80.000,463.000,1.000
-4498.404,-5848.747,-166022.614,-136364.653,-43978.036,-6866.960,-9207.016,-5223.716,-0.034,0.986,-0.094,0.092,-0.946,1.587,80.000,464.000,1.000
-4427.120,-5780.456,-166110.076,-136239.591,-43680.292,-6784.008,-9116.259,-5154.794,-0.035,0.985,-0.098,-0.031,-0.793,1.587,80.000,465.000,1.000
-4356.710,-5713.431,-166194.641,-136113.088,-43384.302,-6701.460,-9026.524,-5086.343,-0.034,0.985,-0.100,0.061,-0.641,1.526,80.000,466.000,1.000
-4286.118,-5646.800,-166276.037,-135984.335,-43089.822,-6618.848,-8937.403,-5017.963,-0.034,0.987,-0.097,0.183,-0.641,1.709,80.000,467.000,1.000
-4214.756,-5580.033,-166353.807,-135853.314,-42796.514,-6536.552,-8848.890,-4950.140,-0.031,0.987,-0.097,0.214,-0.671,1.831,80.000,468.000,1.000
-4142.572,-5512.996,-166427.151,-135720.246,-42503.810,-6455.223,-8760.811,-4883.307,-0.032,0.987,-0.101,0.244,-0.580,1.801,80.000,469.000,1.000
-4069.802,-5445.770,-166495.306,-135584.993,-42210.920,-6375.104,-8672.613,-4817.180,-0.033,0.988,-0.099,0.244,-0.427,1.801,80.000,470.000,1.000
-3996.838,-5378.466,-166558.283,-135447.220,-41917.367,-6295.804,-8583.694,-4750.904,-0.032,0.988,-0.098,0.183,-0.366,1.892,80.000,471.000,1.000
-3924.272,-5311.236,-166617.035,-135306.908,-41623.460,-6216.550,-8493.753,-4683.622,-0.032,0.989,-0.099,0.183,-0.275,1.953,80.000,472.000,1.000
-3852.724,-5244.245,-166672.650,-135164.293,-41330.031,-6136.651,-8403.029,-4615.120,-0.034,0.985,-0.101,0.122,-0.183,1.923,80.000,473.000,1.000
-3782.453,-5177.447,-166725.174,-135019.406,-41037.471,-6055.668,-8312.012,-4545.982,-0.037,0.984,-0.099,0.153,-0.031,1.831,80.000,474.000,1.000
-3713.209,-5110.698,-166773.783,-134872.119,-40745.705,-5973.753,-8221.465,-4477.412,-0.040,0.984,-0.098,0.183,-0.122,1.648,80.000,475.000,1.000
-3644.421,-5043.911,-166817.595,-134722.432,-40454.644,-5891.485,-8132.064,-4410.309,-0.042,0.984,-0.094,0.214,-0.122,1.465,80.000,476.000,1.000
-3575.451,-4977.085,-166856.210,-134570.627,-40164.218,-5809.280,-8043.736,-4344.323,-0.046,0.984,-0.094,0.122,-0.183,1.251,80.000,477.000,1.000
-3505.852,-4910.403,-166889.865,-134417.127,-39874.317,-5727.444,-7955.917,-4278.304,-0.047,0.985,-0.095,0.183,-0.244,0.977,80.000,478.000,1.000
-3435.787,-4844.343,-166919.010,-134262.255,-39584.726,-5646.547,-7868.318,-4211.725,-0.049,0.987,-0.092,0.092,-0.427,0.732,80.000,479.000,1.000
-3366.034,-4779.594,-166944.290,-134106.383,-39295.477,-5567.491,-7781.501,-4145.407,-0.050,0.989,-0.095,0.061,-0.549,0.336,80.000,480.000,1.000
-3297.307,-4716.396,-166966.557,-133949.897,-39006.760,-5490.533,-7696.106,-4080.398,-0.050,0.991,-0.096,-0.061,-0.763,0.122,80.000,481.000,1.000
-3229.668,-4654.221,-166986.674,-133792.874,-38718.532,-5414.627,-7611.981,-4016.908,-0.047,0.990,-0.093,-0.275,-0.824,-0.092,80.000,482.000,1.000
-3162.679,-4592.220,-167005.322,-133634.862,-38430.744,-5338.219,-7528.487,-3954.471,-0.045,0.991,-0.094,-0.336,-0.885,-0.214,80.000,483.000,1.000
-3095.852,-4529.565,-167022.315,-133474.866,-38143.415,-5260.130,-7444.667,-3892.050,-0.045,0.990,-0.093,-0.427,-1.129,-0.305,80.000,484.000,1.000
-3028.860,-4465.768,-167036.451,-133311.875,-37856.586,-5180.198,-7359.804,-3828.566,-0.044,0.990,-0.090,-0.397,-1.312,-0.244,80.000,485.000,1.000
-2961.684,-4401.009,-167046.306,-133145.574,-37570.343,-5099.512,-7274.219,-3763.952,-0.044,0.993,-0.093,-0.519,-1.343,-0.214,80.000,486.000,1.000
-2894.577,-4336.024,-167051.313,-132976.678,-37284.805,-5019.827,-7189.174,-3699.456,-0.042,0.993,-0.091,-0.580,-1.373,-0.214,80.000,487.000,1.000
-2827.564,-4271.268,-167051.840,-132806.214,-36999.858,-4942.257,-7105.584,-3636.411,-0.043,0.990,-0.091,-0.671,-1.373,-0.092,80.000,488.000,1.000
-2760.201,-4206.376,-167048.165,-132634.369,-36714.815,-4866.252,-7022.688,-3574.693,-0.042,0.990,-0.092,-0.641,-1.373,-0.031,80.000,489.000,1.000
-2692.120,-4141.044,-167040.450,-132460.546,-36429.269,-4790.637,-6939.071,-3513.043,-0.045,0.986,-0.093,-0.702,-1.495,0.183,80.000,490.000,1.000
-2623.552,-4075.763,-167029.123,-132284.187,-36143.746,-4715.042,-6854.357,-3450.474,-0.043,0.985,-0.091,-0.702,-1.465,0.397,80.000,491.000,1.000
-2555.157,-4011.320,-167014.504,-132105.143,-35858.962,-4639.786,-6769.245,-3386.954,-0.043,0.985,-0.093,-0.732,-1.434,0.641,80.000,492.000,1.000
-2487.624,-3948.159,-166996.588,-131923.655,-35575.122,-4565.176,-6684.700,-3323.195,-0.043,0.984,-0.091,-0.641,-1.587,0.610,80.000,493.000,1.000
-2421.382,-3886.323,-166975.404,-131740.391,-35292.158,-4491.309,-6601.408,-3260.030,-0.045,0.980,-0.092,-0.549,-1.587,0.916,80.000,494.000,1.000
-2356.205,-3825.542,-166951.247,-131556.027,-35010.306,-4418.251,-6519.793,-3197.906,-0.045,0.980,-0.090,-0.580,-1.648,1.038,80.000,495.000,1.000
-2291.172,-3764.961,-166923.936,-131370.253,-34729.639,-4345.590,-6439.493,-3136.408,-0.046,0.981,-0.091,-0.519,-1.617,1.190,80.000,496.000,1.000
-2225.456,-3703.526,-166892.849,-131182.117,-34449.668,-4272.454,-6359.367,-3074.761,-0.046,0.981,-0.091,-0.549,-1.740,1.221,80.000,497.000,1.000
-2159.032,-3640.884,-166857.999,-130991.309,-34169.999,-4198.448,-6278.637,-3012.782,-0.045,0.980,-0.089,-0.458,-1.862,1.282,80.000,498.000,1.000
-2092.423,-3577.401,-166819.751,-130798.037,-33890.449,-4123.569,-6196.884,-2950.386,-0.045,0.980,-0.090,-0.366,-1.923,1.434,80.000,499.000,1.000
-2026.042,-3513.699,-166778.087,-130602.362,-33610.890,-4047.801,-6113.710,-2886.982,-0.044,0.979,-0.091,-0.397,-1.984,1.343,80.000,500.000,1.000
-1960.146,-3450.516,-166732.840,-130404.428,-33331.453,-3971.437,-6029.259,-2822.288,-0.043,0.978,-0.090,-0.427,-1.923,1.343,80.000,501.000,1.000
-1895.086,-3388.707,-166684.344,-130204.888,-33052.657,-3895.511,-5944.811,-2757.442,-0.041,0.980,-0.089,-0.366,-1.892,1.312,80.000,502.000,1.000
-1831.245,-3328.902,-166633.518,-130004.726,-32775.226,-3821.363,-5862.296,-2694.542,-0.038,0.979,-0.088,-0.214,-1.831,1.251,80.000,503.000,1.000
-1768.795,-3270.979,-166581.110,-129804.944,-32499.546,-3749.458,-5782.663,-2634.938,-0.039,0.979,-0.088,-0.153,-1.923,1.343,80.000,504.000,1.000
-1707.400,-3213.922,-166526.977,-129606.091,-32225.440,-3678.891,-5705.093,-2578.219,-0.039,0.978,-0.091,-0.122,-1.831,1.312,80.000,505.000,1.000
-1646.115,-3156.033,-166469.631,-129407.352,-31951.968,-3607.725,-5627.318,-2522.286,-0.039,0.977,-0.092,-0.031,-1.801,1.312,80.000,506.000,1.000
-1583.992,-3095.980,-166407.139,-129206.819,-31677.898,-3534.315,-5547.106,-2464.803,-0.036,0.977,-0.092,-0.031,-1.648,1.404,80.000,507.000,1.000
-1521.036,-3034.141,-166339.203,-129003.275,-31403.071,-3458.894,-5464.319,-2405.267,-0.036,0.977,-0.094,0.061,-1.587,1.404,80.000,508.000,1.000
-1458.304,-2972.423,-166267.479,-128797.118,-31128.632,-3383.317,-5380.956,-2345.203,-0.036,0.978,-0.091,0.153,-1.465,1.312,80.000,509.000,1.000
-1396.869,-2912.639,-166193.720,-128589.360,-30855.880,-3309.530,-5299.409,-2286.513,-0.037,0.979,-0.092,0.092,-1.282,1.190,80.000,510.000,1.000
-1336.828,-2855.124,-166118.164,-128380.404,-30585.048,-3238.250,-5220.585,-2229.823,-0.035,0.978,-0.092,0.214,-1.221,1.190,80.000,511.000,1.000
-1277.305,-2798.845,-166040.171,-128170.260,-30315.409,-3168.804,-5143.598,-2174.341,-0.036,0.979,-0.093,0.244,-1.129,1.190,80.000,512.000,1.000
-1217.131,-2742.368,-165959.427,-127958.930,-30046.299,-3099.881,-5066.904,-2118.774,-0.039,0.979,-0.093,0.275,-1.099,1.160,80.000,513.000,1.000
-1155.696,-2684.685,-165875.774,-127746.221,-29777.463,-3030.256,-4989.289,-2062.161,-0.037,0.982,-0.095,0.305,-0.977,1.312,80.000,514.000,1.000
-1093.484,-2625.831,-165789.170,-127532.145,-29509.182,-2959.656,-4910.779,-2004.560,-0.035,0.985,-0.094,0.366,-0.916,1.251,80.000,515.000,1.000
-1031.748,-2566.602,-165699.610,-127317.014,-29241.907,-2888.680,-4832.320,-1946.628,-0.035,0.985,-0.094,0.397,-0.793,1.251,80.000,516.000,1.000
-971.420,-2507.525,-165606.676,-127100.681,-28975.492,-2817.749,-4754.488,-1888.549,-0.036,0.988,-0.093,0.305,-0.732,1.373,80.000,517.000,1.000
-912.418,-2448.391,-165509.845,-126882.533,-28709.293,-2746.766,-4677.230,-1830.149,-0.035,0.988,-0.094,0.183,-0.458,1.495,80.000,518.000,1.000
-854.107,-2388.806,-165408.998,-126662.437,-28442.776,-2675.538,-4600.326,-1771.709,-0.036,0.988,-0.095,0.122,-0.458,1.526,80.000,519.000,1.000
-795.921,-2328.908,-165304.422,-126441.121,-28175.958,-2604.292,-4523.807,-1714.002,-0.036,0.988,-0.094,0.153,-0.366,1.648,80.000,520.000,1.000
-737.415,-2269.155,-165196.235,-126219.277,-27909.039,-2533.381,-4447.499,-1657.220,-0.036,0.988,-0.095,0.061,-0.244,1.617,80.000,521.000,1.000
-678.377,-2210.003,-165084.471,-125996.936,-27642.217,-2463.039,-4370.867,-1600.577,-0.035,0.986,-0.094,0.153,-0.214,1.740,80.000,522.000,1.000
-619.089,-2151.961,-164969.858,-125773.794,-27376.250,-2393.823,-4293.998,-1543.403,-0.035,0.988,-0.093,0.031,-0.183,1.678,80.000,523.000,1.000
-560.111,-2095.276,-164853.394,-125549.388,-27112.056,-2326.256,-4217.662,-1485.952,-0.036,0.988,-0.094,0.000,-0.092,1.862,80.000,524.000,1.000
-501.834,-2039.711,-164735.604,-125323.194,-26850.026,-2260.278,-4142.671,-1429.327,-0.038,0.987,-0.094,-0.061,-0.031,1.770,80.000,525.000,1.000
-444.424,-1984.805,-164616.476,-125095.107,-26590.071,-2195.332,-4069.339,-1374.722,-0.039,0.989,-0.092,-0.061,-0.031,1.831,80.000,526.000,1.000
-387.717,-1930.113,-164495.580,-124865.532,-26331.736,-2130.641,-3997.206,-1322.442,-0.040,0.989,-0.091,-0.153,0.000,1.740,80.000,527.000,1.000
-330.910,-1875.087,-164371.864,-124634.521,-26073.953,-2065.282,-3925.171,-1271.393,-0.042,0.988,-0.089,-0.183,-0.031,1.678,80.000,528.000,1.000
-272.937,-1819.173,-164243.697,-124401.406,-25815.119,-1998.387,-3851.901,-1219.619,-0.042,0.988,-0.092,-0.275,0.061,1.709,80.000,529.000,1.000
-213.360,-1762.355,-164110.037,-124165.652,-25554.382,-1929.969,-3776.942,-1165.902,-0.042,0.987,-0.091,-0.366,-0.031,1.648,80.000,530.000,1.000
-152.703,-1705.078,-163971.177,-123927.333,-25292.372,-1860.942,-3700.924,-1110.452,-0.042,0.988,-0.092,-0.397,0.000,1.678,80.000,531.000,1.000
-92.011,-1647.697,-163828.480,-123686.970,-25030.486,-1792.312,-3624.790,-1054.236,-0.041,0.987,-0.091,-0.427,0.031,1.648,80.000,532.000,1.000
-32.237,-1590.369,-163683.808,-123445.326,-24769.972,-1724.821,-3549.457,-998.172,-0.040,0.985,-0.092,-0.336,0.000,1.648,80.000,533.000,1.000
26.004,-1533.331,-163538.498,-123203.095,-24511.255,-1658.836,-3475.521,-942.775,-0.040,0.987,-0.092,-0.244,-0.061,1.678,80.000,534.000,1.000
82.511,-1477.105,-163392.867,-122960.809,-24254.033,-1594.416,-3403.259,-888.490,-0.040,0.987,-0.094,-0.305,-0.061,1.740,80.000,535.000,1.000
137.558,-1422.188,-163246.367,-122718.778,-23997.776,-1531.238,-3332.575,-835.741,-0.039,0.991,-0.093,-0.244,-0.122,1.740,80.000,536.000,1.000
191.764,-1368.757,-163097.991,-122476.827,-23742.104,-1468.710,-3262.916,-784.502,-0.038,0.990,-0.093,-0.214,-0.061,1.678,80.000,537.000,1.000
245.932,-1316.493,-162946.548,-122233.955,-23486.880,-1406.215,-3193.309,-733.923,-0.038,0.988,-0.094,-0.214,-0.061,1.648,80.000,538.000,1.000
300.861,-1264.469,-162790.799,-121988.584,-23231.890,-1342.969,-3122.309,-682.313,-0.039,0.985,-0.091,-0.305,-0.031,1.709,80.000,539.000,1.000
356.903,-1211.724,-162630.330,-121739.752,-22977.108,-1278.531,-3049.053,-628.274,-0.039,0.982,-0.094,-0.183,-0.061,1.801,80.000,540.000,1.000
413.636,-1157.837,-162465.987,-121487.874,-22722.867,-1213.294,-2974.146,-571.881,-0.040,0.980,-0.095,-0.061,-0.122,1.801,80.000,541.000,1.000
470.137,-1103.069,-162299.239,-121234.452,-22469.497,-1148.176,-2899.301,-514.711,-0.042,0.979,-0.094,0.000,-0.122,1.831,80.000,542.000,1.000
525.608,-1048.207,-162131.245,-120981.045,-22217.190,-1083.973,-2826.317,-458.719,-0.042,0.979,-0.093,0.122,-0.153,1.770,80.000,543.000,1.000
579.913,-993.946,-161961.891,-120728.058,-21965.775,-1020.684,-2755.657,-404.731,-0.044,0.980,-0.094,0.305,-0.305,1.678,80.000,544.000,1.000
633.727,-940.351,-161789.833,-120474.543,-21714.851,-957.636,-2686.271,-352.229,-0.045,0.983,-0.094,0.427,-0.397,1.556,80.000,545.000,1.000
687.863,-887.015,-161613.616,-120219.269,-21464.249,-894.074,-2616.639,-300.279,-0.045,0.986,-0.093,0.427,-0.397,1.434,80.000,546.000,1.000
742.345,-833.858,-161433.075,-119962.039,-21214.441,-829.835,-2546.027,-248.461,-0.044,0.985,-0.091,0.458,-0.580,1.282,80.000,547.000,1.000
796.458,-781.387,-161249.709,-119703.732,-20966.441,-765.752,-2475.070,-197.019,-0.043,0.985,-0.093,0.580,-0.671,1.190,80.000,548.000,1.000
849.632,-729.980,-161065.212,-119445.109,-20720.711,-702.962,-2404.794,-146.199,-0.043,0.986,-0.093,0.641,-0.854,1.129,80.000,549.000,1.000
901.858,-679.582,-160880.222,-119186.185,-20476.586,-642.196,-2335.853,-96.116,-0.045,0.988,-0.093,0.610,-0.885,1.038,80.000,550.000,1.000
953.302,-630.021,-160694.375,-118926.683,-20232.819,-583.591,-2268.521,-47.056,-0.044,0.987,-0.095,0.519,-0.946,0.946,80.000,551.000,1.000
1004.066,-581.078,-160506.943,-118666.527,-19988.520,-526.647,-2202.694,0.713,-0.044,0.986,-0.098,0.549,-0.946,0.946,80.000,552.000,1.000
1054.423,-532.187,-160317.156,-118405.553,-19743.619,-470.271,-2137.735,47.628,-0.043,0.985,-0.099,0.610,-1.099,0.854,80.000,553.000,1.000
1104.878,-482.458,-160124.051,-118143.125,-19498.346,-412.935,-2072.293,95.025,-0.043,0.985,-0.095,0.610,-1.129,0.885,80.000,554.000,1.000
1155.956,-431.316,-159926.998,-117878.584,-19252.924,-353.528,-2005.167,144.073,-0.040,0.985,-0.093,0.549,-1.160,0.916,80.000,555.000,1.000
1207.991,-378.851,-159725.994,-117611.654,-19007.441,-291.890,-1935.920,195.032,-0.040,0.986,-0.093,0.549,-1.221,0.854,80.000,556.000,1.000
1260.977,-325.649,-159521.395,-117342.434,-18761.855,-228.639,-1864.769,247.400,-0.040,0.988,-0.092,0.641,-1.312,0.916,80.000,557.000,1.000
1314.508,-272.451,-159313.894,-117071.388,-18516.467,-164.934,-1792.711,300.044,-0.039,0.986,-0.093,0.641,-1.343,1.068,80.000,558.000,1.000
1367.843,-219.766,-159104.243,-116799.160,-18271.831,-101.847,-1721.143,351.719,-0.038,0.987,-0.093,0.671,-1.343,1.282,80.000,559.000,1.000
1420.260,-167.861,-158893.007,-116526.263,-18028.425,-39.926,-1651.280,401.773,-0.041,0.988,-0.092,0.641,-1.282,1.282,80.000,560.000,1.000
1471.494,-116.858,-158680.369,-116252.788,-17786.481,20.802,-1583.598,450.393,-0.041,0.988,-0.093,0.580,-1.373,1.373,80.000,561.000,1.000
1521.815,-66.810,-158466.050,-115978.474,-17545.932,80.492,-1517.692,498.161,-0.039,0.987,-0.094,0.488,-1.282,1.526,80.000,562.000,1.000
1571.682,-17.643,-158249.476,-115702.980,-17306.511,139.295,-1452.685,545.678,-0.039,0.986,-0.092,0.488,-1.343,1.587,80.000,563.000,1.000
1621.353,30.976,-158030.019,-115426.140,-17067.780,197.754,-1387.476,593.574,-0.038,0.986,-0.092,0.549,-1.282,1.648,80.000,564.000,1.000
1670.790,79.370,-157807.735,-115148.340,-16829.591,256.477,-1321.459,642.159,-0.039,0.987,-0.092,0.549,-1.343,1.617,80.000,565.000,1.000
1720.015,127.741,-157583.420,-114870.287,-16592.117,315.475,-1254.872,691.272,-0.039,0.986,-0.090,0.458,-1.251,1.617,80.000,566.000,1.000
1769.317,176.257,-157357.739,-114592.284,-16355.421,373.942,-1188.552,740.245,-0.039,0.986,-0.094,0.458,-1.251,1.617,80.000,567.000,1.000
1818.858,224.851,-157130.795,-114314.018,-16119.522,430.521,-1123.717,787.788,-0.038,0.984,-0.094,0.336,-1.282,1.526,80.000,568.000,1.000
1868.270,273.160,-156902.127,-114034.978,-15884.295,484.457,-1060.926,832.827,-0.038,0.984,-0.090,0.275,-1.251,1.465,80.000,569.000,1.000
1917.078,320.915,-156671.019,-113754.756,-15649.383,536.486,-999.322,875.639,-0.037,0.982,-0.092,0.305,-1.190,1.373,80.000,570.000,1.000
1965.352,368.430,-156436.880,-113472.887,-15414.355,588.531,-936.976,918.085,-0.037,0.984,-0.092,0.336,-1.221,1.434,80.000,571.000,1.000
2013.595,416.223,-156199.844,-113189.141,-15179.217,642.261,-872.296,962.301,-0.038,0.982,-0.094,0.305,-1.251,1.373,80.000,572.000,1.000
2062.003,464.116,-155960.951,-112903.962,-14944.828,697.783,-805.459,1008.921,-0.037,0.983,-0.092,0.244,-1.312,1.312,80.000,573.000,1.000
2110.042,511.231,-155721.235,-112618.319,-14712.267,753.943,-738.167,1056.676,-0.036,0.984,-0.093,0.183,-1.251,1.190,80.000,574.000,1.000
2156.878,556.797,-155481.033,-112333.194,-14482.037,809.504,-672.437,1103.321,-0.035,0.983,-0.094,0.183,-1.099,1.099,80.000,575.000,1.000
2202.198,600.941,-155239.810,-112048.765,-14253.652,864.258,-609.124,1147.439,-0.034,0.982,-0.094,0.244,-1.068,1.251,80.000,576.000,1.000
2246.527,644.555,-154996.715,-111764.293,-14026.096,919.061,-547.482,1189.557,-0.033,0.984,-0.094,0.214,-1.038,1.251,80.000,577.000,1.000
2290.887,688.563,-154751.346,-111478.769,-13798.761,974.803,-486.233,1231.457,-0.035,0.984,-0.096,0.183,-0.977,1.190,80.000,578.000,1.000
2336.270,733.656,-154503.405,-111191.307,-13571.353,1031.894,-424.252,1274.965,-0.034,0.985,-0.094,0.122,-0.885,1.190,80.000,579.000,1.000
2383.201,780.150,-154252.471,-110901.498,-13343.775,1090.024,-361.053,1320.878,-0.035,0.984,-0.096,0.244,-0.885,0.916,80.000,580.000,1.000
2431.412,827.784,-153998.347,-110609.663,-13116.354,1148.248,-297.023,1368.563,-0.036,0.983,-0.095,0.214,-0.854,0.885,80.000,581.000,1.000
2479.961,875.741,-153741.426,-110316.773,-12889.852,1205.488,-233.173,1416.370,-0.035,0.984,-0.092,0.153,-0.824,0.977,80.000,582.000,1.000
2527.971,923.211,-153482.614,-110023.798,-12665.065,1261.156,-170.566,1462.715,-0.037,0.984,-0.092,0.153,-0.885,0.946,80.000,583.000,1.000
2575.273,970.151,-153222.433,-109730.823,-12441.976,1315.750,-109.267,1507.332,-0.039,0.985,-0.094,0.092,-0.824,0.854,80.000,584.000,1.000
2622.134,1016.960,-152960.823,-109437.175,-12219.826,1370.270,-48.493,1551.164,-0.040,0.985,-0.093,0.092,-0.732,0.793,80.000,585.000,1.000
2668.453,1063.590,-152697.679,-109142.418,-11997.891,1425.121,12.295,1595.175,-0.040,0.985,-0.097,0.000,-0.763,0.671,80.000,586.000,1.000
2713.672,1109.289,-152432.971,-108846.833,-11775.783,1479.872,72.834,1639.409,-0.040,0.984,-0.096,0.000,-0.854,0.641,80.000,587.000,1.000
2757.572,1153.285,-152166.471,-108550.881,-11553.312,1533.797,132.515,1683.137,-0.041,0.985,-0.094,0.031,-0.885,0.702,80.000,588.000,1.000
2800.704,1195.588,-151897.658,-108254.639,-11330.292,1586.598,191.336,1725.869,-0.040,0.984,-0.092,0.000,-0.854,0.610,80.000,589.000,1.000
2843.839,1236.833,-151626.453,-107958.075,-11107.060,1638.269,249.619,1767.640,-0.042,0.984,-0.094,0.031,-0.916,0.702,80.000,590.000,1.000
2887.498,1278.023,-151353.282,-107661.103,-10884.533,1689.045,307.623,1808.815,-0.041,0.986,-0.094,0.031,-0.916,0.671,80.000,591.000,1.000
2932.120,1320.496,-151078.205,-107363.214,-10663.365,1739.721,365.893,1850.034,-0.044,0.987,-0.092,0.061,-0.946,0.671,80.000,592.000,1.000
2978.058,1365.375,-150800.785,-107063.748,-10443.693,1791.161,425.059,1891.839,-0.041,0.986,-0.091,-0.061,-1.007,0.732,80.000,593.000,1.000
3025.156,1412.710,-150520.603,-106762.524,-10225.341,1843.642,485.481,1934.421,-0.043,0.986,-0.094,-0.183,-1.160,0.671,80.000,594.000,1.000
3072.588,1461.125,-150237.728,-106459.858,-10008.000,1896.619,547.000,1977.637,-0.042,0.986,-0.094,-0.122,-1.160,0.610,80.000,595.000,1.000
3119.180,1508.506,-149952.621,-106156.115,-9791.190,1949.166,609.087,2021.262,-0.043,0.985,-0.092,-0.183,-1.190,0.702,80.000,596.000,1.000
3163.883,1553.101,-149666.043,-105851.703,-9574.535,2000.495,670.958,2064.929,-0.043,0.985,-0.093,-0.183,-1.221,0.793,80.000,597.000,1.000
3206.153,1594.305,-149378.961,-105547.120,-9358.216,2050.273,731.602,2107.969,-0.042,0.986,-0.093,-0.183,-1.312,0.824,80.000,598.000,1.000
3246.163,1632.875,-149091.921,-105242.619,-9142.768,2098.862,790.445,2149.837,-0.042,0.987,-0.091,-0.214,-1.343,0.854,80.000,599.000,1.000
3284.700,1670.272,-148804.879,-104938.181,-8928.852,2146.684,847.440,2190.448,-0.043,0.987,-0.093,-0.275,-1.343,0.885,80.000,600.000,1.000
3322.715,1707.874,-148517.163,-104633.530,-8716.753,2193.816,902.962,2230.286,-0.043,0.987,-0.091,-0.336,-1.404,0.977,80.000,601.000,1.000
3360.950,1746.699,-148227.489,-104328.158,-8505.800,2240.570,957.967,2270.306,-0.044,0.985,-0.092,-0.305,-1.404,0.885,80.000,602.000,1.000
3399.909,1787.405,-147934.683,-104021.532,-8294.674,2287.822,1013.716,2311.427,-0.042,0.985,-0.092,-0.336,-1.526,1.038,80.000,603.000,1.000
3439.866,1830.121,-147638.429,-103713.351,-8082.259,2336.527,1071.172,2353.905,-0.042,0.984,-0.089,-0.336,-1.587,1.099,80.000,604.000,1.000
3480.759,1874.165,-147339.594,-103403.836,-7868.611,2386.727,1130.101,2396.802,-0.044,0.985,-0.092,-0.427,-1.617,1.129,80.000,605.000,1.000
3522.253,1918.479,-147039.497,-103093.649,-7654.808,2437.684,1189.326,2438.638,-0.040,0.986,-0.092,-0.366,-1.678,1.221,80.000,606.000,1.000
3563.944,1962.290,-146738.876,-102783.487,-7441.877,2488.803,1248.022,2478.810,-0.039,0.988,-0.089,-0.366,-1.617,1.251,80.000,607.000,1.000
3605.535,2005.190,-146437.627,-102473.528,-7230.267,2539.827,1306.226,2518.035,-0.038,0.986,-0.093,-0.305,-1.678,1.434,80.000,608.000,1.000
3646.921,2047.049,-146134.843,-102163.054,-7019.750,2590.697,1364.478,2557.608,-0.038,0.985,-0.092,-0.336,-1.678,1.495,80.000,609.000,1.000
3688.221,2087.907,-145829.516,-101851.016,-6809.891,2641.247,1422.778,2598.120,-0.036,0.987,-0.092,-0.397,-1.526,1.587,80.000,610.000,1.000
3729.587,2128.016,-145521.243,-101536.917,-6600.509,2691.220,1480.425,2639.126,-0.034,0.986,-0.090,-0.366,-1.526,1.648,80.000,611.000,1.000
3770.853,2167.712,-145210.342,-101221.205,-6391.785,2740.443,1536.773,2679.751,-0.037,0.986,-0.091,-0.427,-1.495,1.740,80.000,612.000,1.000
3811.445,2207.170,-144897.523,-100904.810,-6184.202,2788.825,1591.618,2719.361,-0.037,0.984,-0.093,-0.336,-1.526,1.617,80.000,613.000,1.000
3850.981,2246.695,-144583.024,-100588.062,-5977.815,2836.748,1645.497,2758.139,-0.037,0.981,-0.093,-0.397,-1.465,1.648,80.000,614.000,1.000
3889.892,2286.864,-144266.610,-100270.515,-5772.168,2884.843,1699.190,2796.718,-0.036,0.982,-0.091,-0.214,-1.343,1.617,80.000,615.000,1.000
3929.014,2328.016,-143948.360,-99951.953,-5567.011,2933.231,1753.030,2835.447,-0.036,0.982,-0.093,-0.244,-1.251,1.556,80.000,616.000,1.000
3968.670,2369.707,-143628.923,-99633.049,-5362.586,2981.352,1806.935,2874.337,-0.036,0.984,-0.091,-0.244,-1.251,1.617,80.000,617.000,1.000
4008.520,2410.995,-143308.964,-99314.605,-5159.316,3028.466,1860.682,2913.367,-0.037,0.984,-0.091,-0.244,-1.190,1.556,80.000,618.000,1.000
4047.993,2451.205,-142988.505,-98996.616,-4957.384,3074.326,1914.133,2952.386,-0.037,0.983,-0.092,-0.214,-1.099,1.465,80.000,619.000,1.000
4086.591,2490.073,-142667.275,-98678.600,-4756.903,3119.122,1966.917,2990.600,-0.037,0.982,-0.091,-0.214,-1.007,1.556,80.000,620.000,1.000
4124.143,2527.779,-142344.949,-98360.126,-4557.757,3163.497,2018.801,3027.232,-0.035,0.984,-0.092,-0.153,-0.946,1.373,80.000,621.000,1.000
4160.948,2564.972,-142021.039,-98040.953,-4359.299,3208.540,2070.301,3062.669,-0.034,0.985,-0.091,-0.122,-0.946,1.465,80.000,622.000,1.000
4197.450,2602.260,-141695.209,-97721.063,-4160.849,3255.072,2122.139,3098.143,-0.035,0.986,-0.090,-0.122,-0.763,1.434,80.000,623.000,1.000
4233.911,2639.798,-141367.275,-97400.417,-3962.060,3303.194,2174.685,3134.562,-0.033,0.985,-0.091,-0.153,-0.702,1.495,80.000,624.000,1.000
4270.468,2677.294,-141037.224,-97078.893,-3763.144,3352.222,2227.622,3171.649,-0.034,0.985,-0.092,-0.061,-0.763,1.312,80.000,625.000,1.000
4307.244,2714.460,-140705.219,-96756.488,-3564.736,3401.214,2280.236,3208.439,-0.035,0.985,-0.093,0.000,-0.641,1.312,80.000,626.000,1.000
4344.368,2751.404,-140371.414,-96433.426,-3367.234,3449.664,2332.101,3244.376,-0.035,0.987,-0.092,-0.061,-0.519,1.373,80.000,627.000,1.000
4381.970,2788.532,-140035.934,-96109.947,-3170.561,3497.451,2383.258,3279.645,-0.036,0.985,-0.091,0.000,-0.427,1.160,80.000,628.000,1.000
4420.114,2826.263,-139698.774,-95785.973,-2974.415,3544.667,2434.306,3315.023,-0.036,0.985,-0.090,-0.092,-0.397,1.190,80.000,629.000,1.000
4458.670,2864.647,-139359.916,-95461.196,-2778.846,3591.308,2485.827,3351.223,-0.037,0.985,-0.089,-0.092,-0.336,1.221,80.000,630.000,1.000
4497.126,2903.192,-139019.412,-95135.426,-2584.331,3637.168,2537.734,3388.077,-0.038,0.985,-0.090,-0.061,-0.397,1.160,80.000,631.000,1.000
4534.565,2941.011,-138677.549,-94808.986,-2391.393,3681.904,2589.222,3424.356,-0.039,0.984,-0.091,-0.092,-0.366,0.946,80.000,632.000,1.000
4570.203,2977.448,-138334.854,-94482.520,-2200.207,3725.242,2639.362,3458.803,-0.040,0.985,-0.086,-0.061,-0.488,0.977,80.000,633.000,1.000
4604.108,3012.912,-137991.325,-94156.149,-2009.954,3767.698,2688.396,3491.767,-0.040,0.985,-0.085,0.061,-0.427,1.068,80.000,634.000,1.000
4637.223,3048.580,-137646.510,-93829.389,-1819.261,3810.386,2737.659,3525.142,-0.039,0.986,-0.088,0.061,-0.427,1.038,80.000,635.000,1.000
4670.687,3085.391,-137300.146,-93501.725,-1627.334,3854.159,2788.416,3560.738,-0.041,0.985,-0.088,0.000,-0.488,0.916,80.000,636.000,1.000
4705.269,3123.501,-136952.120,-93172.887,-1434.253,3899.191,2841.109,3598.845,-0.040,0.985,-0.090,0.031,-0.549,1.007,80.000,637.000,1.000
4741.047,3162.202,-136602.455,-92843.036,-1240.823,3944.725,2894.926,3637.863,-0.040,0.985,-0.090,0.000,-0.458,0.916,80.000,638.000,1.000
4777.332,3200.191,-136251.541,-92512.812,-1048.317,3989.309,2948.157,3675.442,-0.040,0.984,-0.089,-0.031,-0.366,0.885,80.000,639.000,1.000
4813.243,3236.293,-135900.129,-92182.872,-858.014,4031.714,2999.181,3710.165,-0.041,0.985,-0.089,0.000,-0.458,0.916,80.000,640.000,1.000
4848.413,3270.342,-135548.706,-91853.363,-670.450,4072.017,3047.548,3742.339,-0.041,0.985,-0.091,-0.061,-0.610,0.946,80.000,641.000,1.000
4883.072,3303.194,-135197.038,-91524.045,-485.140,4111.622,3094.082,3773.263,-0.043,0.985,-0.090,-0.061,-0.793,0.916,80.000,642.000,1.000
4917.723,3335.989,-134844.269,-91194.494,-301.034,4152.170,3140.041,3804.296,-0.044,0.984,-0.089,0.092,-0.824,0.824,80.000,643.000,1.000
4952.718,3369.562,-134489.221,-90864.170,-116.917,4194.583,3186.636,3836.728,-0.042,0.983,-0.092,0.153,-0.854,0.885,80.000,644.000,1.000
4987.852,3404.039,-134131.339,-90532.846,67.860,4238.417,3234.357,3871.268,-0.043,0.984,-0.090,0.214,-1.038,0.854,80.000,645.000,1.000
5022.357,3438.895,-133771.220,-90200.823,252.962,4282.253,3282.755,3907.380,-0.043,0.983,-0.091,0.214,-1.099,0.793,80.000,646.000,1.000
5055.527,3473.430,-133410.014,-89868.557,437.604,4324.933,3331.043,3943.571,-0.042,0.984,-0.092,0.244,-1.190,0.885,80.000,647.000,1.000
5087.415,3507.236,-133048.544,-89536.156,621.189,4366.228,3378.598,3978.327,-0.043,0.985,-0.092,0.153,-1.312,0.824,80.000,648.000,1.000
5118.747,3540.303,-132686.951,-89203.603,803.533,4406.628,3425.146,4010.701,-0.042,0.984,-0.091,0.244,-1.312,0.946,80.000,649.000,1.000
5150.282,3572.703,-132325.136,-88871.254,984.580,4446.567,3470.440,4040.327,-0.040,0.984,-0.091,0.336,-1.465,0.824,80.000,650.000,1.000
5182.501,3604.684,-131962.565,-88539.132,1164.571,4486.308,3514.622,4067.970,-0.041,0.986,-0.089,0.366,-1.465,0.854,80.000,651.000,1.000
5215.595,3636.760,-131598.140,-88206.357,1344.191,4526.171,3558.576,4095.528,-0.041,0.987,-0.087,0.366,-1.587,1.007,80.000,652.000,1.000
5249.365,3669.296,-131231.300,-87872.096,1523.925,4566.273,3603.049,4124.634,-0.040,0.986,-0.091,0.397,-1.648,0.916,80.000,653.000,1.000
5283.278,3702.353,-130862.680,-87536.533,1703.803,4606.681,3648.243,4155.705,-0.042,0.983,-0.090,0.488,-1.740,1.007,80.000,654.000,1.000
5316.767,3735.800,-130493.560,-87200.616,1883.490,4647.577,3693.960,4188.056,-0.043,0.984,-0.093,0.458,-1.801,0.977,80.000,655.000,1.000
5349.480,3769.461,-130124.456,-86864.897,2062.694,4689.175,3739.962,4220.640,-0.042,0.985,-0.093,0.458,-1.770,0.885,80.000,656.000,1.000
5381.495,3803.182,-129754.449,-86528.962,2241.522,4731.500,3786.194,4252.857,-0.040,0.985,-0.091,0.458,-1.801,0.916,80.000,657.000,1.000
5413.384,3836.922,-129382.278,-86192.107,2420.116,4774.258,3832.683,4284.904,-0.041,0.983,-0.092,0.519,-1.831,1.038,80.000,658.000,1.000
5445.747,3870.788,-129007.553,-85854.236,2598.377,4817.166,3879.599,4317.485,-0.040,0.983,-0.089,0.549,-1.862,0.854,80.000,659.000,1.000
5478.541,3904.605,-128631.005,-85515.976,2775.943,4859.740,3926.721,4350.639,-0.040,0.985,-0.091,0.488,-1.923,0.946,80.000,660.000,1.000
5510.932,3937.746,-128253.575,-85177.886,2952.561,4901.147,3973.279,4383.359,-0.040,0.986,-0.093,0.580,-1.862,0.854,80.000,661.000,1.000
5541.769,3969.545,-127875.689,-84839.996,3128.339,4940.788,4018.605,4414.551,-0.040,0.986,-0.094,0.427,-1.984,0.854,80.000,662.000,1.000
5570.201,3999.667,-127497.623,-84502.246,3303.286,4978.651,4062.357,4443.824,-0.039,0.985,-0.093,0.488,-1.984,0.854,80.000,663.000,1.000
5596.130,4028.310,-127119.614,-84164.839,3477.251,5015.351,4104.742,4471.633,-0.039,0.985,-0.094,0.458,-1.953,0.763,80.000,664.000,1.000
5620.550,4056.204,-126741.609,-83827.994,3650.322,5051.799,4146.560,4499.069,-0.040,0.984,-0.092,0.519,-1.923,0.793,80.000,665.000,1.000
5645.337,4084.387,-126363.049,-83491.448,3823.026,5088.776,4188.981,4527.489,-0.041,0.986,-0.091,0.458,-1.892,0.763,80.000,666.000,1.000
5672.181,4113.547,-125983.179,-83154.547,3995.855,5126.419,4232.860,4557.610,-0.040,0.985,-0.093,0.427,-1.831,0.763,80.000,667.000,1.000
5701.606,4143.627,-125601.569,-82816.724,4168.697,5164.092,4278.146,4588.964,-0.039,0.985,-0.093,0.427,-1.862,0.702,80.000,668.000,1.000
5732.863,4174.165,-125218.156,-82477.784,4341.166,5201.171,4324.278,4620.637,-0.038,0.985,-0.091,0.427,-1.831,0.763,80.000,669.000,1.000
5764.440,4204.587,-124833.421,-82138.108,4512.804,5237.307,4370.193,4651.701,-0.039,0.986,-0.092,0.397,-1.831,0.641,80.000,670.000,1.000
5794.938,4234.585,-124447.955,-81798.113,4683.341,5272.450,4414.618,4681.367,-0.038,0.987,-0.093,0.366,-1.801,0.580,80.000,671.000,1.000
5823.974,4264.499,-124061.667,-81457.537,4853.111,5307.080,4457.099,4709.494,-0.039,0.986,-0.094,0.244,-1.770,0.702,80.000,672.000,1.000
5852.207,4294.947,-123674.083,-81115.829,5022.678,5341.804,4498.114,4736.620,-0.039,0.986,-0.094,0.244,-1.862,0.610,80.000,673.000,1.000
5880.419,4326.041,-123285.057,-80773.107,5192.418,5376.790,4538.484,4763.408,-0.041,0.986,-0.093,0.214,-1.801,0.610,80.000,674.000,1.000
5908.777,4357.016,-122895.120,-80430.288,5362.274,5411.510,4578.664,4790.140,-0.042,0.987,-0.092,0.244,-1.831,0.671,80.000,675.000,1.000
5937.010,4386.998,-122504.858,-80088.053,5531.993,5445.477,4619.014,4817.129,-0.041,0.987,-0.093,0.153,-1.740,0.641,80.000,676.000,1.000
5965.062,4415.942,-122114.131,-79746.163,5701.592,5479.063,4660.203,4845.030,-0.039,0.987,-0.094,0.000,-1.678,0.671,80.000,677.000,1.000
5993.202,4444.378,-121722.542,-79404.171,5871.062,5512.850,4702.289,4873.915,-0.039,0.988,-0.093,-0.031,-1.648,0.702,80.000,678.000,1.000
6021.382,4472.533,-121330.210,-79062.483,6039.895,5546.801,4744.221,4902.756,-0.038,0.988,-0.094,0.000,-1.648,0.671,80.000,679.000,1.000
6049.130,4500.269,-120937.727,-78722.103,6207.182,5580.552,4784.791,4930.521,-0.039,0.988,-0.090,-0.031,-1.556,0.732,80.000,680.000,1.000
6076.262,4527.955,-120544.995,-78383.091,6372.616,5614.487,4824.243,4957.685,-0.040,0.987,-0.090,-0.092,-1.587,0.702,80.000,681.000,1.000
6103.205,4556.490,-120150.762,-78044.021,6537.049,5649.662,4864.247,4985.723,-0.040,0.989,-0.091,-0.214,-1.526,0.641,80.000,682.000,1.000
6130.445,4586.252,-119753.891,-77703.330,6701.573,5686.366,4905.922,5015.070,-0.041,0.988,-0.092,-0.214,-1.587,0.732,80.000,683.000,1.000
6158.028,4616.692,-119354.412,-77360.612,6866.645,5723.603,4948.889,5044.535,-0.041,0.988,-0.093,-0.305,-1.556,0.763,80.000,684.000,1.000
6185.856,4647.013,-118953.189,-77016.359,7032.034,5759.988,4991.974,5072.557,-0.043,0.986,-0.093,-0.366,-1.556,0.702,80.000,685.000,1.000
6214.160,4677.000,-118550.794,-76670.905,7197.437,5795.084,5034.527,5098.778,-0.042,0.984,-0.089,-0.366,-1.617,0.732,80.000,686.000,1.000
6243.182,4706.805,-118147.325,-76324.423,7362.655,5829.562,5076.666,5124.108,-0.042,0.985,-0.093,-0.427,-1.587,0.671,80.000,687.000,1.000
6272.624,4736.358,-117742.978,-75977.402,7527.250,5864.158,5118.491,5149.668,-0.043,0.984,-0.091,-0.305,-1.587,0.641,80.000,688.000,1.000
6301.906,4765.664,-117337.872,-75630.419,7690.921,5899.298,5160.213,5176.421,-0.043,0.983,-0.093,-0.275,-1.587,0.732,80.000,689.000,1.000
6330.652,4794.998,-116932.193,-75284.011,7853.543,5934.903,5202.064,5204.830,-0.043,0.983,-0.094,-0.397,-1.617,0.702,80.000,690.000,1.000
6358.482,4824.335,-116526.608,-74938.757,8014.739,5970.032,5243.628,5234.183,-0.043,0.987,-0.092,-0.305,-1.678,0.702,80.000,691.000,1.000
6384.620,4852.820,-116122.231,-74595.208,8173.786,6003.027,5283.639,5262.627,-0.044,0.986,-0.092,-0.305,-1.709,0.732,80.000,692.000,1.000
6408.355,4879.374,-115720.056,-74253.464,8330.051,6032.564,5320.798,5288.522,-0.042,0.987,-0.092,-0.275,-1.587,0.702,80.000,693.000,1.000
6429.867,4903.949,-115319.767,-73912.643,8483.963,6059.073,5355.286,5312.008,-0.044,0.986,-0.092,-0.244,-1.556,0.671,80.000,694.000,1.000
6450.274,4927.531,-114919.602,-73571.160,8636.947,6084.513,5388.657,5334.640,-0.043,0.984,-0.089,-0.183,-1.587,0.854,80.000,695.000,1.000
6470.932,4951.200,-114517.415,-73227.615,8790.506,6111.032,5422.590,5357.964,-0.042,0.983,-0.091,-0.061,-1.587,0.916,80.000,696.000,1.000
6492.777,4975.460,-114112.003,-72881.600,8945.471,6139.798,5457.925,5382.516,-0.040,0.984,-0.087,0.122,-1.587,1.007,80.000,697.000,1.000
6516.108,5000.237,-113703.844,-72533.897,9101.606,6170.420,5494.222,5407.558,-0.041,0.982,-0.091,0.092,-1.556,1.099,80.000,698.000,1.000
6540.751,5025.429,-113294.326,-72185.738,9258.192,6201.732,5530.689,5431.989,-0.040,0.982,-0.091,0.153,-1.526,1.129,80.000,699.000,1.000
6566.338,5051.214,-112884.502,-71837.825,9414.782,6232.973,5567.248,5455.577,-0.040,0.984,-0.092,0.214,-1.556,1.129,80.000,700.000,1.000
6592.424,5077.930,-112474.432,-71489.901,9571.435,6264.303,5604.694,5479.321,-0.040,0.985,-0.090,0.275,-1.465,1.221,80.000,701.000,1.000
6618.448,5105.638,-112063.612,-71141.381,9728.234,6296.209,5643.731,5504.430,-0.039,0.985,-0.089,0.397,-1.343,1.190,80.000,702.000,1.000
6643.710,5133.727,-111652.058,-70792.282,9884.594,6328.550,5683.816,5530.977,-0.040,0.986,-0.091,0.305,-1.251,1.160,80.000,703.000,1.000
6667.563,5161.146,-111240.508,-70443.408,10039.531,6360.634,5723.591,5557.815,-0.040,0.985,-0.091,0.336,-1.282,1.343,80.000,704.000,1.000
6689.830,5186.978,-110829.880,-70095.829,10192.268,6391.641,5761.737,5583.254,-0.039,0.985,-0.093,0.336,-1.221,1.312,80.000,705.000,1.000
6710.991,5211.030,-110420.284,-69749.958,10342.782,6421.158,5797.693,5606.176,-0.041,0.984,-0.094,0.397,-1.221,1.282,80.000,706.000,1.000
6732.005,5234.016,-110010.699,-69405.172,10491.914,6449.628,5832.092,5626.896,-0.039,0.985,-0.091,0.366,-1.129,1.312,80.000,707.000,1.000
6753.858,5257.162,-109599.875,-69060.314,10640.653,6477.926,5866.210,5646.930,-0.036,0.987,-0.090,0.336,-1.038,1.343,80.000,708.000,1.000
6776.884,5281.454,-109187.035,-68714.333,10789.604,6506.662,5901.226,5668.090,-0.035,0.988,-0.093,0.427,-1.068,1.465,80.000,709.000,1.000
6800.392,5306.786,-108772.292,-68366.947,10938.644,6535.669,5937.387,5691.179,-0.036,0.986,-0.093,0.336,-1.038,1.373,80.000,710.000,1.000
6823.152,5332.054,-108356.643,-68018.945,11087.029,6564.253,5973.884,5715.406,-0.037,0.985,-0.092,0.244,-1.007,1.434,80.000,711.000,1.000
6844.421,5356.207,-107941.277,-67671.612,11234.030,6591.904,6009.592,5739.199,-0.037,0.986,-0.095,0.214,-0.854,1.465,80.000,712.000,1.000
6864.539,5379.113,-107526.685,-67325.558,11379.498,6618.674,6043.871,5761.607,-0.036,0.984,-0.095,0.275,-0.702,1.556,80.000,713.000,1.000
6884.623,5401.620,-107112.158,-66980.157,11524.176,6645.346,6077.202,5783.051,-0.037,0.987,-0.097,0.305,-0.610,1.526,80.000,714.000,1.000
6905.741,5424.856,-106696.612,-66634.314,11669.022,6672.823,6110.606,5804.615,-0.035,0.988,-0.097,0.336,-0.519,1.648,80.000,715.000,1.000
6928.208,5449.556,-106279.560,-66287.433,11814.329,6701.445,6144.746,5827.119,-0.036,0.988,-0.094,0.397,-0.427,1.617,80.000,716.000,1.000
6951.417,5475.597,-105861.101,-65939.640,11959.811,6730.934,6179.680,5850.655,-0.038,0.988,-0.096,0.427,-0.397,1.648,80.000,717.000,1.000
6974.445,5501.970,-105441.605,-65591.509,12105.048,6760.614,6214.821,5874.431,-0.038,0.988,-0.096,0.366,-0.427,1.648,80.000,718.000,1.000
6996.734,5527.486,-105021.408,-65243.675,12249.802,6789.889,6249.443,5897.408,-0.039,0.985,-0.097,0.336,-0.366,1.678,80.000,719.000,1.000
7018.255,5551.517,-104600.746,-64896.411,12393.950,6818.579,6283.230,5919.233,-0.040,0.984,-0.097,0.397,-0.366,1.526,80.000,720.000,1.000
7039.378,5574.424,-104179.643,-64549.417,12537.605,6847.130,6316.715,5940.624,-0.041,0.984,-0.095,0.458,-0.397,1.495,80.000,721.000,1.000
7060.623,5597.160,-103758.117,-64202.302,12681.020,6876.204,6350.848,5962.513,-0.042,0.984,-0.093,0.549,-0.336,1.343,80.000,722.000,1.000
7082.246,5620.335,-103336.382,-63854.995,12824.063,6905.789,6385.788,5984.901,-0.044,0.985,-0.095,0.580,-0.427,1.190,80.000,723.000,1.000
7104.044,5643.875,-102914.314,-63507.433,12966.380,6935.258,6420.890,6007.113,-0.050,0.988,-0.091,0.519,-0.549,1.038,80.000,724.000,1.000
7125.531,5667.243,-102491.359,-63159.295,13107.843,6963.791,6455.343,6028.561,-0.048,0.992,-0.092,0.336,-0.610,0.824,80.000,725.000,1.000
7146.226,5689.894,-102067.089,-62810.202,13248.673,6990.747,6488.719,6049.197,-0.048,0.995,-0.091,0.183,-0.732,0.580,80.000,726.000,1.000
7165.871,5711.535,-101642.060,-62460.536,13388.871,7015.756,6520.934,6069.292,-0.048,0.994,-0.092,0.031,-0.824,0.336,80.000,727.000,1.000
7184.502,5732.191,-101217.746,-62111.507,13527.636,7038.691,6551.775,6088.787,-0.051,0.994,-0.091,-0.214,-0.885,0.275,80.000,728.000,1.000
7202.426,5752.355,-100794.733,-61763.809,13664.347,7060.215,6581.411,6107.435,-0.048,0.996,-0.090,-0.427,-1.068,0.153,80.000,729.000,1.000
7220.142,5772.752,-100372.051,-61417.096,13799.465,7081.600,6610.695,6125.403,-0.046,0.996,-0.086,-0.519,-1.221,0.000,80.000,730.000,1.000
7238.085,5793.986,-99948.342,-61070.772,13934.300,7103.896,6640.808,6143.661,-0.045,0.992,-0.090,-0.671,-1.282,0.000,80.000,731.000,1.000
7256.385,5816.342,-99522.897,-60724.547,14070.244,7127.527,6672.757,6163.531,-0.044,0.993,-0.089,-0.824,-1.282,-0.061,80.000,732.000,1.000
7274.848,5839.618,-99095.893,-60378.286,14207.958,7152.347,6706.704,6185.555,-0.044,0.993,-0.088,-0.946,-1.343,0.061,80.000,733.000,1.000
7293.183,5863.196,-98667.881,-60031.678,14347.311,7178.084,6741.996,6209.075,-0.043,0.992,-0.088,-1.068,-1.465,0.122,80.000,734.000,1.000
7311.272,5886.222,-98239.411,-59684.331,14487.549,7204.389,6777.378,6232.612,-0.044,0.991,-0.090,-1.160,-1.526,0.244,80.000,735.000,1.000
7329.156,5907.986,-97810.806,-59336.129,14627.501,7230.754,6811.604,6254.868,-0.044,0.990,-0.090,-1.251,-1.495,0.275,80.000,736.000,1.000
7346.859,5928.287,-97382.146,-58987.512,14765.983,7256.668,6844.202,6275.584,-0.042,0.985,-0.091,-1.251,-1.434,0.488,80.000,737.000,1.000
7364.374,5947.526,-96953.493,-58639.266,14902.175,7281.783,6875.452,6295.321,-0.044,0.983,-0.089,-1.282,-1.495,0.641,80.000,738.000,1.000
7381.737,5966.539,-96524.788,-58291.890,15036.048,7306.135,6905.999,6314.567,-0.043,0.982,-0.090,-1.282,-1.526,0.732,80.000,739.000,1.000
7398.974,5985.908,-96096.042,-57945.437,15168.063,7329.796,6936.046,6332.875,-0.044,0.982,-0.088,-1.190,-1.556,0.885,80.000,740.000,1.000
7416.141,6005.588,-95667.253,-57599.525,15298.714,7352.638,6965.228,6349.338,-0.046,0.979,-0.087,-1.099,-1.587,0.916,80.000,741.000,1.000
7433.478,6025.245,-95238.033,-57253.408,15428.459,7374.603,6993.339,6364.015,-0.045,0.979,-0.087,-0.916,-1.770,1.068,80.000,742.000,1.000
7451.385,6044.724,-94807.998,-56906.510,15557.508,7395.908,7020.656,6378.411,-0.048,0.979,-0.088,-0.946,-1.892,1.190,80.000,743.000,1.000
7470.223,6064.262,-94377.182,-56558.807,15685.860,7417.203,7047.902,6394.512,-0.048,0.979,-0.088,-0.793,-1.923,1.160,80.000,744.000,1.000
7490.100,6084.186,-93945.969,-56210.644,15813.419,7439.153,7075.567,6413.047,-0.048,0.980,-0.089,-0.732,-1.984,1.221,80.000,745.000,1.000
7510.741,6104.657,-93514.588,-55862.285,15940.367,7462.126,7103.670,6432.984,-0.046,0.981,-0.085,-0.763,-2.106,1.160,80.000,746.000,1.000
7531.423,6125.562,-93082.931,-55513.792,16067.369,7486.154,7132.075,6452.596,-0.045,0.978,-0.083,-0.763,-2.136,1.190,80.000,747.000,1.000
7551.219,6146.533,-92650.916,-55165.174,16195.044,7510.814,7160.551,6470.750,-0.044,0.979,-0.086,-0.641,-2.075,1.099,80.000,748.000,1.000
7569.667,6167.321,-92218.596,-54816.468,16323.601,7535.662,7189.150,6487.785,-0.043,0.979,-0.087,-0.549,-2.075,1.160,80.000,749.000,1.000
7587.039,6187.816,-91786.356,-54467.910,16452.526,7560.403,7217.914,6504.826,-0.043,0.978,-0.086,-0.519,-2.014,1.099,80.000,750.000,1.000
7603.707,6207.721,-91354.895,-54120.022,16580.658,7584.654,7246.302,6522.199,-0.040,0.979,-0.086,-0.427,-2.014,1.068,80.000,751.000,1.000
7619.643,6226.609,-90924.848,-53773.532,16706.895,7607.896,7273.448,6539.056,-0.039,0.978,-0.085,-0.336,-1.862,1.099,80.000,752.000,1.000
7634.823,6244.456,-90496.341,-53428.861,16830.849,7629.828,7299.017,6554.554,-0.040,0.979,-0.086,-0.183,-1.770,1.221,80.000,753.000,1.000
7649.615,6261.956,-90068.535,-53085.475,16953.237,7650.919,7324.026,6569.133,-0.040,0.978,-0.088,-0.122,-1.709,1.251,80.000,754.000,1.000
7664.523,6279.981,-89640.025,-52742.052,17075.339,7672.000,7350.114,6584.226,-0.038,0.977,-0.089,-0.031,-1.556,1.312,80.000,755.000,1.000
7679.827,6299.040,-89209.611,-52397.299,17198.209,7693.627,7378.133,6600.944,-0.037,0.979,-0.088,0.061,-1.495,1.312,80.000,756.000,1.000
7695.573,6319.134,-88776.914,-52050.822,17322.195,7715.960,7407.519,6618.999,-0.037,0.979,-0.088,0.214,-1.495,1.312,80.000,757.000,1.000
7711.714,6339.825,-88342.529,-51703.276,17446.783,7738.832,7436.858,6637.063,-0.039,0.981,-0.086,0.336,-1.343,1.373,80.000,758.000,1.000
7728.138,6360.558,-87907.352,-51355.743,17571.127,7762.112,7465.353,6654.264,-0.038,0.981,-0.083,0.336,-1.282,1.404,80.000,759.000,1.000
7744.553,6380.701,-87472.416,-51009.450,17694.143,7785.489,7492.860,6670.432,-0.035,0.982,-0.086,0.427,-1.129,1.404,80.000,760.000,1.000
7760.436,6399.580,-87038.913,-50665.548,17814.555,7808.206,7519.157,6685.530,-0.038,0.982,-0.089,0.397,-1.099,1.465,80.000,761.000,1.000
7775.352,6416.829,-86607.455,-50324.323,17931.788,7829.638,7544.230,6699.831,-0.038,0.983,-0.092,0.427,-0.946,1.495,80.000,762.000,1.000
7789.352,6432.702,-86177.444,-49984.619,18046.607,7849.869,7568.682,6714.147,-0.039,0.985,-0.089,0.427,-0.885,1.465,80.000,763.000,1.000
7802.753,6447.880,-85747.440,-49644.690,18160.736,7869.535,7593.463,6729.416,-0.038,0.985,-0.090,0.427,-0.793,1.373,80.000,764.000,1.000
7815.631,6462.849,-85316.492,-49303.782,18275.491,7888.960,7618.868,6745.923,-0.038,0.988,-0.091,0.336,-0.702,1.495,80.000,765.000,1.000
7827.861,6477.755,-84884.604,-48962.353,18391.081,7907.958,7644.413,6763.212,-0.040,0.989,-0.088,0.183,-0.732,1.495,80.000,766.000,1.000
7839.557,6492.620,-84452.151,-48621.139,18507.099,7926.332,7669.586,6780.490,-0.040,0.990,-0.090,0.122,-0.671,1.465,80.000,767.000,1.000
7851.254,6507.514,-84019.380,-48280.436,18623.111,7944.111,7694.180,6796.966,-0.040,0.990,-0.089,0.031,-0.580,1.465,80.000,768.000,1.000
7863.616,6522.765,-83586.074,-47939.889,18738.980,7961.751,7718.441,6812.195,-0.042,0.990,-0.087,0.000,-0.397,1.434,80.000,769.000,1.000
7877.064,6538.827,-83151.915,-47598.858,18854.555,7979.932,7742.683,6826.104,-0.039,0.991,-0.087,-0.061,-0.427,1.373,80.000,770.000,1.000
7891.594,6555.979,-82716.940,-47256.904,18969.557,7999.288,7767.127,6839.237,-0.039,0.991,-0.092,-0.061,-0.275,1.312,80.000,771.000,1.000
7906.722,6574.016,-82281.594,-46914.161,19083.831,8020.145,7791.992,6852.709,-0.039,0.990,-0.091,-0.153,-0.275,1.434,80.000,772.000,1.000
7921.574,6592.210,-81846.584,-46571.332,19197.270,8042.131,7817.156,6867.273,-0.040,0.991,-0.089,-0.214,-0.275,1.343,80.000,773.000,1.000
7935.165,6609.712,-81412.470,-46229.333,19309.738,8064.306,7842.139,6882.727,-0.042,0.991,-0.086,-0.397,-0.336,1.282,80.000,774.000,1.000
7946.930,6625.956,-80979.538,-45888.949,19420.951,8085.397,7866.139,6898.130,-0.040,0.990,-0.084,-0.488,-0.427,1.251,80.000,775.000,1.000
7957.261,6641.063,-80547.419,-45550.305,19530.869,8104.476,7888.678,6912.701,-0.041,0.988,-0.085,-0.488,-0.366,1.190,80.000,776.000,1.000
7967.215,6655.713,-80115.050,-45212.772,19640.010,8121.599,7910.223,6926.357,-0.040,0.987,-0.088,-0.458,-0.427,1.129,80.000,777.000,1.000
7977.592,6670.376,-79681.563,-44875.604,19748.874,8137.485,7931.654,6939.450,-0.039,0.986,-0.089,-0.427,-0.397,1.312,80.000,778.000,1.000
7988.458,6684.977,-79246.721,-44538.371,19857.698,8153.080,7953.737,6952.615,-0.040,0.986,-0.090,-0.397,-0.336,1.343,80.000,779.000,1.000
7999.571,6699.282,-78810.846,-44200.927,19966.439,8169.162,7976.832,6966.627,-0.040,0.987,-0.086,-0.397,-0.366,1.495,80.000,780.000,1.000
8011.066,6713.619,-78374.351,-43863.054,20074.905,8186.203,8001.055,6982.139,-0.041,0.987,-0.088,-0.305,-0.397,1.404,80.000,781.000,1.000
8023.391,6728.747,-77937.464,-43524.631,20182.830,8204.147,8026.229,6998.925,-0.041,0.988,-0.089,-0.275,-0.366,1.526,80.000,782.000,1.000
8036.602,6744.904,-77500.516,-43186.165,20289.627,8222.076,8051.343,7015.445,-0.043,0.988,-0.087,-0.244,-0.366,1.587,80.000,783.000,1.000
8050.211,6761.652,-77063.705,-42848.432,20394.812,8239.013,8075.353,7030.226,-0.042,0.987,-0.090,-0.305,-0.366,1.617,80.000,784.000,1.000
8063.662,6778.406,-76626.931,-42511.664,20498.492,8254.787,8098.077,7043.158,-0.041,0.984,-0.090,-0.305,-0.305,1.495,80.000,785.000,1.000
8076.556,6794.739,-76190.073,-42175.495,20601.392,8270.007,8119.941,7055.117,-0.039,0.980,-0.090,-0.214,-0.305,1.556,80.000,786.000,1.000
8088.615,6810.381,-75753.197,-41839.492,20704.517,8285.550,8141.330,7066.949,-0.040,0.979,-0.093,0.092,-0.366,1.617,80.000,787.000,1.000
8099.872,6825.326,-75316.377,-41503.306,20808.512,8302.123,8162.424,7079.125,-0.042,0.977,-0.092,0.275,-0.488,1.587,80.000,788.000,1.000
8110.833,6840.084,-74879.183,-41166.449,20913.535,8320.235,8183.704,7092.042,-0.043,0.979,-0.089,0.549,-0.488,1.465,80.000,789.000,1.000
8122.194,6855.291,-74441.021,-40828.549,21019.134,8339.853,8205.634,7105.894,-0.047,0.979,-0.089,0.702,-0.519,1.343,80.000,790.000,1.000
8134.216,6871.108,-74001.776,-40489.692,21124.248,8360.287,8228.230,7120.530,-0.047,0.981,-0.089,0.702,-0.519,1.190,80.000,791.000,1.000
8146.559,6887.124,-73561.906,-40150.388,21227.717,8380.631,8251.197,7135.510,-0.046,0.983,-0.089,0.671,-0.641,1.007,80.000,792.000,1.000
8158.739,6902.706,-73122.287,-39811.343,21328.880,8399.982,8273.895,7149.959,-0.047,0.985,-0.092,0.732,-0.763,0.977,80.000,793.000,1.000
8170.465,6917.445,-72683.713,-39473.150,21428.068,8417.671,8295.617,7162.778,-0.047,0.986,-0.091,0.854,-0.916,0.946,80.000,794.000,1.000
8181.773,6931.318,-72246.468,-39135.977,21526.321,8433.466,8315.967,7173.347,-0.043,0.987,-0.088,0.946,-1.038,0.916,80.000,795.000,1.000
8193.111,6944.780,-71810.044,-38799.403,21624.789,8447.879,8335.414,7182.465,-0.043,0.986,-0.089,1.007,-1.099,0.854,80.000,796.000,1.000
8204.939,6958.454,-71373.589,-38462.916,21724.128,8461.948,8355.162,7192.115,-0.044,0.988,-0.090,0.885,-1.221,0.854,80.000,797.000,1.000
8217.057,6972.487,-70936.881,-38126.538,21824.004,8476.310,8375.883,7203.733,-0.044,0.991,-0.091,0.824,-1.221,0.824,80.000,798.000,1.000
8228.550,6986.428,-70500.395,-37790.836,21923.592,8490.885,8397.189,7217.091,-0.043,0.991,-0.090,0.702,-1.282,0.885,80.000,799.000,1.000
8238.533,6999.588,-70064.778,-37456.473,22022.305,8505.156,8417.973,7230.747,-0.042,0.991,-0.089,0.702,-1.343,0.824,80.000,800.000,1.000
8246.949,7011.764,-69630.069,-37123.444,22120.376,8519.050,8437.612,7243.690,-0.041,0.991,-0.090,0.671,-1.282,0.885,80.000,801.000,1.000
8254.603,7023.476,-69195.500,-36790.916,22218.785,8533.368,8456.724,7256.235,-0.041,0.989,-0.089,0.671,-1.282,0.916,80.000,802.000,1.000
8262.460,7035.358,-68760.340,-36457.995,22318.185,8548.789,8476.228,7269.119,-0.041,0.988,-0.087,0.488,-1.343,0.977,80.000,803.000,1.000
8271.036,7047.706,-68324.450,-36124.336,22418.340,8565.089,8496.493,7282.562,-0.041,0.986,-0.087,0.336,-1.343,1.038,80.000,804.000,1.000
8280.281,7060.365,-67888.378,-35790.243,22518.144,8581.225,8517.027,7295.972,-0.041,0.987,-0.086,0.427,-1.312,1.190,80.000,805.000,1.000
8289.768,7072.989,-67452.767,-35456.240,22616.291,8596.233,8536.947,7308.385,-0.040,0.987,-0.089,0.458,-1.343,1.312,80.000,806.000,1.000
8299.221,7085.573,-67017.520,-35122.521,22712.328,8610.204,8556.046,7319.585,-0.040,0.985,-0.089,0.488,-1.404,1.404,80.000,807.000,1.000
8308.976,7098.619,-66581.890,-34788.762,22806.820,8624.165,8575.075,7330.752,-0.041,0.982,-0.091,0.458,-1.404,1.556,80.000,808.000,1.000
8319.523,7112.512,-66145.162,-34454.378,22900.680,8638.994,8594.894,7343.303,-0.040,0.984,-0.092,0.427,-1.404,1.617,80.000,809.000,1.000
8330.633,7126.695,-65707.498,-34119.177,22994.253,8654.202,8614.976,7356.671,-0.039,0.982,-0.089,0.397,-1.434,1.678,80.000,810.000,1.000
8341.345,7140.041,-65269.955,-33783.724,23087.201,8668.359,8633.699,7368.590,-0.039,0.983,-0.091,0.427,-1.343,1.587,80.000,811.000,1.000
8350.740,7151.881,-64833.770,-33449.122,23179.028,8680.593,8650.148,7377.674,-0.039,0.982,-0.091,0.488,-1.373,1.556,80.000,812.000,1.000
8358.631,7162.424,-64399.708,-33116.334,23269.495,8691.155,8664.799,7384.733,-0.040,0.982,-0.089,0.549,-1.373,1.465,80.000,813.000,1.000
8365.712,7172.637,-63967.341,-32785.437,23359.087,8701.279,8679.221,7391.991,-0.041,0.985,-0.091,0.549,-1.312,1.434,80.000,814.000,1.000
8373.034,7183.528,-63535.202,-32455.569,23448.695,8712.323,8695.022,7401.251,-0.039,0.984,-0.091,0.549,-1.251,1.404,80.000,815.000,1.000
8381.196,7195.479,-63101.847,-32125.607,23538.885,8724.880,8712.974,7412.790,-0.039,0.983,-0.089,0.427,-1.221,1.343,80.000,816.000,1.000
8390.089,7208.161,-62666.923,-31795.093,23629.641,8738.567,8732.836,7425.629,-0.040,0.984,-0.091,0.488,-1.282,1.282,80.000,817.000,1.000
8399.213,7220.814,-62231.318,-31464.411,23720.403,8752.335,8753.376,7438.243,-0.040,0.984,-0.090,0.488,-1.251,1.160,80.000,818.000,1.000
8407.977,7232.627,-61796.067,-31134.164,23810.513,8765.292,8772.993,7449.258,-0.039,0.983,-0.091,0.427,-1.221,1.099,80.000,819.000,1.000
8415.866,7243.006,-61361.623,-30804.762,23899.435,8777.192,8790.438,7457.953,-0.042,0.984,-0.093,0.427,-1.251,1.007,80.000,820.000,1.000
8422.645,7251.957,-60927.906,-30476.375,23986.833,8788.530,8805.503,7464.734,-0.039,0.985,-0.093,0.458,-1.221,0.793,80.000,821.000,1.000
8428.493,7260.131,-60494.787,-30149.152,24072.670,8800.175,8819.093,7470.897,-0.038,0.985,-0.092,0.458,-1.160,0.763,80.000,822.000,1.000
8434.019,7268.435,-60062.470,-29823.294,24157.278,8812.664,8832.405,7477.661,-0.040,0.985,-0.091,0.397,-1.099,0.641,80.000,823.000,1.000
8440.008,7277.661,-59630.918,-29498.526,24241.581,8826.031,8846.427,7485.692,-0.040,0.984,-0.089,0.366,-1.068,0.641,80.000,824.000,1.000
