EEG 1,EEG 2,EEG 3,EEG 4,EEG 5,EEG 6,EEG 7,EEG 8,Accelerometer X,Accelerometer Y,Accelerometer Z,Gyroscope X,Gyroscope Y,Gyroscope Z,Battery Level,Counter,Validation Indicator
5137.505,1633.260,-1122.071,-8789.797,4993.595,4950.113,-1939.378,1431.938,-0.165,0.898,-0.219,0.000,0.000,0.000,73.333,1.000,1.000
34823.984,9425.872,-9103.455,-61927.119,34373.001,34774.871,-14210.874,9054.763,-0.176,0.905,-0.235,0.000,0.000,0.000,73.333,2.000,1.000
112189.705,25591.929,-33199.938,-207014.235,114586.679,117179.864,-48965.069,27282.766,-0.179,0.908,-0.239,0.000,0.000,0.000,73.333,3.000,1.000
234436.797,48255.140,-76037.592,-443894.867,249482.822,256528.258,-108796.808,57069.539,-0.181,0.910,-0.241,0.000,0.000,0.000,73.333,4.000,1.000
369842.068,84004.244,-122486.510,-686180.576,409163.070,416548.603,-177476.273,100383.184,-0.183,0.910,-0.244,0.000,0.000,0.000,73.333,5.000,1.000
484918.653,150829.340,-143986.120,-800972.183,549838.022,536647.241,-225455.929,159010.223,-0.182,0.907,-0.244,-9.338,5.157,-1.373,73.333,6.000,1.000
561448.993,258218.838,-116978.889,-699931.593,637340.936,568945.118,-224149.434,227845.963,-0.183,0.907,-0.246,-7.568,2.930,0.427,73.333,7.000,1.000
596400.369,392385.744,-38100.767,-401864.905,660103.796,516205.820,-158484.121,301637.222,-0.184,0.908,-0.246,-5.157,1.556,1.038,73.333,8.000,1.000
600533.630,523399.009,74265.668,-19498.586,632695.173,434646.022,-30020.307,382168.726,-0.185,0.906,-0.246,-3.937,0.977,1.312,73.333,9.000,1.000
593440.122,620940.967,189930.374,306453.867,587150.802,390902.599,144631.321,468204.536,-0.187,0.906,-0.246,-3.235,0.793,1.251,73.333,10.000,1.000
589514.236,666708.653,282858.509,482349.430,553306.555,417349.196,334324.106,547662.130,-0.187,0.908,-0.247,-2.777,0.763,1.129,73.333,11.000,1.000
585932.080,660634.006,343843.534,505731.251,541944.355,499298.200,501544.421,603642.912,-0.186,0.907,-0.248,-2.380,0.732,1.068,73.333,12.000,1.000
566677.688,617466.905,380225.840,448773.756,544963.954,589881.598,618466.339,621024.695,-0.187,0.907,-0.246,-2.014,0.732,0.916,73.333,13.000,1.000
519360.324,554939.431,404498.054,394843.749,549856.141,640393.864,675603.106,590502.724,-0.188,0.908,-0.247,-1.617,0.824,0.885,73.333,14.000,1.000
446271.978,483332.250,423260.934,381687.361,551785.473,628507.335,678242.707,514432.086,-0.186,0.908,-0.251,-1.373,0.763,0.763,73.333,15.000,1.000
359520.221,404365.160,435170.213,395440.765,552571.984,564689.435,639208.200,409337.545,-0.188,0.910,-0.250,-0.854,0.763,0.763,73.333,16.000,1.000
270991.804,319029.088,437226.210,408593.305,552814.000,474931.301,574536.572,299854.934,-0.188,0.910,-0.249,-0.610,0.702,0.732,73.333,17.000,1.000
190273.036,235982.207,431313.832,413714.777,549508.132,379894.853,500853.096,208057.302,-0.186,0.915,-0.247,-0.305,0.580,0.610,73.333,18.000,1.000
127440.321,169953.841,423714.776,420049.965,541173.034,290529.550,430815.835,145517.767,-0.186,0.918,-0.247,-0.061,0.549,0.702,73.333,19.000,1.000
90581.493,130496.572,419123.761,430041.486,531579.488,216706.233,369744.718,111940.997,-0.186,0.922,-0.244,0.153,0.549,0.702,73.333,20.000,1.000
78735.231,114049.113,417019.624,432611.654,526054.239,169908.589,318664.169,99323.978,-0.187,0.924,-0.245,0.122,0.519,0.763,73.333,21.000,1.000
80473.225,108504.233,414362.530,420006.921,525300.107,153610.668,279548.876,97576.294,-0.187,0.927,-0.240,0.153,0.427,0.763,73.333,22.000,1.000
82196.744,104218.987,410311.952,401259.972,525020.900,155713.852,254642.733,98220.393,-0.189,0.931,-0.242,0.183,0.427,0.763,73.333,23.000,1.000
77788.390,99026.509,406867.218,392443.952,521533.488,156622.127,241263.374,95845.280,-0.188,0.934,-0.243,0.031,0.397,0.854,73.333,24.000,1.000
69653.728,94068.614,405456.634,397323.485,515827.019,145772.035,231062.254,88559.128,-0.187,0.937,-0.242,-0.122,0.397,0.977,73.333,25.000,1.000
61903.372,88449.077,404692.890,404251.072,511312.077,127785.634,216608.392,77738.867,-0.188,0.940,-0.243,-0.336,0.275,1.038,73.333,26.000,1.000
54976.276,79852.369,402235.040,402027.241,509044.665,112480.443,197608.719,66523.223,-0.187,0.941,-0.243,-0.458,0.092,1.068,73.333,27.000,1.000
47130.765,68669.376,397883.541,392909.895,506815.472,102508.270,179180.421,57473.202,-0.188,0.942,-0.239,-0.641,0.092,1.129,73.333,28.000,1.000
38628.269,58649.395,393696.101,387113.374,502605.734,93011.222,164850.416,51089.347,-0.187,0.944,-0.243,-1.190,0.061,1.343,73.333,29.000,1.000
32053.036,52771.456,391240.033,388484.152,497265.323,80699.717,153135.856,46276.499,-0.188,0.947,-0.243,-1.373,0.000,1.526,73.333,30.000,1.000
28764.354,49914.156,389778.233,390687.636,493068.787,68743.028,140955.713,41890.278,-0.189,0.948,-0.243,-1.740,-0.031,1.770,73.333,31.000,1.000
26901.539,46605.827,387541.995,387012.598,490619.108,61751.256,128196.394,37612.831,-0.189,0.947,-0.244,-2.075,-0.183,1.862,73.333,32.000,1.000
23672.934,41253.188,384067.896,379171.394,488313.187,59015.208,117338.787,33572.525,-0.190,0.948,-0.242,-2.289,-0.153,1.862,73.333,33.000,1.000
18617.889,35420.679,380536.479,374031.352,484657.406,55357.682,109489.114,29672.256,-0.189,0.947,-0.242,-2.625,-0.336,1.862,73.333,34.000,1.000
13622.925,31135.987,378017.239,374260.309,480063.925,47773.619,102695.521,25614.308,-0.188,0.946,-0.243,-2.808,-0.458,1.953,73.333,35.000,1.000
10180.373,28246.096,376148.548,375624.770,475987.738,38711.155,94582.561,21404.841,-0.187,0.944,-0.246,-3.021,-0.488,1.984,73.333,36.000,1.000
7743.092,25057.911,373817.932,373253.471,472967.917,32278.206,85330.199,17471.225,-0.187,0.941,-0.245,-3.113,-0.488,2.014,73.333,37.000,1.000
4935.949,20810.487,370657.519,367610.252,470185.188,29070.403,77059.503,14182.406,-0.184,0.939,-0.247,-3.265,-0.488,2.106,73.333,38.000,1.000
1473.471,16511.040,367371.258,362928.183,466743.191,26151.175,70881.369,11431.313,-0.184,0.938,-0.246,-3.204,-0.519,2.289,73.333,39.000,1.000
-1764.575,13378.827,364704.936,361449.969,462738.060,21275.063,65694.292,8813.523,-0.184,0.936,-0.246,-3.265,-0.427,2.380,73.333,40.000,1.000
-4142.314,11286.700,362556.479,361224.449,458899.052,15426.823,59947.835,6113.622,-0.183,0.935,-0.247,-3.265,-0.336,2.380,73.333,41.000,1.000
-6020.526,9132.292,360258.251,359288.866,455598.380,10945.439,53617.635,3466.786,-0.184,0.936,-0.250,-3.143,-0.427,2.441,73.333,42.000,1.000
-8080.688,6302.366,357456.393,355280.209,452545.610,8404.445,47871.344,1075.004,-0.186,0.935,-0.247,-3.082,-0.427,2.380,73.333,43.000,1.000
-10453.522,3244.940,354442.601,351230.896,449292.023,6247.606,43313.326,-1073.552,-0.187,0.933,-0.244,-2.960,-0.427,2.411,73.333,44.000,1.000
-12775.002,692.843,351691.172,348773.215,445722.985,3010.215,39317.413,-3140.372,-0.187,0.930,-0.243,-2.869,-0.366,2.350,73.333,45.000,1.000
-14779.497,-1220.052,349305.872,347513.815,442048.658,-1049.874,35050.616,-5197.314,-0.183,0.927,-0.243,-2.838,-0.549,2.350,73.333,46.000,1.000
-16510.992,-2934.590,346991.164,345932.214,438527.700,-4629.201,30517.040,-7161.136,-0.180,0.923,-0.247,-2.716,-0.458,2.350,73.333,47.000,1.000
-18090.127,-4848.713,344439.710,343128.418,435266.739,-7027.033,26315.341,-8941.333,-0.181,0.917,-0.245,-2.502,-0.305,2.136,73.333,48.000,1.000
-19586.501,-6951.281,341644.354,339539.374,432154.550,-8741.382,22745.999,-10558.619,-0.184,0.915,-0.247,-2.197,-0.244,2.106,73.333,49.000,1.000
-21104.653,-8963.002,338859.532,336331.952,428927.991,-10705.307,19547.527,-12095.437,-0.191,0.913,-0.250,-1.801,-0.305,2.045,73.333,50.000,1.000
-22725.123,-10649.041,336319.765,334252.815,425413.329,-13300.842,16380.163,-13592.541,-0.194,0.914,-0.249,-1.343,-0.366,1.770,73.333,51.000,1.000
-24300.595,-12006.156,333999.913,332878.277,421769.331,-16102.944,13204.835,-15035.105,-0.194,0.916,-0.250,-0.977,-0.549,1.617,73.333,52.000,1.000
-25546.529,-13265.104,331639.204,330968.562,418373.733,-18387.084,10148.045,-16403.801,-0.194,0.917,-0.250,-0.488,-0.702,1.251,73.333,53.000,1.000
-26459.064,-14702.281,329021.645,327799.952,415360.636,-19865.373,7270.328,-17693.288,-0.195,0.918,-0.248,-0.214,-0.885,0.977,73.333,54.000,1.000
-27437.800,-16346.095,326235.358,324134.707,412380.660,-21010.983,4592.268,-18895.810,-0.194,0.919,-0.250,0.153,-1.068,0.824,73.333,55.000,1.000
-28785.581,-17884.826,323595.780,321473.851,409002.019,-22601.979,2159.859,-20010.911,-0.192,0.922,-0.246,0.427,-1.160,0.702,73.333,56.000,1.000
-30226.574,-18996.709,321270.465,320191.226,405304.571,-24838.421,-76.889,-21071.971,-0.192,0.921,-0.250,0.641,-1.312,0.397,73.333,57.000,1.000
-31213.701,-19785.844,319046.247,318883.780,401835.253,-27022.050,-2324.609,-22122.563,-0.194,0.920,-0.248,0.854,-1.465,0.305,73.333,58.000,1.000
-31700.746,-20724.294,316571.860,316056.307,398893.151,-28341.214,-4700.504,-23154.478,-0.193,0.922,-0.250,1.190,-1.556,0.214,73.333,59.000,1.000
-32280.832,-22063.907,313812.708,312145.087,396087.265,-28930.661,-6995.132,-24105.845,-0.192,0.924,-0.251,1.526,-1.648,0.153,73.333,60.000,1.000
-33401.045,-23460.117,311123.069,309098.490,392827.140,-29806.795,-8895.017,-24945.192,-0.188,0.927,-0.252,1.709,-1.740,-0.092,73.333,61.000,1.000
-34709.715,-24382.871,308796.798,307831.048,389131.847,-31593.357,-10447.536,-25727.504,-0.186,0.929,-0.252,1.740,-1.892,-0.031,73.333,62.000,1.000
-35500.492,-24836.268,306666.258,306901.407,385637.646,-33640.247,-12072.361,-26526.500,-0.187,0.931,-0.247,1.953,-2.075,-0.031,73.333,63.000,1.000
-35695.048,-25400.321,304304.346,304351.020,382744.541,-34804.116,-14000.946,-27326.799,-0.187,0.935,-0.245,1.953,-1.953,0.031,73.333,64.000,1.000
-35988.914,-26471.287,301591.823,300360.530,380054.268,-34974.021,-15909.049,-28036.987,-0.185,0.937,-0.247,1.923,-2.014,0.061,73.333,65.000,1.000
-36909.260,-27706.282,298890.961,297087.391,376896.291,-35290.957,-17330.268,-28620.628,-0.187,0.937,-0.246,1.862,-1.923,0.244,73.333,66.000,1.000
-38074.493,-28464.998,296568.877,295779.895,373244.924,-36663.936,-18331.101,-29162.828,-0.186,0.939,-0.245,1.831,-1.984,0.305,73.333,67.000,1.000
-38706.739,-28685.801,294499.395,295049.819,369764.775,-38530.333,-19476.961,-29766.086,-0.185,0.939,-0.245,1.831,-2.167,0.336,73.333,68.000,1.000
-38709.091,-28993.912,292224.988,292717.176,366906.066,-39581.033,-21072.505,-30410.938,-0.187,0.939,-0.245,1.709,-2.106,0.336,73.333,69.000,1.000
-38810.520,-29862.330,289572.772,288770.375,364287.412,-39529.063,-22719.294,-30979.033,-0.189,0.937,-0.243,1.495,-2.136,0.366,73.333,70.000,1.000
-39565.077,-30961.325,286890.888,285397.431,361217.513,-39522.904,-23845.518,-31415.423,-0.188,0.935,-0.242,1.373,-2.106,0.610,73.333,71.000,1.000
-40589.292,-31600.509,284578.594,284016.589,357639.753,-40604.588,-24503.484,-31807.349,-0.188,0.934,-0.243,1.282,-2.167,0.732,73.333,72.000,1.000
-41094.837,-31670.817,282546.120,283353.180,354202.995,-42291.502,-25316.519,-32265.797,-0.188,0.931,-0.242,1.068,-2.106,0.854,73.333,73.000,1.000
-40975.439,-31795.593,280339.046,281187.067,351369.452,-43225.837,-26624.469,-32771.892,-0.186,0.930,-0.241,0.916,-2.106,0.854,73.333,74.000,1.000
-40945.266,-32480.957,277755.555,277369.642,348790.551,-43019.524,-28009.940,-33203.527,-0.188,0.928,-0.240,0.763,-2.106,0.916,73.333,75.000,1.000
-41550.684,-33430.702,275104.469,273985.105,345790.588,-42779.087,-28874.308,-33506.866,-0.188,0.927,-0.242,0.793,-2.167,1.007,73.333,76.000,1.000
-42430.314,-33960.916,272729.545,272450.687,342252.993,-43598.373,-29270.484,-33774.034,-0.186,0.926,-0.243,0.641,-2.136,1.068,73.333,77.000,1.000
-42831.305,-33936.211,270440.816,271523.881,338671.842,-45083.461,-29834.509,-34117.885,-0.185,0.923,-0.244,0.641,-2.106,1.068,73.333,78.000,1.000
-42645.621,-33944.217,267649.254,268914.695,335335.304,-45912.372,-30910.178,-34517.679,-0.185,0.922,-0.242,0.610,-2.075,1.099,73.333,79.000,1.000
-42537.949,-34485.274,264047.263,264272.744,331815.070,-45638.694,-32081.383,-34849.605,-0.187,0.922,-0.242,0.549,-2.075,1.007,73.333,80.000,1.000
-43019.139,-35299.820,259947.770,259519.458,327485.982,-45272.893,-32754.285,-35058.486,-0.186,0.922,-0.243,0.488,-2.075,1.007,73.333,81.000,1.000
-43761.394,-35742.371,255880.848,256206.469,322381.178,-45884.614,-32975.346,-35233.342,-0.187,0.921,-0.243,0.458,-2.075,1.099,73.333,82.000,1.000
-44075.908,-35665.222,252019.532,253575.699,317227.026,-47166.198,-33357.896,-35484.880,-0.187,0.920,-0.243,0.305,-1.953,1.007,73.333,83.000,1.000
-43858.752,-35600.390,248158.796,249860.618,312569.266,-47895.178,-34235.852,-35796.404,-0.186,0.919,-0.243,0.275,-1.984,1.038,73.333,84.000,1.000
-43704.767,-36018.854,244180.498,244875.782,308080.016,-47609.386,-35220.331,-36051.761,-0.186,0.921,-0.243,0.336,-1.862,0.916,73.333,85.000,1.000
-44073.586,-36701.176,240311.068,240308.026,302912.391,-47196.816,-35752.438,-36196.467,-0.188,0.921,-0.242,0.427,-1.892,0.854,73.333,86.000,1.000
-44679.002,-37062.406,236827.490,237408.953,296637.260,-47649.696,-35867.720,-36308.511,-0.187,0.921,-0.244,0.427,-1.831,0.854,73.333,87.000,1.000
-44913.260,-36952.521,233654.469,235323.735,289593.140,-48731.753,-36125.334,-36486.092,-0.188,0.922,-0.243,0.427,-1.770,0.763,73.333,88.000,1.000
-44680.405,-36835.937,230431.969,232293.549,282329.299,-49350.388,-36830.577,-36713.128,-0.185,0.925,-0.245,0.488,-1.740,0.763,73.333,89.000,1.000
-44496.010,-37140.405,226967.625,228002.609,275006.975,-49056.737,-37634.773,-36887.052,-0.185,0.928,-0.247,0.519,-1.617,0.732,73.333,90.000,1.000
-44762.060,-37690.294,223463.075,223890.129,267522.908,-48612.034,-38037.825,-36963.632,-0.183,0.930,-0.244,0.397,-1.526,0.671,73.333,91.000,1.000
-45238.947,-37977.308,220223.245,221129.981,260018.674,-48912.271,-38072.248,-37016.893,-0.183,0.930,-0.242,0.519,-1.343,0.641,73.333,92.000,1.000
-45408.650,-37858.664,217255.512,219099.352,252943.343,-49794.287,-38235.661,-37136.432,-0.182,0.929,-0.245,0.336,-1.221,0.732,73.333,93.000,1.000
-45184.934,-37725.567,214288.222,216331.221,246552.931,-50319.670,-38800.612,-37308.243,-0.181,0.933,-0.244,0.366,-1.068,0.610,73.333,94.000,1.000
-44998.526,-37950.292,211152.275,212517.532,240567.518,-50069.989,-39464.210,-37440.271,-0.182,0.933,-0.244,0.214,-0.977,0.549,73.333,95.000,1.000
-45187.492,-38394.258,207995.685,208834.186,234489.332,-49668.395,-39789.274,-37490.054,-0.179,0.932,-0.246,0.122,-0.671,0.580,73.333,96.000,1.000
-45555.585,-38627.308,205060.504,206276.692,228168.457,-49885.023,-39798.531,-37517.734,-0.180,0.932,-0.247,0.000,-0.549,0.488,73.333,97.000,1.000
-45673.683,-38517.872,202350.447,204354.835,221888.322,-50607.327,-39915.642,-37598.364,-0.179,0.932,-0.245,-0.122,-0.305,0.549,73.333,98.000,1.000
-45466.216,-38384.655,199638.152,201846.410,215915.882,-51049.485,-40373.406,-37720.201,-0.179,0.934,-0.243,-0.122,-0.244,0.580,73.333,99.000,1.000
-45281.771,-38541.432,196778.206,198458.164,210152.354,-50836.867,-40916.326,-37806.143,-0.181,0.933,-0.243,-0.183,-0.122,0.580,73.333,100.000,1.000
-45397.103,-38883.605,193889.930,195133.221,204319.336,-50468.568,-41175.057,-37821.155,-0.183,0.933,-0.242,-0.397,0.092,0.763,73.333,101.000,1.000
-45659.359,-39059.940,191178.631,192709.929,198366.648,-50594.528,-41166.255,-37816.545,-0.184,0.935,-0.246,-0.488,0.214,0.641,73.333,102.000,1.000
-45727.248,-38955.792,188658.505,190832.194,192530.877,-51151.896,-41242.713,-37856.558,-0.185,0.937,-0.243,-0.580,0.214,0.671,73.333,103.000,1.000
-45538.656,-38824.869,186148.601,188519.135,186997.385,-51507.965,-41601.354,-37933.634,-0.186,0.938,-0.246,-0.580,0.275,0.610,73.333,104.000,1.000
-45366.791,-38925.644,183523.913,185500.149,181652.723,-51338.104,-42037.061,-37985.534,-0.189,0.938,-0.243,-0.763,0.366,0.641,73.333,105.000,1.000
-45429.620,-39183.274,180871.077,182498.968,176251.132,-51023.471,-42248.524,-37982.607,-0.193,0.937,-0.246,-0.854,0.397,0.519,73.333,106.000,1.000
-45609.675,-39318.104,178354.252,180194.691,170740.282,-51089.637,-42244.628,-37963.750,-0.192,0.938,-0.242,-0.977,0.214,0.458,73.333,107.000,1.000
-45641.370,-39229.269,175993.017,178342.675,165304.834,-51507.870,-42304.906,-37978.326,-0.194,0.936,-0.240,-1.160,0.122,0.397,73.333,108.000,1.000
-45472.719,-39108.045,173649.653,176183.881,160099.648,-51785.599,-42586.358,-38020.052,-0.193,0.937,-0.241,-1.251,0.153,0.427,73.333,109.000,1.000
-45309.866,-39159.969,171221.662,173479.100,155052.619,-51653.109,-42928.551,-38041.337,-0.193,0.938,-0.237,-1.251,0.061,0.336,73.333,110.000,1.000
-45320.799,-39337.367,168768.989,170760.668,149984.743,-51393.036,-43095.503,-38020.998,-0.195,0.935,-0.242,-1.526,0.061,0.336,73.333,111.000,1.000
-45422.885,-39429.194,166417.970,168560.092,144853.447,-51419.442,-43093.947,-37990.535,-0.194,0.935,-0.240,-1.587,-0.122,0.397,73.333,112.000,1.000
-45420.578,-39352.695,164190.131,166723.327,139788.688,-51729.325,-43141.061,-37987.644,-0.195,0.934,-0.241,-1.648,-0.244,0.427,73.333,113.000,1.000
-45272.260,-39246.132,161984.899,164686.575,134901.085,-51950.519,-43358.885,-38005.327,-0.196,0.934,-0.245,-1.709,-0.214,0.427,73.333,114.000,1.000
-45124.337,-39265.181,159721.171,162245.176,130139.630,-51859.789,-43624.833,-38004.708,-0.198,0.935,-0.244,-1.678,-0.458,0.458,73.333,115.000,1.000
-45098.110,-39380.456,157437.724,159769.559,125377.200,-51650.326,-43757.271,-37968.291,-0.197,0.936,-0.243,-1.740,-0.580,0.549,73.333,116.000,1.000
-45137.388,-39437.277,155228.525,157660.515,120582.584,-51634.061,-43757.431,-37920.084,-0.197,0.935,-0.240,-1.740,-0.671,0.549,73.333,117.000,1.000
-45105.343,-39368.866,153115.405,155836.096,115844.990,-51829.012,-43786.377,-37890.353,-0.196,0.934,-0.240,-1.709,-0.854,0.763,73.333,118.000,1.000
-44971.154,-39270.221,151028.248,153898.710,111240.908,-51974.105,-43937.975,-37877.101,-0.197,0.934,-0.239,-1.678,-0.946,0.763,73.333,119.000,1.000
-44833.661,-39256.225,148904.192,151677.922,106737.448,-51897.947,-44127.163,-37853.969,-0.196,0.936,-0.240,-1.709,-1.007,0.885,73.333,120.000,1.000
-44776.160,-39313.881,146764.548,149410.455,102249.871,-51725.318,-44223.631,-37807.888,-0.195,0.933,-0.238,-1.770,-1.068,1.007,73.333,121.000,1.000
-44764.199,-39337.469,144675.458,147383.887,97754.743,-51681.067,-44226.453,-37754.261,-0.196,0.932,-0.238,-1.770,-1.160,1.129,73.333,122.000,1.000
-44709.208,-39275.522,142658.259,145571.366,93306.440,-51794.714,-44248.294,-37713.070,-0.196,0.930,-0.239,-1.709,-1.343,1.404,73.333,123.000,1.000
-44588.890,-39187.174,140669.029,143713.872,88954.444,-51891.491,-44355.053,-37682.104,-0.194,0.929,-0.238,-1.587,-1.343,1.373,73.333,124.000,1.000
-44462.551,-39151.102,138662.178,141675.096,84684.160,-51838.564,-44487.388,-37642.207,-0.194,0.927,-0.242,-1.465,-1.465,1.434,73.333,125.000,1.000
-44381.922,-39164.532,136646.166,139585.926,80450.561,-51700.060,-44552.451,-37582.672,-0.195,0.925,-0.243,-1.343,-1.495,1.465,73.333,126.000,1.000
-44329.365,-39159.520,134664.154,137639.234,76242.671,-51623.829,-44543.257,-37511.593,-0.197,0.923,-0.245,-1.190,-1.587,1.404,73.333,127.000,1.000
-44254.323,-39096.239,132735.700,135847.837,72091.442,-51645.392,-44530.525,-37441.202,-0.197,0.922,-0.241,-0.977,-1.648,1.495,73.333,128.000,1.000
-44141.445,-39005.534,130836.726,134062.791,68023.885,-51664.469,-44559.720,-37371.904,-0.196,0.919,-0.243,-0.793,-1.617,1.526,73.333,129.000,1.000
-44019.744,-38938.993,128934.943,132177.857,64032.214,-51591.310,-44600.218,-37295.568,-0.193,0.918,-0.243,-0.580,-1.709,1.587,73.333,130.000,1.000
-43916.985,-38905.037,127028.326,130241.904,60090.907,-51453.724,-44600.358,-37209.501,-0.194,0.916,-0.245,-0.244,-1.801,1.678,73.333,131.000,1.000
-43829.269,-38869.737,125140.937,128370.559,56187.108,-51344.508,-44558.568,-37121.160,-0.195,0.916,-0.246,0.122,-1.831,1.587,73.333,132.000,1.000
-43736.466,-38806.112,123289.757,126603.546,52325.991,-51303.066,-44517.607,-37039.011,-0.195,0.917,-0.246,0.366,-1.831,1.556,73.333,133.000,1.000
-43629.197,-38722.928,121466.414,124877.625,48516.425,-51281.822,-44504.353,-36963.002,-0.195,0.916,-0.248,0.763,-1.892,1.465,73.333,134.000,1.000
-43512.738,-38646.157,119650.765,123114.513,44761.359,-51216.940,-44501.630,-36886.211,-0.193,0.917,-0.247,1.099,-1.862,1.434,73.333,135.000,1.000
-43395.425,-38587.112,117834.534,121303.916,41058.578,-51101.058,-44479.407,-36803.466,-0.190,0.917,-0.246,1.465,-1.892,1.404,73.333,136.000,1.000
-43282.767,-38534.896,116027.758,119501.522,37401.902,-50979.585,-44433.099,-36715.862,-0.189,0.917,-0.243,1.831,-1.892,1.312,73.333,137.000,1.000
-43177.106,-38472.536,114245.014,117763.794,33782.668,-50893.302,-44381.340,-36627.328,-0.189,0.918,-0.246,2.075,-1.862,1.373,73.333,138.000,1.000
-43074.111,-38394.138,112489.169,116090.643,30197.521,-50837.892,-44338.377,-36539.593,-0.188,0.921,-0.246,2.380,-1.801,1.495,73.333,139.000,1.000
-42962.665,-38308.715,110749.142,114427.106,26654.840,-50775.592,-44301.734,-36451.574,-0.187,0.922,-0.250,2.563,-1.709,1.465,73.333,140.000,1.000
-42836.985,-38230.864,109012.333,112721.683,23166.413,-50677.469,-44262.245,-36361.585,-0.187,0.925,-0.251,2.747,-1.648,1.404,73.333,141.000,1.000
-42707.966,-38166.462,107278.286,110985.024,19729.955,-50553.237,-44214.975,-36269.082,-0.186,0.926,-0.249,2.960,-1.556,1.404,73.333,142.000,1.000
-42592.824,-38105.572,105558.987,109282.352,16326.929,-50441.102,-44160.095,-36175.150,-0.185,0.927,-0.248,3.052,-1.434,1.343,73.333,143.000,1.000
-42491.205,-38031.823,103864.746,107657.781,12944.066,-50366.409,-44101.483,-36082.173,-0.186,0.929,-0.250,3.113,-1.343,1.343,73.333,144.000,1.000
-42381.777,-37941.804,102191.031,106075.396,9591.351,-50311.560,-44046.978,-35992.433,-0.186,0.932,-0.250,3.052,-1.312,1.404,73.333,145.000,1.000
-42249.942,-37852.047,100522.561,104457.147,6288.688,-50234.392,-44003.114,-35905.986,-0.187,0.935,-0.246,2.930,-1.190,1.373,73.333,146.000,1.000
-42110.414,-37780.461,98851.538,102781.200,3036.450,-50118.922,-43965.612,-35820.253,-0.185,0.937,-0.247,2.838,-1.129,1.282,73.333,147.000,1.000
-41989.555,-37721.917,97188.140,101115.740,-187.889,-49997.411,-43920.531,-35732.407,-0.186,0.938,-0.245,2.716,-1.129,1.282,73.333,148.000,1.000
-41888.533,-37651.700,95548.472,99534.593,-3399.411,-49911.382,-43861.070,-35642.477,-0.186,0.941,-0.244,2.594,-1.129,1.282,73.333,149.000,1.000
-41779.255,-37556.661,93933.656,98018.111,-6583.371,-49856.490,-43798.839,-35553.017,-0.186,0.941,-0.244,2.380,-1.007,1.251,73.333,150.000,1.000
-41641.806,-37453.855,92327.354,96473.974,-9713.566,-49783.710,-43749.483,-35464.661,-0.184,0.943,-0.243,2.136,-0.854,1.190,73.333,151.000,1.000
-41493.163,-37369.724,90716.294,94858.071,-12788.617,-49661.641,-43709.515,-35374.047,-0.183,0.942,-0.245,1.831,-0.824,1.190,73.333,152.000,1.000
-41365.771,-37305.377,89107.567,93235.831,-15835.878,-49520.358,-43658.253,-35277.792,-0.184,0.943,-0.242,1.556,-0.763,1.099,73.333,153.000,1.000
-41263.243,-37234.477,87519.280,91696.901,-18875.290,-49414.632,-43585.596,-35177.386,-0.185,0.942,-0.243,1.251,-0.763,1.038,73.333,154.000,1.000
-41154.546,-37138.432,85956.156,90233.898,-21892.056,-49351.467,-43508.039,-35078.114,-0.185,0.942,-0.245,0.763,-0.702,0.977,73.333,155.000,1.000
-41016.361,-37032.252,84402.630,88750.004,-24856.335,-49279.167,-43447.886,-34982.437,-0.183,0.941,-0.243,0.427,-0.580,0.977,73.333,156.000,1.000
-40865.613,-36944.837,82843.308,87188.585,-27763.781,-49155.502,-43402.063,-34886.552,-0.182,0.941,-0.246,0.122,-0.488,1.007,73.333,157.000,1.000
-40736.314,-36879.071,81283.670,85610.311,-30641.003,-49004.457,-43344.255,-34785.157,-0.184,0.939,-0.247,-0.183,-0.427,1.129,73.333,158.000,1.000
-40632.154,-36806.435,79742.922,84111.743,-33508.267,-48883.895,-43259.601,-34678.307,-0.184,0.935,-0.247,-0.397,-0.366,1.099,73.333,159.000,1.000
-40520.732,-36704.848,78228.218,82694.735,-36351.351,-48806.718,-43164.978,-34571.200,-0.183,0.937,-0.244,-0.702,-0.427,1.190,73.333,160.000,1.000
-40377.905,-36588.731,76724.937,81264.133,-39141.175,-48722.648,-43085.854,-34467.284,-0.185,0.937,-0.244,-0.916,-0.336,1.282,73.333,161.000,1.000
-40220.890,-36489.891,75216.210,79756.761,-41873.874,-48586.466,-43021.035,-34364.275,-0.187,0.935,-0.246,-1.068,-0.153,1.282,73.333,162.000,1.000
-40084.446,-36414.733,73705.285,78225.972,-44576.176,-48420.192,-42944.179,-34257.898,-0.186,0.935,-0.245,-1.373,-0.183,1.312,73.333,163.000,1.000
-39973.719,-36336.405,72210.549,76767.586,-47269.543,-48284.617,-42840.865,-34148.244,-0.187,0.933,-0.245,-1.526,-0.092,1.373,73.333,164.000,1.000
-39858.575,-36232.387,70740.268,75389.741,-49943.002,-48198.667,-42730.065,-34040.151,-0.186,0.931,-0.246,-1.770,0.000,1.465,73.333,165.000,1.000
-39715.701,-36115.229,69281.490,74003.722,-52570.710,-48115.039,-42639.147,-33936.497,-0.185,0.930,-0.242,-1.801,0.031,1.434,73.333,166.000,1.000
-39560.009,-36014.817,67817.772,72545.553,-55149.005,-47984.401,-42566.829,-33834.104,-0.186,0.928,-0.243,-1.862,0.092,1.343,73.333,167.000,1.000
-39423.271,-35937.553,66351.233,71061.088,-57701.755,-47820.731,-42485.411,-33728.211,-0.189,0.927,-0.245,-1.862,0.061,1.312,73.333,168.000,1.000
-39310.563,-35858.278,64899.128,69640.935,-60247.281,-47680.010,-42378.696,-33618.891,-0.189,0.926,-0.247,-1.984,0.031,1.434,73.333,169.000,1.000
-39194.197,-35754.826,63470.139,68297.365,-62773.330,-47583.322,-42263.104,-33510.353,-0.191,0.924,-0.246,-1.953,0.031,1.434,73.333,170.000,1.000
-39052.056,-35637.221,62052.823,66950.610,-65253.959,-47489.405,-42163.389,-33404.172,-0.189,0.922,-0.243,-1.892,0.031,1.434,73.333,171.000,1.000
-38896.826,-35532.511,60631.423,65539.023,-67684.273,-47352.115,-42077.777,-33296.358,-0.190,0.922,-0.247,-1.831,0.031,1.312,73.333,172.000,1.000
-38757.093,-35447.501,59206.900,64100.460,-70085.612,-47182.625,-41980.827,-33182.523,-0.190,0.920,-0.249,-1.709,-0.153,1.373,73.333,173.000,1.000
-38638.204,-35360.643,57794.800,62717.068,-72475.848,-47032.779,-41859.217,-33064.227,-0.190,0.918,-0.245,-1.556,-0.153,1.251,73.333,174.000,1.000
-38516.600,-35252.678,56403.843,61403.585,-74846.581,-46924.769,-41730.585,-32947.798,-0.193,0.917,-0.245,-1.343,-0.214,1.343,73.333,175.000,1.000
-38373.405,-35132.813,55024.684,60091.163,-77176.665,-46822.944,-41619.533,-32836.658,-0.194,0.918,-0.246,-1.282,-0.183,1.190,73.333,176.000,1.000
-38220.000,-35025.623,53643.183,58723.360,-79461.780,-46684.096,-41524.845,-32727.729,-0.195,0.919,-0.243,-1.068,-0.244,1.160,73.333,177.000,1.000
-38081.501,-34938.010,52259.246,57330.317,-81719.639,-46515.789,-41422.676,-32616.542,-0.194,0.918,-0.245,-0.793,-0.305,1.190,73.333,178.000,1.000
-37962.435,-34851.070,50885.933,55983.551,-83965.200,-46364.044,-41299.731,-32503.526,-0.193,0.918,-0.246,-0.580,-0.397,1.251,73.333,179.000,1.000
-37841.609,-34746.294,49531.167,54698.434,-86191.149,-46250.186,-41170.424,-32392.923,-0.194,0.918,-0.246,-0.275,-0.519,1.221,73.333,180.000,1.000
-37701.338,-34629.349,48187.460,53417.193,-88379.396,-46143.726,-41055.713,-32286.056,-0.195,0.918,-0.245,-0.153,-0.610,1.190,73.333,181.000,1.000
-37550.303,-34520.415,46842.769,52089.981,-90526.557,-46005.758,-40954.495,-32179.042,-0.192,0.920,-0.244,0.061,-0.732,1.160,73.333,182.000,1.000
-37410.336,-34426.401,45496.713,50740.150,-92648.482,-45841.049,-40846.470,-32068.042,-0.193,0.922,-0.244,0.244,-0.885,1.129,73.333,183.000,1.000
-37286.941,-34333.093,44160.394,49428.434,-94758.725,-45688.950,-40720.563,-31954.224,-0.192,0.923,-0.245,0.458,-0.977,1.068,73.333,184.000,1.000
-37163.641,-34226.257,42841.062,48170.338,-96851.669,-45569.490,-40589.575,-31841.864,-0.192,0.925,-0.244,0.580,-1.038,1.068,73.333,185.000,1.000
-37025.928,-34111.581,41532.742,46919.013,-98912.549,-45459.131,-40472.382,-31732.650,-0.192,0.926,-0.248,0.732,-1.068,1.099,73.333,186.000,1.000
-36880.358,-34006.391,40224.810,45631.382,-100938.848,-45325.682,-40369.221,-31624.049,-0.191,0.928,-0.248,0.885,-1.099,1.129,73.333,187.000,1.000
-36743.512,-33915.450,38916.112,44324.247,-102943.284,-45171.272,-40262.870,-31513.163,-0.191,0.928,-0.249,0.977,-1.221,1.038,73.333,188.000,1.000
-36618.479,-33824.461,37615.664,43047.349,-104935.996,-45026.171,-40142.388,-31400.622,-0.190,0.930,-0.247,1.068,-1.251,1.190,73.333,189.000,1.000
-36491.487,-33719.211,36329.943,41815.381,-106911.748,-44905.890,-40016.713,-31289.650,-0.191,0.932,-0.249,1.099,-1.160,1.221,73.333,190.000,1.000
-36351.268,-33603.478,35054.527,40591.636,-108858.594,-44791.122,-39900.945,-31181.609,-0.190,0.935,-0.248,1.068,-1.343,1.251,73.333,191.000,1.000
-36203.657,-33492.770,33780.610,39340.233,-110775.137,-44655.624,-39796.207,-31074.462,-0.188,0.936,-0.248,1.007,-1.404,1.373,73.333,192.000,1.000
-36062.749,-33394.154,32506.591,38072.514,-112672.886,-44501.617,-39690.257,-30965.820,-0.186,0.938,-0.247,0.885,-1.495,1.373,73.333,193.000,1.000
-35932.424,-33299.347,31239.197,36827.585,-114561.470,-44355.421,-39575.804,-30856.075,-0.185,0.939,-0.245,0.763,-1.434,1.343,73.333,194.000,1.000
-35803.407,-33198.526,29983.718,35618.592,-116437.534,-44232.472,-39460.762,-30747.972,-0.188,0.942,-0.246,0.610,-1.404,1.221,73.333,195.000,1.000
-35667.992,-33094.403,28737.202,34418.103,-118290.992,-44119.800,-39357.153,-30643.365,-0.188,0.943,-0.245,0.336,-1.465,1.373,73.333,196.000,1.000
-35530.809,-32997.594,27493.194,33197.760,-120118.680,-43996.519,-39264.773,-30541.356,-0.189,0.944,-0.244,0.153,-1.495,1.312,73.333,197.000,1.000
-35401.352,-32910.793,26250.690,31965.247,-121926.792,-43861.319,-39171.365,-30439.554,-0.189,0.945,-0.243,-0.153,-1.526,1.282,73.333,198.000,1.000
-35279.919,-32823.926,25015.184,30750.768,-123720.280,-43730.589,-39067.871,-30336.444,-0.187,0.946,-0.241,-0.488,-1.556,1.282,73.333,199.000,1.000
-35156.509,-32726.243,23791.169,29565.469,-125495.025,-43613.176,-38958.047,-30232.181,-0.188,0.945,-0.240,-0.793,-1.556,1.404,73.333,200.000,1.000
-35023.409,-32618.710,22576.608,28387.582,-127242.815,-43497.559,-38850.754,-30127.175,-0.185,0.946,-0.241,-1.068,-1.587,1.526,73.333,201.000,1.000
-34884.279,-32511.350,21366.140,27190.653,-128961.663,-43367.696,-38747.301,-30021.059,-0.184,0.942,-0.240,-1.404,-1.465,1.587,73.333,202.000,1.000
-34748.435,-32410.307,20157.901,25971.190,-130657.498,-43223.977,-38640.712,-29913.245,-0.184,0.940,-0.241,-1.617,-1.556,1.495,73.333,203.000,1.000
-34619.090,-32311.783,18954.758,24733.333,-132335.944,-43081.263,-38526.163,-29803.941,-0.185,0.937,-0.239,-1.892,-1.373,1.526,73.333,204.000,1.000
-34490.925,-32209.320,17759.257,23452.861,-133996.126,-42948.929,-38407.732,-29694.349,-0.185,0.934,-0.240,-1.953,-1.282,1.587,73.333,205.000,1.000
-34358.343,-32102.877,16570.054,22080.944,-135633.468,-42820.129,-38292.505,-29585.316,-0.185,0.934,-0.243,-2.136,-1.282,1.678,73.333,206.000,1.000
-34222.456,-31997.885,15384.346,20594.878,-137246.480,-42683.120,-38181.201,-29476.410,-0.188,0.934,-0.239,-2.289,-1.282,1.617,73.333,207.000,1.000
-34088.410,-31897.132,14202.332,19035.274,-138838.303,-42537.606,-38068.147,-29366.757,-0.189,0.934,-0.240,-2.441,-1.251,1.617,73.333,208.000,1.000
-33958.017,-31797.012,13027.704,17477.683,-140411.790,-42394.376,-37949.467,-29256.190,-0.190,0.932,-0.241,-2.380,-1.221,1.587,73.333,209.000,1.000
-33827.757,-31692.462,11863.597,15966.684,-141965.816,-42260.808,-37827.974,-29145.170,-0.187,0.931,-0.242,-2.502,-1.099,1.678,73.333,210.000,1.000
-33693.745,-31583.107,10709.154,14489.392,-143497.281,-42131.983,-37708.500,-29033.620,-0.182,0.929,-0.240,-2.625,-1.068,1.740,73.333,211.000,1.000
-33556.337,-31472.857,9560.766,13011.112,-145005.480,-41997.681,-37591.014,-28920.798,-0.179,0.929,-0.239,-2.686,-0.977,1.801,73.333,212.000,1.000
-33418.923,-31364.791,8416.080,11521.766,-146492.978,-41854.735,-37471.094,-28806.673,-0.178,0.927,-0.243,-2.594,-0.824,1.953,73.333,213.000,1.000
-33283.652,-31258.491,7275.860,10038.983,-147962.419,-41709.304,-37346.395,-28692.980,-0.177,0.928,-0.242,-2.533,-0.610,2.045,73.333,214.000,1.000
-33149.882,-31152.331,6142.035,8575.415,-149414.151,-41568.210,-37220.006,-28582.277,-0.178,0.928,-0.241,-2.563,-0.458,2.228,73.333,215.000,1.000
-33016.451,-31046.532,5015.014,7121.694,-150846.943,-41431.308,-37096.391,-28475.564,-0.177,0.926,-0.240,-2.380,-0.336,2.350,73.333,216.000,1.000
-32883.782,-30942.856,3893.525,5663.287,-152259.871,-41293.522,-36975.857,-28371.164,-0.179,0.926,-0.242,-2.289,-0.153,2.472,73.333,217.000,1.000
-32752.929,-30841.729,2776.590,4203.064,-153652.787,-41151.923,-36854.409,-28265.768,-0.178,0.925,-0.244,-2.136,0.000,2.319,73.333,218.000,1.000
-32623.704,-30741.067,1664.765,2759.744,-155025.690,-41008.417,-36728.608,-28156.860,-0.181,0.920,-0.242,-1.923,0.153,2.319,73.333,219.000,1.000
-32494.670,-30638.349,559.311,1346.734,-156378.501,-40865.958,-36599.157,-28044.515,-0.182,0.916,-0.243,-1.740,0.153,2.350,73.333,220.000,1.000
-32364.440,-30532.864,-539.263,-39.225,-157710.897,-40723.995,-36468.890,-27930.443,-0.184,0.913,-0.244,-1.495,0.244,2.411,73.333,221.000,1.000
-32232.511,-30425.622,-1631.572,-1410.336,-159022.390,-40579.113,-36338.892,-27816.045,-0.186,0.910,-0.245,-1.099,0.244,2.350,73.333,222.000,1.000
-32099.098,-30317.636,-2718.446,-2773.961,-160312.669,-40429.333,-36207.769,-27701.672,-0.186,0.906,-0.243,-0.641,0.275,2.289,73.333,223.000,1.000
-31964.760,-30209.000,-3799.999,-4127.308,-161582.074,-40276.493,-36074.025,-27587.174,-0.191,0.909,-0.243,-0.244,0.244,2.014,73.333,224.000,1.000
-31830.414,-30099.699,-4875.803,-5463.999,-162832.249,-40124.679,-35938.349,-27472.891,-0.195,0.908,-0.241,0.153,0.244,1.801,73.333,225.000,1.000
-31697.179,-29990.539,-5945.740,-6782.072,-164065.508,-39976.666,-35803.039,-27359.780,-0.196,0.910,-0.241,0.610,0.092,1.373,73.333,226.000,1.000
-31565.797,-29882.910,-7010.318,-8086.897,-165283.146,-39831.911,-35669.806,-27248.746,-0.196,0.915,-0.243,0.977,0.000,0.977,73.333,227.000,1.000
-31436.245,-29777.709,-8070.093,-9386.971,-166484.418,-39687.461,-35538.392,-27139.642,-0.196,0.917,-0.242,1.404,-0.275,0.702,73.333,228.000,1.000
-31308.071,-29674.601,-9124.917,-10685.659,-167667.248,-39540.707,-35406.943,-27030.991,-0.195,0.919,-0.244,1.617,-0.458,0.427,73.333,229.000,1.000
-31180.870,-29572.366,-10173.943,-11978.178,-168830.344,-39391.856,-35273.952,-26921.358,-0.195,0.921,-0.241,1.862,-0.458,0.214,73.333,230.000,1.000
-31054.069,-29469.778,-11216.444,-13256.960,-169974.303,-39243.492,-35139.731,-26810.714,-0.192,0.923,-0.243,2.106,-0.702,0.092,73.333,231.000,1.000
-30926.641,-29366.431,-12252.613,-14521.484,-171100.832,-39097.676,-35006.143,-26700.327,-0.191,0.927,-0.245,2.289,-0.732,-0.061,73.333,232.000,1.000
-30797.828,-29262.979,-13283.461,-15780.850,-172211.492,-38954.038,-34875.097,-26591.570,-0.190,0.930,-0.248,2.441,-0.824,-0.183,73.333,233.000,1.000
-30668.243,-29160.489,-14309.928,-17044.043,-173307.429,-38810.965,-34747.244,-26485.127,-0.188,0.933,-0.250,2.625,-0.824,-0.275,73.333,234.000,1.000
-30539.552,-29059.356,-15332.116,-18309.817,-174389.982,-38668.212,-34622.050,-26380.910,-0.187,0.937,-0.248,2.655,-0.977,-0.244,73.333,235.000,1.000
-30412.597,-28958.825,-16349.368,-19568.159,-175460.308,-38527.202,-34498.675,-26277.940,-0.188,0.940,-0.248,2.655,-0.916,-0.214,73.333,236.000,1.000
-30286.321,-28857.847,-17361.088,-20813.342,-176518.407,-38388.682,-34376.909,-26174.941,-0.186,0.943,-0.245,2.594,-0.916,-0.122,73.333,237.000,1.000
-30159.020,-28756.295,-18367.379,-22051.658,-177563.181,-38251.099,-34257.094,-26071.145,-0.186,0.945,-0.244,2.502,-0.977,0.000,73.333,238.000,1.000
-30030.528,-28654.983,-19368.722,-23292.417,-178593.773,-38112.301,-34139.042,-25966.340,-0.188,0.945,-0.245,2.380,-0.977,-0.031,73.333,239.000,1.000
-29902.435,-28554.457,-20365.133,-24534.761,-179610.817,-37972.556,-34021.689,-25860.691,-0.188,0.946,-0.245,2.228,-0.946,0.122,73.333,240.000,1.000
-29775.856,-28453.989,-21355.952,-25767.208,-180615.676,-37834.339,-33903.922,-25754.487,-0.189,0.947,-0.242,1.984,-0.916,0.275,73.333,241.000,1.000
-29649.970,-28352.453,-22340.713,-26982.075,-181608.747,-37699.231,-33785.828,-25648.241,-0.190,0.946,-0.240,1.740,-1.038,0.275,73.333,242.000,1.000
-29523.390,-28250.145,-23319.965,-28185.595,-182589.114,-37566.259,-33668.805,-25542.954,-0.193,0.945,-0.242,1.343,-1.099,0.366,73.333,243.000,1.000
-29396.305,-28148.842,-24294.773,-29389.032,-183555.798,-37433.443,-33553.851,-25439.750,-0.193,0.946,-0.243,1.099,-1.221,0.610,73.333,244.000,1.000
-29270.399,-28049.750,-25265.400,-30593.323,-184508.947,-37300.293,-33440.248,-25339.185,-0.195,0.946,-0.244,0.854,-1.312,0.702,73.333,245.000,1.000
-29146.662,-27952.054,-26230.949,-31787.108,-185449.196,-37168.007,-33326.484,-25240.909,-0.194,0.945,-0.242,0.519,-1.495,0.702,73.333,246.000,1.000
-29023.950,-27853.936,-27190.469,-32961.540,-186376.200,-37037.133,-33212.164,-25143.886,-0.194,0.943,-0.239,0.244,-1.526,0.732,73.333,247.000,1.000
-28900.125,-27754.516,-28144.052,-34121.455,-187288.395,-36905.634,-33098.031,-25046.496,-0.194,0.941,-0.237,-0.092,-1.617,0.854,73.333,248.000,1.000
-28774.400,-27654.394,-29092.572,-35277.564,-188184.424,-36770.419,-32984.215,-24946.961,-0.192,0.940,-0.237,-0.458,-1.678,0.977,73.333,249.000,1.000
-28647.835,-27554.271,-30036.524,-36431.628,-189064.563,-36630.944,-32869.484,-24844.357,-0.188,0.939,-0.241,-0.824,-1.678,0.885,73.333,250.000,1.000
-28521.488,-27453.569,-30975.433,-37573.685,-189929.979,-36490.094,-32752.312,-24739.025,-0.190,0.935,-0.240,-1.099,-1.709,0.916,73.333,251.000,1.000
-28395.196,-27351.364,-31908.586,-38695.757,-190781.192,-36351.374,-32632.640,-24632.345,-0.187,0.934,-0.240,-1.282,-1.709,1.038,73.333,252.000,1.000
-28268.519,-27248.152,-32836.079,-39803.048,-191617.843,-36215.613,-32511.765,-24525.669,-0.188,0.932,-0.239,-1.465,-1.862,1.038,73.333,253.000,1.000
-28142.061,-27145.542,-33758.743,-40906.665,-192439.574,-36080.779,-32390.253,-24419.004,-0.190,0.931,-0.241,-1.617,-1.831,1.190,73.333,254.000,1.000
-28017.304,-27044.452,-34677.122,-42009.024,-193246.883,-35945.186,-32267.370,-24311.602,-0.187,0.931,-0.240,-1.831,-1.678,1.221,73.333,255.000,1.000
-27894.998,-26944.194,-35590.898,-43100.655,-194040.384,-35809.529,-32142.764,-24203.751,-0.184,0.929,-0.239,-2.045,-1.617,1.282,73.333,256.000,1.000
-27774.003,-26843.414,-36499.401,-44172.915,-194819.374,-35674.838,-32017.575,-24097.044,-0.186,0.927,-0.239,-2.106,-1.587,1.495,73.333,257.000,1.000
-27652.321,-26741.725,-37402.398,-45229.626,-195582.145,-35539.757,-31893.299,-23992.574,-0.186,0.926,-0.237,-2.228,-1.587,1.434,73.333,258.000,1.000
-27529.391,-26640.225,-38300.262,-46282.394,-196328.349,-35401.721,-31770.136,-23889.734,-0.185,0.925,-0.238,-2.258,-1.526,1.587,73.333,259.000,1.000
-27406.575,-26540.127,-39193.420,-47337.034,-197060.508,-35260.537,-31646.964,-23787.010,-0.184,0.923,-0.240,-2.258,-1.526,1.709,73.333,260.000,1.000
-27285.210,-26441.092,-40081.806,-48387.673,-197782.000,-35119.000,-31522.554,-23683.121,-0.184,0.922,-0.239,-2.289,-1.343,1.709,73.333,261.000,1.000
-27164.945,-26341.642,-40965.129,-49426.204,-198493.945,-34979.821,-31396.901,-23577.667,-0.183,0.922,-0.236,-2.197,-1.251,1.801,73.333,262.000,1.000
-27044.248,-26240.874,-41843.529,-50453.265,-199194.624,-34842.820,-31271.100,-23470.970,-0.184,0.923,-0.237,-2.167,-1.038,1.770,73.333,263.000,1.000
-26922.194,-26139.104,-42717.486,-51475.450,-199881.573,-34705.672,-31145.819,-23363.581,-0.184,0.921,-0.239,-2.106,-0.885,1.831,73.333,264.000,1.000
-26799.169,-26036.810,-43587.005,-52494.559,-200553.724,-34566.950,-31020.439,-23256.142,-0.184,0.920,-0.241,-2.045,-0.854,1.831,73.333,265.000,1.000
-26675.790,-25933.568,-44451.337,-53503.281,-201211.146,-34427.243,-30893.664,-23149.075,-0.184,0.919,-0.240,-1.984,-0.671,1.801,73.333,266.000,1.000
-26552.198,-25828.963,-45309.897,-54494.193,-201854.025,-34287.629,-30765.157,-23042.706,-0.185,0.919,-0.238,-1.923,-0.549,1.892,73.333,267.000,1.000
-26428.740,-25724.176,-46163.125,-55469.522,-202482.507,-34147.950,-30636.074,-22937.684,-0.186,0.917,-0.240,-1.770,-0.397,1.831,73.333,268.000,1.000
-26306.529,-25621.531,-47012.057,-56437.723,-203096.857,-34006.966,-30507.530,-22834.716,-0.186,0.915,-0.237,-1.587,-0.336,1.709,73.333,269.000,1.000
-26186.873,-25522.409,-47857.208,-57403.120,-203697.678,-33864.374,-30379.377,-22734.080,-0.187,0.915,-0.242,-1.373,-0.244,1.678,73.333,270.000,1.000
-26069.980,-25425.843,-48698.089,-58361.592,-204285.438,-33721.681,-30250.639,-22635.150,-0.189,0.913,-0.243,-1.038,-0.183,1.648,73.333,271.000,1.000
-25954.321,-25329.217,-49533.851,-59307.668,-204859.821,-33580.408,-30120.713,-22536.427,-0.189,0.912,-0.243,-0.671,-0.183,1.556,73.333,272.000,1.000
-25837.693,-25230.386,-50364.198,-60242.537,-205420.009,-33439.976,-29989.734,-22436.212,-0.190,0.912,-0.245,-0.397,-0.275,1.404,73.333,273.000,1.000
-25719.013,-25129.073,-51189.510,-61171.769,-205965.542,-33298.273,-29857.743,-22333.401,-0.192,0.913,-0.245,-0.061,-0.244,1.190,73.333,274.000,1.000
-25598.869,-25026.387,-52010.221,-62097.868,-206497.056,-33154.348,-29724.375,-22228.054,-0.192,0.916,-0.243,0.275,-0.275,0.977,73.333,275.000,1.000
-25478.437,-24923.404,-52826.390,-63017.555,-207016.023,-33009.574,-29589.662,-22121.259,-0.193,0.920,-0.241,0.641,-0.427,0.824,73.333,276.000,1.000
-25358.392,-24820.733,-53637.944,-63927.775,-207523.899,-32866.193,-29454.976,-22014.687,-0.193,0.923,-0.243,0.732,-0.427,0.702,73.333,277.000,1.000
-25238.990,-24719.131,-54445.058,-64831.458,-208021.572,-32725.412,-29322.624,-21910.030,-0.193,0.924,-0.242,0.977,-0.580,0.702,73.333,278.000,1.000
-25120.662,-24619.661,-55248.061,-65734.404,-208509.408,-32587.043,-29194.188,-21808.479,-0.193,0.925,-0.246,1.190,-0.671,0.671,73.333,279.000,1.000
-25003.928,-24522.834,-56047.089,-66638.643,-208987.637,-32450.518,-29069.441,-21710.382,-0.192,0.928,-0.249,1.404,-0.702,0.488,73.333,280.000,1.000
-24888.680,-24427.872,-56842.199,-67540.320,-209456.361,-32315.482,-28946.814,-21615.009,-0.190,0.930,-0.248,1.587,-0.854,0.519,73.333,281.000,1.000
-24774.050,-24333.393,-57633.778,-68435.362,-209915.610,-32181.681,-28825.149,-21521.177,-0.190,0.935,-0.251,1.740,-0.885,0.549,73.333,282.000,1.000
-24659.152,-24238.692,-58422.118,-69324.257,-210365.459,-32048.699,-28704.622,-21427.955,-0.189,0.937,-0.249,1.862,-0.977,0.610,73.333,283.000,1.000
-24543.861,-24144.001,-59206.588,-70207.166,-210806.005,-31916.034,-28585.827,-21334.639,-0.191,0.942,-0.248,1.892,-1.038,0.610,73.333,284.000,1.000
-24428.928,-24049.930,-59985.708,-71076.062,-211237.934,-31783.939,-28469.031,-21240.875,-0.189,0.945,-0.245,1.801,-1.099,0.610,73.333,285.000,1.000
-24315.302,-23956.975,-60757.952,-71915.759,-211662.793,-31653.663,-28354.429,-21146.823,-0.190,0.948,-0.247,1.740,-1.160,0.732,73.333,286.000,1.000
-24203.346,-23865.442,-61522.755,-72716.644,-212082.226,-31526.399,-28242.647,-21053.101,-0.189,0.949,-0.244,1.373,-1.221,0.916,73.333,287.000,1.000
-24092.790,-23775.506,-62281.148,-73484.712,-212496.903,-31402.232,-28134.461,-20960.470,-0.188,0.948,-0.245,1.160,-1.282,1.068,73.333,288.000,1.000
-23983.247,-23687.003,-63035.314,-74237.937,-212906.197,-31280.286,-28029.690,-20869.337,-0.188,0.948,-0.244,0.946,-1.373,1.190,73.333,289.000,1.000
-23874.421,-23599.115,-63787.194,-74995.713,-213308.775,-31159.627,-27926.669,-20779.512,-0.190,0.948,-0.245,0.732,-1.465,1.312,73.333,290.000,1.000
-23765.828,-23510.462,-64537.202,-75769.612,-213702.977,-31039.554,-27822.912,-20690.156,-0.192,0.950,-0.243,0.427,-1.526,1.282,73.333,291.000,1.000
-23656.780,-23419.926,-65284.204,-76561.073,-214087.270,-30919.355,-27716.620,-20600.185,-0.193,0.951,-0.247,0.214,-1.648,1.434,73.333,292.000,1.000
-23546.721,-23327.413,-66026.710,-77364.532,-214460.889,-30798.084,-27607.590,-20508.746,-0.195,0.950,-0.245,-0.183,-1.770,1.404,73.333,293.000,1.000
-23435.382,-23233.641,-66763.923,-78171.403,-214823.685,-30674.670,-27496.553,-20415.307,-0.196,0.949,-0.242,-0.580,-1.831,1.251,73.333,294.000,1.000
-23322.748,-23139.296,-67495.779,-78974.180,-215175.552,-30548.634,-27384.207,-20319.768,-0.195,0.948,-0.241,-0.946,-1.892,1.251,73.333,295.000,1.000
-23209.130,-23044.653,-68222.431,-79768.388,-215516.254,-30420.644,-27271.108,-20222.738,-0.194,0.948,-0.238,-1.373,-2.045,1.190,73.333,296.000,1.000
-23095.221,-22949.954,-68944.018,-80553.079,-215845.899,-30292.158,-27158.203,-20125.777,-0.194,0.945,-0.240,-1.678,-2.258,1.038,73.333,297.000,1.000
-22981.725,-22855.584,-69660.803,-81329.938,-216165.104,-30164.093,-27046.452,-20030.519,-0.192,0.943,-0.242,-2.075,-2.380,0.977,73.333,298.000,1.000
-22868.885,-22761.618,-70373.191,-82100.956,-216474.338,-30035.934,-26935.639,-19937.119,-0.193,0.942,-0.242,-2.258,-2.563,0.977,73.333,299.000,1.000
-22756.465,-22667.542,-71081.461,-82867.320,-216773.406,-29906.626,-26824.250,-19844.078,-0.189,0.940,-0.243,-2.563,-2.533,1.007,73.333,300.000,1.000
-22644.084,-22572.646,-71785.507,-83628.628,-217061.551,-29775.824,-26710.447,-19749.465,-0.187,0.937,-0.240,-2.838,-2.625,1.068,73.333,301.000,1.000
-22531.512,-22476.701,-72485.017,-84383.463,-217338.188,-29644.085,-26593.202,-19652.353,-0.187,0.937,-0.238,-2.930,-2.563,1.007,73.333,302.000,1.000
-22418.714,-22380.177,-73179.835,-85130.882,-217603.390,-29512.284,-26472.875,-19553.335,-0.186,0.935,-0.238,-3.113,-2.533,1.099,73.333,303.000,1.000
-22305.796,-22283.847,-73870.110,-85871.155,-217857.595,-29381.123,-26350.886,-19453.905,-0.183,0.935,-0.239,-3.235,-2.472,1.282,73.333,304.000,1.000
-22193.003,-22188.237,-74556.169,-86606.286,-218101.515,-29251.044,-26228.989,-19355.520,-0.182,0.932,-0.239,-3.326,-2.380,1.282,73.333,305.000,1.000
-22080.581,-22093.279,-75238.253,-87338.188,-218336.035,-29121.979,-26108.358,-19258.766,-0.183,0.930,-0.240,-3.418,-2.319,1.343,73.333,306.000,1.000
-21968.586,-21998.372,-75916.294,-88066.872,-218561.763,-28993.021,-25989.095,-19163.356,-0.182,0.927,-0.240,-3.418,-2.197,1.587,73.333,307.000,1.000
-21856.743,-21902.689,-76589.965,-88790.712,-218778.640,-28862.500,-25870.364,-19068.623,-0.182,0.924,-0.240,-3.479,-2.106,1.678,73.333,308.000,1.000
-21744.545,-21805.674,-77258.953,-89507.909,-218986.206,-28728.852,-25751.034,-18973.799,-0.183,0.926,-0.236,-3.479,-1.984,1.770,73.333,309.000,1.000
-21631.654,-21707.571,-77923.182,-90218.294,-219184.306,-28591.957,-25630.567,-18878.260,-0.181,0.922,-0.235,-3.387,-1.923,1.770,73.333,310.000,1.000
-21518.216,-21609.329,-78582.778,-90922.229,-219372.917,-28453.324,-25509.088,-18781.616,-0.184,0.921,-0.238,-3.387,-1.740,1.801,73.333,311.000,1.000
-21404.944,-21512.067,-79237.984,-91619.216,-219551.837,-28315.154,-25387.036,-18683.978,-0.185,0.919,-0.234,-3.296,-1.678,1.709,73.333,312.000,1.000
-21292.829,-21416.601,-79889.113,-92308.370,-219721.037,-28179.313,-25264.993,-18586.092,-0.186,0.919,-0.237,-3.052,-1.648,1.740,73.333,313.000,1.000
-21182.499,-21322.975,-80536.428,-92989.141,-219880.731,-28046.510,-25143.352,-18488.887,-0.186,0.917,-0.239,-2.899,-1.709,1.648,73.333,314.000,1.000
-21073.774,-21230.271,-81179.983,-93662.056,-220030.885,-27916.005,-25021.941,-18392.854,-0.189,0.917,-0.236,-2.716,-1.648,1.617,73.333,315.000,1.000
-20965.819,-21137.075,-81819.544,-94327.603,-220170.651,-27786.077,-24899.877,-18297.593,-0.192,0.917,-0.235,-2.502,-1.617,1.465,73.333,316.000,1.000
-20857.661,-21042.400,-82454.736,-94985.548,-220298.907,-27655.162,-24776.208,-18202.242,-0.194,0.915,-0.232,-2.289,-1.617,1.465,73.333,317.000,1.000
-20748.568,-20946.111,-83085.292,-95635.639,-220415.393,-27522.542,-24650.716,-18106.264,-0.195,0.914,-0.233,-2.075,-1.648,1.373,73.333,318.000,1.000
-20638.195,-20848.688,-83711.234,-96278.169,-220521.029,-27388.049,-24523.911,-18009.584,-0.194,0.912,-0.233,-1.801,-1.923,1.282,73.333,319.000,1.000
-20526.829,-20750.993,-84332.976,-96914.874,-220617.629,-27251.941,-24396.820,-17912.632,-0.194,0.910,-0.233,-1.434,-1.892,1.160,73.333,320.000,1.000
-20415.442,-20653.972,-84951.083,-97547.941,-220706.929,-27114.981,-24270.460,-17816.158,-0.194,0.911,-0.239,-1.129,-1.984,1.129,73.333,321.000,1.000
-20305.076,-20558.038,-85565.749,-98178.678,-220789.451,-26978.125,-24145.185,-17720.702,-0.193,0.912,-0.238,-0.763,-1.984,0.977,73.333,322.000,1.000
-20196.028,-20462.769,-86176.659,-98807.362,-220864.471,-26842.083,-24020.732,-17626.268,-0.193,0.914,-0.238,-0.397,-1.984,0.702,73.333,323.000,1.000
-20087.753,-20367.450,-86783.391,-99433.538,-220930.997,-26707.166,-23896.834,-17532.566,-0.192,0.917,-0.237,-0.122,-2.167,0.671,73.333,324.000,1.000
-19979.466,-20271.907,-87385.822,-100057.242,-220988.775,-26573.396,-23773.646,-17439.465,-0.192,0.920,-0.238,0.183,-2.289,0.580,73.333,325.000,1.000
-19870.710,-20176.661,-87984.109,-100678.776,-221038.262,-26440.677,-23651.486,-17346.949,-0.194,0.922,-0.240,0.305,-2.319,0.549,73.333,326.000,1.000
-19761.648,-20082.480,-88578.453,-101298.344,-221080.301,-26309.334,-23530.703,-17255.097,-0.193,0.925,-0.242,0.580,-2.502,0.580,73.333,327.000,1.000
-19653.010,-19989.930,-89168.970,-101916.180,-221116.129,-26180.465,-23411.882,-17164.195,-0.192,0.928,-0.241,0.641,-2.502,0.488,73.333,328.000,1.000
-19545.637,-19899.168,-89755.721,-102532.162,-221146.979,-26055.208,-23295.694,-17074.758,-0.193,0.930,-0.244,0.763,-2.686,0.458,73.333,329.000,1.000
-19439.831,-19809.901,-90338.741,-103146.266,-221173.371,-25933.679,-23182.470,-16987.420,-0.192,0.933,-0.242,0.946,-2.655,0.427,73.333,330.000,1.000
-19335.065,-19721.382,-90918.080,-103758.345,-221194.813,-25814.596,-23071.747,-16902.221,-0.191,0.935,-0.241,1.007,-2.777,0.488,73.333,331.000,1.000
-19230.331,-19632.610,-91493.792,-104368.079,-221210.408,-25696.037,-22962.404,-16818.139,-0.190,0.937,-0.239,1.038,-2.838,0.519,73.333,332.000,1.000
-19124.894,-19542.894,-92065.783,-104975.374,-221219.760,-25576.684,-22853.501,-16733.709,-0.190,0.936,-0.239,1.038,-2.808,0.397,73.333,333.000,1.000
-19018.993,-19452.512,-92633.773,-105580.312,-221223.431,-25456.552,-22745.008,-16648.087,-0.191,0.938,-0.243,1.038,-2.869,0.488,73.333,334.000,1.000
-18913.591,-19362.510,-93197.503,-106183.528,-221222.709,-25336.556,-22637.597,-16561.359,-0.188,0.942,-0.241,0.977,-2.991,0.488,73.333,335.000,1.000
-18809.228,-19273.513,-93756.861,-106785.208,-221218.479,-25217.285,-22531.513,-16473.859,-0.189,0.947,-0.241,0.854,-3.082,0.397,73.333,336.000,1.000
-18705.648,-19185.368,-94311.914,-107384.890,-221210.819,-25098.838,-22426.594,-16386.435,-0.191,0.948,-0.239,0.549,-3.052,0.519,73.333,337.000,1.000
-18602.465,-19097.846,-94862.884,-107982.189,-221199.641,-24981.623,-22323.287,-16300.954,-0.192,0.948,-0.241,0.397,-3.143,0.458,73.333,338.000,1.000
-18499.537,-19010.843,-95410.036,-108576.300,-221184.802,-24866.180,-22222.253,-16218.756,-0.192,0.947,-0.237,0.031,-3.174,0.458,73.333,339.000,1.000
-18396.857,-18924.003,-95953.551,-109166.153,-221165.758,-24752.397,-22123.279,-16138.939,-0.193,0.949,-0.235,-0.214,-3.296,0.519,73.333,340.000,1.000
-18294.489,-18836.795,-96493.451,-109750.464,-221141.422,-24639.501,-22025.233,-16058.975,-0.192,0.947,-0.236,-0.397,-3.265,0.488,73.333,341.000,1.000
-18192.590,-18749.060,-97029.586,-110328.164,-221110.650,-24526.631,-21926.833,-15976.767,-0.192,0.946,-0.236,-0.641,-3.204,0.610,73.333,342.000,1.000
-18091.167,-18661.065,-97561.720,-110898.722,-221072.793,-24412.927,-21827.012,-15891.617,-0.191,0.946,-0.234,-1.007,-3.204,0.641,73.333,343.000,1.000
-17989.964,-18573.147,-98089.674,-111461.616,-221027.659,-24297.450,-21725.025,-15803.899,-0.190,0.947,-0.237,-1.343,-3.174,0.641,73.333,344.000,1.000
-17888.669,-18485.587,-98613.402,-112016.723,-220975.319,-24179.696,-21620.898,-15714.712,-0.189,0.948,-0.237,-1.678,-3.204,0.671,73.333,345.000,1.000
-17786.939,-18398.392,-99132.910,-112563.633,-220915.656,-24059.699,-21515.168,-15625.046,-0.189,0.946,-0.232,-1.831,-3.143,0.732,73.333,346.000,1.000
-17684.390,-18311.057,-99648.255,-113101.300,-220848.219,-23937.674,-21408.163,-15535.022,-0.190,0.942,-0.233,-2.106,-3.265,0.854,73.333,347.000,1.000
-17580.976,-18222.844,-100159.671,-113629.232,-220772.815,-23814.179,-21299.997,-15444.284,-0.189,0.939,-0.234,-2.411,-3.235,1.007,73.333,348.000,1.000
-17477.292,-18133.433,-100667.527,-114148.296,-220689.907,-23690.328,-21191.035,-15353.002,-0.188,0.937,-0.232,-2.686,-3.296,1.068,73.333,349.000,1.000
-17374.218,-18043.256,-101172.100,-114660.883,-220600.371,-23567.297,-21082.090,-15262.365,-0.191,0.938,-0.234,-2.838,-3.174,1.068,73.333,350.000,1.000
-17272.190,-17953.056,-101673.460,-115168.855,-220504.700,-23445.291,-20973.742,-15173.711,-0.190,0.937,-0.230,-3.052,-3.174,1.221,73.333,351.000,1.000
-17170.849,-17863.200,-102171.480,-115672.030,-220402.556,-23323.376,-20865.644,-15087.225,-0.189,0.937,-0.230,-3.113,-3.082,1.282,73.333,352.000,1.000
-17069.179,-17773.364,-102665.803,-116168.858,-220292.981,-23200.415,-20756.623,-15001.484,-0.188,0.936,-0.230,-3.235,-2.960,1.434,73.333,353.000,1.000
-16966.102,-17682.894,-103155.889,-116657.728,-220174.941,-23076.050,-20645.592,-14914.477,-0.189,0.934,-0.232,-3.265,-2.869,1.434,73.333,354.000,1.000
-16861.399,-17591.631,-103641.374,-117138.666,-220048.253,-22951.103,-20532.790,-14825.636,-0.191,0.930,-0.229,-3.296,-2.869,1.434,73.333,355.000,1.000
-16756.006,-17500.141,-104122.376,-117612.412,-219913.654,-22826.840,-20419.541,-14736.203,-0.189,0.929,-0.231,-3.296,-2.747,1.556,73.333,356.000,1.000
-16651.283,-17409.126,-104599.368,-118078.878,-219771.854,-22703.718,-20306.629,-14647.436,-0.190,0.927,-0.230,-3.296,-2.716,1.587,73.333,357.000,1.000
-16548.122,-17318.900,-105072.818,-118537.561,-219623.045,-22581.020,-20193.537,-14559.289,-0.190,0.924,-0.231,-3.143,-2.655,1.678,73.333,358.000,1.000
-16446.668,-17229.377,-105542.978,-118988.420,-219467.165,-22457.537,-20079.203,-14470.873,-0.187,0.923,-0.229,-3.052,-2.625,1.678,73.333,359.000,1.000
-16346.516,-17140.273,-106009.905,-119432.518,-219304.261,-22332.451,-19963.158,-14381.578,-0.191,0.921,-0.228,-2.838,-2.533,1.770,73.333,360.000,1.000
-16247.077,-17051.339,-106473.519,-119870.701,-219134.210,-22205.670,-19845.750,-14291.397,-0.191,0.920,-0.230,-2.686,-2.411,1.709,73.333,361.000,1.000
-16147.992,-16962.599,-106933.595,-120302.879,-218956.542,-22077.804,-19727.683,-14200.696,-0.193,0.917,-0.231,-2.472,-2.380,1.740,73.333,362.000,1.000
-16049.192,-16874.200,-107389.815,-120728.875,-218770.739,-21949.784,-19609.465,-14109.869,-0.192,0.917,-0.231,-2.350,-2.350,1.770,73.333,363.000,1.000
-15950.605,-16786.030,-107841.961,-121148.865,-218576.581,-21822.286,-19491.202,-14019.346,-0.191,0.916,-0.232,-2.075,-2.350,1.801,73.333,364.000,1.000
-15852.036,-16697.775,-108290.103,-121563.966,-218374.500,-21695.589,-19373.053,-13929.979,-0.192,0.916,-0.235,-1.648,-2.228,1.770,73.333,365.000,1.000
-15753.291,-16609.207,-108734.500,-121975.446,-218165.422,-21569.620,-19255.366,-13842.539,-0.193,0.917,-0.232,-1.404,-2.167,1.648,73.333,366.000,1.000
-15654.352,-16520.379,-109175.401,-122384.314,-217950.522,-21444.186,-19138.568,-13757.031,-0.192,0.917,-0.236,-1.007,-2.136,1.617,73.333,367.000,1.000
-15555.557,-16431.705,-109612.960,-122791.679,-217731.093,-21319.403,-19023.173,-13672.915,-0.192,0.918,-0.234,-0.824,-2.136,1.617,73.333,368.000,1.000
-15457.581,-16343.870,-110047.196,-123198.031,-217507.907,-21195.630,-18909.515,-13589.641,-0.191,0.920,-0.231,-0.519,-2.197,1.526,73.333,369.000,1.000
-15360.984,-16257.440,-110477.991,-123603.162,-217280.854,-21072.901,-18797.389,-13506.886,-0.188,0.920,-0.233,-0.275,-2.136,1.465,73.333,370.000,1.000
-15265.698,-16172.363,-110905.219,-124006.139,-217049.403,-20950.576,-18686.079,-13424.470,-0.186,0.922,-0.231,-0.031,-2.045,1.526,73.333,371.000,1.000
-15171.138,-16088.108,-111328.944,-124406.155,-216813.457,-20828.012,-18575.234,-13342.610,-0.186,0.925,-0.234,0.183,-1.923,1.465,73.333,372.000,1.000
-15076.627,-16004.179,-111749.377,-124803.339,-216573.540,-20705.329,-18465.455,-13261.963,-0.186,0.927,-0.235,0.336,-1.892,1.495,73.333,373.000,1.000
-14981.648,-15920.262,-112166.589,-125197.902,-216330.018,-20583.134,-18357.498,-13182.789,-0.187,0.930,-0.235,0.458,-1.892,1.373,73.333,374.000,1.000
-14886.114,-15836.298,-112580.447,-125590.155,-216082.837,-20462.128,-18251.461,-13104.403,-0.186,0.931,-0.233,0.549,-1.740,1.434,73.333,375.000,1.000
-14790.568,-15752.627,-112990.784,-125980.605,-215831.867,-20343.054,-18146.864,-13025.649,-0.187,0.935,-0.232,0.610,-1.740,1.404,73.333,376.000,1.000
-14695.988,-15669.876,-113397.502,-126370.153,-215577.185,-20226.537,-18043.290,-12945.983,-0.189,0.936,-0.232,0.580,-1.648,1.465,73.333,377.000,1.000
-14603.145,-15588.504,-113800.571,-126759.796,-215319.031,-20112.692,-17940.820,-12865.873,-0.185,0.939,-0.234,0.610,-1.678,1.434,73.333,378.000,1.000
-14512.024,-15508.453,-114200.051,-127149.251,-215057.641,-20000.971,-17839.825,-12786.071,-0.186,0.939,-0.232,0.458,-1.465,1.495,73.333,379.000,1.000
-14421.792,-15429.132,-114596.116,-127537.237,-214793.381,-19890.382,-17740.539,-12706.845,-0.188,0.942,-0.231,0.458,-1.465,1.404,73.333,380.000,1.000
-14331.369,-15349.715,-114988.990,-127922.148,-214526.552,-19779.731,-17642.793,-12627.991,-0.189,0.943,-0.232,0.244,-1.343,1.312,73.333,381.000,1.000
-14240.147,-15269.732,-115378.832,-128303.031,-214257.130,-19668.297,-17546.419,-12549.761,-0.188,0.946,-0.234,0.153,-1.312,1.343,73.333,382.000,1.000
-14148.011,-15189.152,-115765.600,-128679.861,-213984.675,-19556.328,-17451.439,-12473.012,-0.187,0.948,-0.235,-0.061,-1.343,1.343,73.333,383.000,1.000
-14054.742,-15107.760,-116148.994,-129052.092,-213708.215,-19444.411,-17357.312,-12397.889,-0.188,0.948,-0.234,-0.427,-1.221,1.190,73.333,384.000,1.000
-13960.144,-15025.215,-116528.684,-129418.909,-213426.872,-19332.946,-17262.988,-12323.449,-0.189,0.946,-0.231,-0.519,-1.190,1.190,73.333,385.000,1.000
-13864.823,-14941.893,-116904.597,-129780.000,-213140.675,-19222.301,-17167.932,-12248.690,-0.189,0.947,-0.230,-0.824,-1.160,1.160,73.333,386.000,1.000
-13770.121,-14858.954,-117276.892,-130135.751,-212850.376,-19112.647,-17072.457,-12173.275,-0.188,0.946,-0.232,-1.099,-1.099,1.068,73.333,387.000,1.000
-13677.058,-14777.304,-117645.701,-130486.628,-212556.409,-19003.404,-16976.864,-12097.108,-0.188,0.947,-0.232,-1.282,-1.129,1.099,73.333,388.000,1.000
-13585.680,-14696.906,-118011.071,-130832.164,-212258.383,-18893.510,-16880.811,-12019.845,-0.190,0.944,-0.231,-1.526,-1.099,1.068,73.333,389.000,1.000
-13495.352,-14617.131,-118373.098,-131171.889,-211955.825,-18782.586,-16783.891,-11941.262,-0.188,0.943,-0.230,-1.709,-1.068,1.068,73.333,390.000,1.000
-13405.267,-14537.277,-118731.895,-131505.588,-211648.640,-18671.243,-16686.047,-11861.525,-0.190,0.941,-0.230,-1.984,-0.946,1.099,73.333,391.000,1.000
-13314.786,-14456.830,-119087.518,-131833.059,-211336.985,-18560.449,-16587.463,-11781.169,-0.190,0.941,-0.232,-2.167,-0.977,1.068,73.333,392.000,1.000
-13223.628,-14375.593,-119440.016,-132154.235,-211021.195,-18450.886,-16488.476,-11701.078,-0.190,0.941,-0.232,-2.258,-1.007,1.099,73.333,393.000,1.000
-13131.877,-14293.653,-119789.399,-132468.766,-210701.293,-18342.423,-16389.310,-11622.079,-0.190,0.940,-0.225,-2.472,-1.068,1.099,73.333,394.000,1.000
-13039.975,-14211.456,-120135.540,-132776.691,-210376.697,-18234.216,-16289.878,-11544.371,-0.191,0.938,-0.225,-2.594,-1.007,1.068,73.333,395.000,1.000
-12948.618,-14129.757,-120478.228,-133078.458,-210046.601,-18125.308,-16189.738,-11467.108,-0.189,0.936,-0.227,-2.777,-0.946,1.190,73.333,396.000,1.000
-12858.141,-14048.957,-120817.261,-133374.441,-209710.385,-18014.859,-16088.142,-11388.679,-0.190,0.935,-0.227,-2.808,-0.854,1.221,73.333,397.000,1.000
-12768.057,-13968.527,-121152.513,-133664.793,-209367.630,-17902.121,-15984.354,-11307.680,-0.193,0.932,-0.230,-2.899,-0.824,1.312,73.333,398.000,1.000
-12677.708,-13887.675,-121484.116,-133949.432,-209018.264,-17787.083,-15878.356,-11224.104,-0.190,0.930,-0.229,-2.869,-0.793,1.282,73.333,399.000,1.000
-12586.933,-13806.165,-121812.441,-134228.812,-208662.836,-17670.875,-15771.159,-11139.720,-0.190,0.930,-0.227,-2.869,-0.793,1.404,73.333,400.000,1.000
-12495.656,-13723.893,-122137.731,-134503.035,-208301.841,-17554.611,-15663.709,-11056.525,-0.189,0.929,-0.224,-2.808,-0.763,1.465,73.333,401.000,1.000
-12403.672,-13640.579,-122459.912,-134771.380,-207935.147,-17438.482,-15556.049,-10975.247,-0.192,0.928,-0.227,-2.777,-0.916,1.648,73.333,402.000,1.000
-12311.252,-13556.380,-122778.788,-135033.512,-207562.561,-17322.327,-15447.943,-10895.619,-0.190,0.925,-0.226,-2.563,-0.793,1.587,73.333,403.000,1.000
-12219.362,-13472.125,-123094.209,-135289.890,-207184.427,-17206.273,-15339.673,-10817.295,-0.191,0.926,-0.227,-2.502,-0.793,1.465,73.333,404.000,1.000
-12128.997,-13388.658,-123406.150,-135541.857,-206801.602,-17090.716,-15232.073,-10740.157,-0.191,0.925,-0.227,-2.350,-0.824,1.495,73.333,405.000,1.000
-12040.363,-13306.210,-123714.720,-135790.510,-206414.824,-16976.000,-15125.806,-10663.858,-0.189,0.922,-0.226,-2.197,-0.824,1.434,73.333,406.000,1.000
-11952.794,-13224.510,-124020.137,-136036.269,-206024.455,-16862.314,-15020.877,-10587.708,-0.191,0.923,-0.225,-1.953,-0.763,1.465,73.333,407.000,1.000
-11865.400,-13143.318,-124322.645,-136279.573,-205630.762,-16749.695,-14916.814,-10511.110,-0.192,0.921,-0.226,-1.740,-0.732,1.495,73.333,408.000,1.000
-11777.751,-13062.789,-124622.402,-136520.812,-205233.939,-16638.002,-14813.052,-10433.923,-0.191,0.921,-0.226,-1.465,-0.671,1.526,73.333,409.000,1.000
-11690.018,-12983.398,-124919.412,-136760.630,-204834.053,-16526.994,-14709.311,-10356.541,-0.191,0.923,-0.228,-1.282,-0.641,1.434,73.333,410.000,1.000
-11602.579,-12905.353,-125213.523,-136999.252,-204430.910,-16416.278,-14605.555,-10279.435,-0.193,0.925,-0.228,-1.129,-0.732,1.434,73.333,411.000,1.000
-11515.654,-12828.252,-125504.496,-137236.210,-204024.190,-16305.537,-14501.940,-10202.836,-0.190,0.926,-0.232,-0.977,-0.763,1.434,73.333,412.000,1.000
-11429.353,-12751.503,-125792.158,-137471.119,-203614.039,-16194.990,-14398.982,-10126.972,-0.188,0.927,-0.230,-0.702,-0.641,1.404,73.333,413.000,1.000
-11343.776,-12674.805,-126076.515,-137703.622,-203201.139,-16085.199,-14297.269,-10052.361,-0.190,0.928,-0.228,-0.519,-0.732,1.404,73.333,414.000,1.000
-11258.870,-12598.142,-126357.695,-137933.721,-202786.078,-15976.446,-14197.081,-9979.879,-0.192,0.931,-0.225,-0.458,-0.763,1.312,73.333,415.000,1.000
-11174.375,-12521.600,-126635.850,-138161.548,-202368.835,-15868.546,-14098.348,-9910.270,-0.191,0.931,-0.229,-0.366,-0.702,1.251,73.333,416.000,1.000
-11090.063,-12445.364,-126911.156,-138387.481,-201949.321,-15761.355,-14001.065,-9843.501,-0.191,0.933,-0.227,-0.336,-0.763,1.251,73.333,417.000,1.000
-11005.834,-12369.567,-127183.754,-138612.290,-201527.949,-15655.011,-13905.400,-9778.381,-0.192,0.933,-0.226,-0.214,-0.824,1.221,73.333,418.000,1.000
-10921.585,-12294.072,-127453.585,-138836.064,-201105.107,-15549.559,-13811.282,-9712.818,-0.192,0.932,-0.227,-0.183,-0.732,1.099,73.333,419.000,1.000
-10837.212,-12218.618,-127720.425,-139058.462,-200680.743,-15444.933,-13718.387,-9645.010,-0.192,0.932,-0.225,-0.092,-0.763,1.038,73.333,420.000,1.000
-10752.766,-12143.090,-127984.101,-139279.102,-200254.483,-15341.186,-13626.394,-9574.501,-0.193,0.935,-0.227,-0.092,-0.916,0.854,73.333,421.000,1.000
-10668.553,-12067.627,-128244.627,-139497.811,-199825.884,-15238.482,-13535.197,-9502.403,-0.194,0.936,-0.228,-0.092,-0.854,0.946,73.333,422.000,1.000
-10584.805,-11992.334,-128502.123,-139714.396,-199394.515,-15136.628,-13444.738,-9430.375,-0.195,0.936,-0.228,0.031,-0.946,0.916,73.333,423.000,1.000
-10501.296,-11916.913,-128756.658,-139927.511,-198959.832,-15034.654,-13354.510,-9359.013,-0.195,0.937,-0.227,0.031,-1.068,0.854,73.333,424.000,1.000
-10417.586,-11840.885,-129008.240,-140135.562,-198521.557,-14931.390,-13263.809,-9287.668,-0.194,0.938,-0.227,0.031,-1.221,0.793,73.333,425.000,1.000
-10333.649,-11764.159,-129256.878,-140337.725,-198079.932,-14826.388,-13172.338,-9215.605,-0.194,0.941,-0.226,-0.061,-1.251,0.824,73.333,426.000,1.000
-10250.040,-11687.304,-129502.558,-140534.335,-197635.420,-14720.311,-13080.376,-9142.994,-0.194,0.939,-0.227,-0.092,-1.190,0.702,73.333,427.000,1.000
-10167.278,-11611.105,-129745.151,-140726.630,-197188.252,-14614.549,-12988.416,-9070.628,-0.194,0.938,-0.230,-0.153,-1.343,0.793,73.333,428.000,1.000
-10085.298,-11535.947,-129984.465,-140915.459,-196738.300,-14510.429,-12896.761,-8999.007,-0.196,0.938,-0.227,-0.275,-1.465,0.702,73.333,429.000,1.000
-10003.700,-11461.844,-130220.490,-141101.381,-196285.635,-14408.831,-12805.746,-8928.233,-0.196,0.938,-0.225,-0.275,-1.526,0.641,73.333,430.000,1.000
-9922.130,-11388.591,-130453.450,-141284.423,-195830.546,-14309.805,-12715.598,-8858.094,-0.197,0.938,-0.225,-0.336,-1.617,0.671,73.333,431.000,1.000
-9840.281,-11315.632,-130683.568,-141463.759,-195372.927,-14212.145,-12625.819,-8788.027,-0.198,0.940,-0.225,-0.397,-1.617,0.793,73.333,432.000,1.000
-9757.973,-11242.214,-130910.919,-141638.347,-194912.265,-14113.908,-12535.406,-8717.498,-0.197,0.940,-0.227,-0.458,-1.709,0.763,73.333,433.000,1.000
-9675.467,-11167.986,-131135.532,-141807.463,-194448.154,-14013.672,-12443.914,-8646.498,-0.195,0.941,-0.225,-0.580,-1.770,0.732,73.333,434.000,1.000
-9593.423,-11093.255,-131357.484,-141971.613,-193980.689,-13911.221,-12351.958,-8575.481,-0.194,0.942,-0.226,-0.732,-1.770,0.793,73.333,435.000,1.000
-9512.276,-11018.509,-131576.826,-142131.595,-193510.063,-13807.123,-12260.340,-8504.622,-0.192,0.942,-0.227,-0.885,-1.831,0.824,73.333,436.000,1.000
-9431.824,-10944.018,-131793.538,-142287.392,-193036.022,-13702.209,-12169.215,-8433.740,-0.194,0.941,-0.226,-1.038,-1.801,0.854,73.333,437.000,1.000
-9351.444,-10869.819,-132007.589,-142438.552,-192558.040,-13597.308,-12078.168,-8362.825,-0.191,0.940,-0.225,-1.068,-1.831,0.885,73.333,438.000,1.000
-9270.645,-10795.739,-132218.948,-142584.522,-192075.806,-13492.840,-11986.551,-8292.020,-0.194,0.938,-0.222,-1.129,-1.801,0.793,73.333,439.000,1.000
-9189.362,-10721.460,-132427.522,-142725.463,-191589.407,-13388.603,-11893.822,-8221.376,-0.192,0.937,-0.220,-1.251,-1.770,0.885,73.333,440.000,1.000
-9107.583,-10646.515,-132633.019,-142861.598,-191098.704,-13283.738,-11799.438,-8150.391,-0.195,0.935,-0.222,-1.282,-1.862,0.977,73.333,441.000,1.000
-9024.994,-10570.312,-132835.059,-142992.647,-190603.147,-13177.108,-11702.785,-8077.929,-0.193,0.936,-0.225,-1.282,-1.770,1.068,73.333,442.000,1.000
-8941.432,-10492.549,-133033.526,-143118.659,-190102.753,-13068.313,-11603.855,-8003.232,-0.194,0.935,-0.226,-1.312,-1.892,1.160,73.333,443.000,1.000
-8857.569,-10413.852,-133228.809,-143240.311,-189598.731,-12958.637,-11503.942,-7927.120,-0.194,0.933,-0.226,-1.404,-1.923,1.068,73.333,444.000,1.000
-8774.707,-10335.631,-133422.577,-143359.086,-189092.997,-12850.748,-11405.306,-7851.727,-0.194,0.931,-0.229,-1.343,-1.953,1.129,73.333,445.000,1.000
-8693.817,-10258.981,-133621.268,-143476.174,-188587.078,-12746.929,-11309.780,-7778.691,-0.195,0.931,-0.225,-1.221,-1.892,1.068,73.333,446.000,1.000
-8615.168,-10184.322,-133837.317,-143592.023,-188081.614,-12647.945,-11218.027,-7708.446,-0.193,0.930,-0.225,-1.282,-1.862,1.160,73.333,447.000,1.000
-8538.529,-10111.866,-134077.770,-143706.893,-187576.420,-12553.075,-11129.710,-7640.875,-0.193,0.929,-0.226,-1.129,-1.831,1.129,73.333,448.000,1.000
-8463.146,-10041.482,-134336.033,-143820.331,-187070.397,-12460.150,-11043.386,-7575.443,-0.192,0.929,-0.228,-0.977,-1.831,1.190,73.333,449.000,1.000
-8387.838,-9972.290,-134613.834,-143931.531,-186561.971,-12366.275,-10956.885,-7511.172,-0.193,0.927,-0.228,-0.793,-1.709,1.129,73.333,450.000,1.000
-8311.629,-9903.057,-134947.820,-144039.692,-186049.920,-12269.585,-10868.536,-7447.195,-0.191,0.927,-0.224,-0.702,-1.831,1.221,73.333,451.000,1.000
-8234.545,-9833.169,-135387.949,-144144.618,-185534.093,-12170.576,-10778.330,-7383.419,-0.190,0.925,-0.225,-0.610,-1.740,1.160,73.333,452.000,1.000
-8157.565,-9762.952,-135938.280,-144247.213,-185015.485,-12071.439,-10687.754,-7320.196,-0.190,0.927,-0.227,-0.427,-1.770,1.282,73.333,453.000,1.000
-8081.606,-9692.984,-136536.437,-144348.256,-184495.216,-11973.872,-10598.240,-7257.271,-0.189,0.927,-0.228,-0.244,-1.617,1.282,73.333,454.000,1.000
-8006.639,-9623.357,-137108.740,-144447.988,-183973.760,-11877.863,-10510.168,-7193.806,-0.190,0.929,-0.227,0.000,-1.587,1.160,73.333,455.000,1.000
-7931.739,-9553.547,-137636.738,-144545.875,-183450.919,-11782.204,-10423.015,-7129.167,-0.191,0.932,-0.225,0.031,-1.587,1.099,73.333,456.000,1.000
-7855.807,-9482.807,-138156.407,-144640.877,-182926.101,-11685.666,-10335.952,-7063.334,-0.190,0.932,-0.227,0.183,-1.526,1.221,73.333,457.000,1.000
-7778.325,-9410.796,-138699.991,-144732.425,-182398.823,-11587.860,-10248.369,-6996.708,-0.191,0.932,-0.225,0.122,-1.495,1.099,73.333,458.000,1.000
-7699.707,-9337.947,-139257.988,-144820.504,-181869.196,-11489.457,-10160.126,-6929.734,-0.196,0.933,-0.227,0.061,-1.465,1.068,73.333,459.000,1.000
-7620.974,-9265.264,-139802.526,-144905.972,-181338.042,-11391.929,-10071.685,-6862.857,-0.194,0.933,-0.225,0.214,-1.495,1.068,73.333,460.000,1.000
-7543.120,-9193.731,-140328.120,-144989.831,-180806.330,-11296.692,-9983.898,-6796.563,-0.193,0.933,-0.226,0.183,-1.434,0.916,73.333,461.000,1.000
-7466.823,-9123.910,-140854.299,-145072.702,-180274.735,-11204.379,-9897.832,-6731.708,-0.191,0.933,-0.229,0.092,-1.343,0.854,73.333,462.000,1.000
-7392.273,-9055.775,-141395.276,-145154.938,-179743.463,-11114.725,-9814.423,-6669.257,-0.189,0.935,-0.231,0.183,-1.251,1.038,73.333,463.000,1.000
-7318.886,-8988.556,-141940.949,-145235.786,-179211.671,-11026.478,-9733.517,-6608.967,-0.187,0.937,-0.228,0.244,-1.221,1.129,73.333,464.000,1.000
-7245.545,-8921.025,-142470.824,-145313.914,-178677.623,-10937.612,-9653.603,-6549.195,-0.185,0.937,-0.229,0.183,-1.099,1.312,73.333,465.000,1.000
-7171.411,-8852.269,-142976.159,-145388.135,-178139.855,-10846.206,-9572.703,-6488.232,-0.183,0.938,-0.229,0.183,-0.977,1.495,73.333,466.000,1.000
-7096.471,-8782.332,-143463.662,-145458.027,-177598.241,-10751.626,-9489.604,-6425.499,-0.185,0.941,-0.227,0.092,-0.916,1.617,73.333,467.000,1.000
-7021.401,-8712.106,-143944.230,-145524.338,-177054.010,-10655.027,-9404.587,-6361.688,-0.186,0.942,-0.228,0.061,-0.793,1.648,73.333,468.000,1.000
-6947.066,-8642.691,-144423.286,-145588.072,-176508.803,-10558.675,-9319.079,-6298.069,-0.187,0.939,-0.230,-0.031,-0.671,1.709,73.333,469.000,1.000
-6873.972,-8574.759,-144899.995,-145650.281,-175963.893,-10464.611,-9234.646,-6235.692,-0.187,0.938,-0.231,-0.031,-0.641,1.678,73.333,470.000,1.000
-6801.948,-8508.165,-145369.480,-145711.327,-175419.649,-10373.336,-9151.979,-6174.660,-0.188,0.936,-0.230,-0.092,-0.488,1.740,73.333,471.000,1.000
-6730.344,-8442.144,-145826.206,-145770.413,-174875.342,-10283.587,-9070.700,-6114.154,-0.188,0.935,-0.229,-0.122,-0.519,1.801,73.333,472.000,1.000
-6658.389,-8375.789,-146269.582,-145826.237,-174329.452,-10193.294,-8989.924,-6053.089,-0.189,0.933,-0.228,-0.031,-0.366,1.862,73.333,473.000,1.000
-6585.477,-8308.427,-146705.354,-145877.281,-173780.232,-10100.828,-8908.832,-5990.669,-0.191,0.933,-0.229,-0.031,-0.336,1.740,73.333,474.000,1.000
-6511.482,-8239.944,-147139.049,-145922.936,-173226.770,-10005.945,-8827.269,-5926.978,-0.193,0.935,-0.228,-0.092,-0.397,1.526,73.333,475.000,1.000
-6436.905,-8170.735,-147567.311,-145963.423,-172669.558,-9909.613,-8745.650,-5862.866,-0.195,0.935,-0.225,-0.061,-0.488,1.465,73.333,476.000,1.000
-6362.677,-8101.364,-147980.119,-145998.986,-172109.935,-9812.996,-8664.240,-5799.173,-0.198,0.936,-0.227,-0.153,-0.549,1.221,73.333,477.000,1.000
-6289.687,-8032.291,-148374.154,-146029.829,-171549.038,-9716.715,-8582.850,-5736.277,-0.199,0.938,-0.226,-0.244,-0.732,1.068,73.333,478.000,1.000
-6218.335,-7963.807,-148758.995,-146056.017,-170987.125,-9620.955,-8501.236,-5674.308,-0.199,0.939,-0.225,-0.397,-0.763,0.885,73.333,479.000,1.000
-6148.495,-7896.206,-149146.411,-146078.420,-170423.981,-9526.206,-8419.709,-5613.673,-0.198,0.939,-0.223,-0.488,-0.946,0.671,73.333,480.000,1.000
-6079.644,-7829.683,-149535.016,-146098.299,-169859.272,-9433.259,-8338.718,-5554.487,-0.197,0.940,-0.225,-0.641,-1.038,0.488,73.333,481.000,1.000
-6011.001,-7764.039,-149911.788,-146116.222,-169292.396,-9342.452,-8258.054,-5495.766,-0.196,0.941,-0.227,-0.732,-1.068,0.305,73.333,482.000,1.000
-5941.805,-7698.745,-150270.381,-146132.081,-168722.732,-9253.397,-8177.061,-5436.041,-0.195,0.944,-0.229,-0.885,-1.007,0.183,73.333,483.000,1.000
-5871.614,-7633.185,-150620.515,-146145.037,-168149.994,-9165.069,-8095.202,-5374.568,-0.192,0.941,-0.228,-0.916,-1.099,0.275,73.333,484.000,1.000
-5800.416,-7566.900,-150975.127,-146154.458,-167574.261,-9076.141,-8012.346,-5311.660,-0.192,0.941,-0.229,-1.068,-1.038,0.061,73.333,485.000,1.000
-5728.532,-7499.773,-151331.916,-146160.147,-166995.693,-8985.563,-7928.632,-5247.883,-0.190,0.941,-0.227,-1.068,-1.190,0.153,73.333,486.000,1.000
-5656.397,-7432.020,-151675.418,-146162.224,-166414.509,-8893.029,-7844.211,-5183.385,-0.190,0.940,-0.227,-1.099,-1.099,0.336,73.333,487.000,1.000
-5584.409,-7364.048,-151997.957,-146161.336,-165831.168,-8799.131,-7759.239,-5118.094,-0.190,0.941,-0.227,-1.129,-1.068,0.488,73.333,488.000,1.000
-5512.921,-7296.324,-152310.130,-146157.974,-165246.177,-8705.116,-7674.038,-5052.193,-0.189,0.937,-0.224,-1.282,-0.946,0.610,73.333,489.000,1.000
-5442.163,-7229.240,-152626.980,-146152.625,-164659.933,-8612.343,-7589.243,-4986.509,-0.188,0.934,-0.225,-1.312,-0.854,0.702,73.333,490.000,1.000
-5372.191,-7163.050,-152948.326,-146145.664,-164072.700,-8521.649,-7505.570,-4922.404,-0.190,0.934,-0.223,-1.221,-0.854,0.946,73.333,491.000,1.000
-5303.102,-7097.931,-153260.301,-146137.421,-163484.769,-8433.236,-7423.584,-4861.308,-0.190,0.932,-0.225,-1.251,-0.732,1.038,73.333,492.000,1.000
-5235.031,-7033.848,-153555.740,-146128.450,-162896.428,-8346.848,-7343.441,-4803.926,-0.191,0.934,-0.225,-1.282,-0.824,1.190,73.333,493.000,1.000
-5167.884,-6970.396,-153844.254,-146118.643,-162307.558,-8261.895,-7264.520,-4749.492,-0.192,0.932,-0.223,-1.221,-0.824,1.404,73.333,494.000,1.000
-5101.258,-6907.103,-154139.186,-146107.564,-161717.827,-8177.804,-7185.820,-4696.087,-0.193,0.932,-0.223,-1.068,-0.763,1.343,73.333,495.000,1.000
-5034.559,-6843.620,-154439.102,-146094.650,-161126.994,-8094.116,-7106.675,-4641.515,-0.193,0.932,-0.219,-1.099,-0.824,1.373,73.333,496.000,1.000
-4967.241,-6779.671,-154729.413,-146079.399,-160534.949,-8010.296,-7027.062,-4584.325,-0.196,0.930,-0.221,-1.068,-0.854,1.373,73.333,497.000,1.000
-4899.133,-6715.065,-155002.267,-146061.906,-159941.751,-7925.635,-6947.392,-4524.482,-0.195,0.931,-0.223,-1.007,-0.824,1.434,73.333,498.000,1.000
-4830.524,-6649.803,-155266.568,-146042.138,-159347.401,-7839.334,-6867.898,-4463.010,-0.195,0.931,-0.218,-1.007,-0.793,1.373,73.333,499.000,1.000
-4762.039,-6584.317,-155535.703,-146020.091,-158751.907,-7751.147,-6788.609,-4401.327,-0.194,0.930,-0.220,-1.038,-0.977,1.373,73.333,500.000,1.000
-4694.458,-6519.565,-155809.988,-145996.013,-158155.508,-7661.982,-6709.800,-4340.811,-0.194,0.930,-0.220,-0.977,-1.038,1.343,73.333,501.000,1.000
-4628.435,-6456.627,-156077.597,-145970.477,-157558.692,-7573.589,-6632.130,-4282.470,-0.194,0.930,-0.221,-1.007,-1.038,1.282,73.333,502.000,1.000
-4563.987,-6395.866,-156331.954,-145944.101,-156961.848,-7487.369,-6556.051,-4226.305,-0.196,0.930,-0.222,-1.007,-1.099,1.282,73.333,503.000,1.000
-4500.343,-6336.530,-156580.397,-145916.273,-156364.654,-7403.403,-6481.184,-4171.080,-0.194,0.929,-0.223,-0.916,-1.129,1.190,73.333,504.000,1.000
-4436.678,-6277.445,-156833.704,-145885.871,-155766.352,-7320.843,-6406.820,-4115.528,-0.193,0.928,-0.219,-0.977,-1.190,1.190,73.333,505.000,1.000
-4372.765,-6217.867,-157091.086,-145852.265,-155166.549,-7238.712,-6332.531,-4059.292,-0.192,0.927,-0.221,-0.977,-1.099,1.251,73.333,506.000,1.000
-4308.694,-6157.580,-157341.135,-145815.532,-154565.492,-7156.169,-6258.124,-4002.670,-0.191,0.928,-0.222,-0.946,-1.160,1.190,73.333,507.000,1.000
-4244.255,-6096.465,-157577.149,-145776.208,-153963.644,-7072.535,-6183.374,-3946.044,-0.192,0.929,-0.220,-0.946,-1.099,1.282,73.333,508.000,1.000
-4178.953,-6034.242,-157805.017,-145734.189,-153361.088,-6987.409,-6107.915,-3889.508,-0.191,0.931,-0.219,-0.763,-1.160,1.343,73.333,509.000,1.000
-4112.474,-5970.670,-158034.361,-145689.205,-152757.619,-6901.005,-6031.543,-3832.918,-0.191,0.933,-0.223,-0.732,-1.099,1.312,73.333,510.000,1.000
-4044.970,-5905.907,-158265.242,-145641.232,-152153.060,-6814.237,-5954.484,-3776.099,-0.190,0.933,-0.219,-0.763,-1.068,1.282,73.333,511.000,1.000
-3977.222,-5840.916,-158488.730,-145590.770,-151547.518,-6728.509,-5877.570,-3719.414,-0.190,0.935,-0.219,-0.732,-1.038,1.312,73.333,512.000,1.000
-3910.535,-5777.329,-158700.252,-145539.064,-150941.638,-6645.151,-5802.083,-3664.022,-0.188,0.937,-0.223,-0.793,-1.099,1.434,73.333,513.000,1.000
-3846.011,-5716.344,-158906.017,-145486.666,-150336.294,-6564.502,-5728.796,-3610.827,-0.188,0.939,-0.220,-0.854,-1.129,1.495,73.333,514.000,1.000
-3783.844,-5657.867,-159114.998,-145433.191,-149732.132,-6485.766,-5657.444,-3559.493,-0.187,0.938,-0.220,-0.916,-1.099,1.526,73.333,515.000,1.000
-3723.350,-5600.844,-159327.275,-145377.914,-149129.173,-6407.897,-5587.212,-3508.745,-0.188,0.936,-0.221,-0.946,-0.885,1.556,73.333,516.000,1.000
-3663.545,-5544.132,-159531.436,-145320.724,-148526.812,-6330.450,-5517.540,-3457.533,-0.188,0.936,-0.221,-0.946,-0.946,1.617,73.333,517.000,1.000
-3603.481,-5486.808,-159710.870,-145262.386,-147924.159,-6253.315,-5448.210,-3405.447,-0.188,0.937,-0.219,-1.038,-0.885,1.678,73.333,518.000,1.000
-3542.376,-5428.177,-159853.843,-145202.681,-147320.214,-6175.889,-5378.742,-3352.138,-0.189,0.936,-0.221,-1.068,-0.885,1.709,73.333,519.000,1.000
-3480.128,-5368.314,-159962.277,-145140.488,-146714.467,-6097.412,-5308.638,-3297.483,-0.189,0.936,-0.224,-1.007,-0.854,1.801,73.333,520.000,1.000
-3417.463,-5308.102,-160046.424,-145075.096,-146107.252,-6017.775,-5237.917,-3241.997,-0.190,0.937,-0.218,-1.038,-0.793,1.740,73.333,521.000,1.000
-3355.056,-5248.166,-160111.110,-145006.713,-145499.062,-5937.449,-5166.826,-3186.338,-0.191,0.939,-0.221,-1.099,-0.824,1.770,73.333,522.000,1.000
-3292.915,-5188.346,-160154.406,-144936.244,-144889.968,-5857.159,-5095.497,-3130.773,-0.190,0.938,-0.220,-1.190,-0.732,1.770,73.333,523.000,1.000
-3230.858,-5128.431,-160175.270,-144864.370,-144279.955,-5777.739,-5024.100,-3075.427,-0.192,0.940,-0.219,-1.251,-0.763,1.801,73.333,524.000,1.000
-3168.949,-5068.703,-160174.710,-144791.582,-143669.446,-5699.649,-4952.895,-3020.498,-0.192,0.940,-0.221,-1.282,-0.793,1.740,73.333,525.000,1.000
-3107.298,-5009.514,-160152.064,-144717.465,-143058.823,-5622.168,-4881.728,-2965.769,-0.191,0.939,-0.219,-1.312,-0.793,1.770,73.333,526.000,1.000
-3045.921,-4950.937,-160108.513,-144640.557,-142447.738,-5543.803,-4810.162,-2910.984,-0.193,0.940,-0.221,-1.343,-0.763,1.526,73.333,527.000,1.000
-2984.873,-4892.950,-160054.687,-144559.769,-141835.331,-5463.783,-4738.308,-2856.787,-0.196,0.940,-0.219,-1.465,-0.854,1.404,73.333,528.000,1.000
-2924.216,-4835.532,-160007.622,-144474.802,-141221.011,-5382.647,-4666.858,-2804.154,-0.196,0.940,-0.219,-1.495,-0.885,1.465,73.333,529.000,1.000
-2863.903,-4778.516,-159978.053,-144386.434,-140605.173,-5301.496,-4596.408,-2753.218,-0.195,0.940,-0.220,-1.648,-0.946,1.312,73.333,530.000,1.000
-2803.786,-4721.456,-159962.220,-144295.469,-139988.713,-5220.789,-4526.742,-2702.968,-0.195,0.940,-0.221,-1.587,-0.977,1.129,73.333,531.000,1.000
-2743.716,-4663.836,-159948.425,-144201.717,-139372.143,-5140.014,-4456.899,-2652.059,-0.192,0.937,-0.221,-1.587,-1.038,1.160,73.333,532.000,1.000
-2683.571,-4605.395,-159930.545,-144104.630,-138755.516,-5058.339,-4385.970,-2599.687,-0.191,0.939,-0.219,-1.740,-1.007,1.251,73.333,533.000,1.000
-2623.312,-4546.284,-159911.500,-144003.770,-138138.534,-4975.314,-4313.659,-2545.732,-0.189,0.940,-0.222,-1.740,-1.129,1.190,73.333,534.000,1.000
-2563.255,-4487.182,-159895.783,-143899.886,-137520.841,-4891.408,-4240.639,-2490.965,-0.190,0.939,-0.220,-1.678,-1.160,1.160,73.333,535.000,1.000
-2503.916,-4428.903,-159882.293,-143794.455,-136902.203,-4807.714,-4168.119,-2436.779,-0.190,0.939,-0.221,-1.617,-1.099,1.129,73.333,536.000,1.000
-2445.376,-4371.667,-159866.396,-143688.225,-136282.469,-4724.975,-4096.800,-2384.081,-0.189,0.939,-0.220,-1.556,-1.099,1.129,73.333,537.000,1.000
-2387.110,-4315.015,-159847.220,-143580.946,-135661.686,-4643.225,-4026.544,-2332.646,-0.190,0.937,-0.220,-1.556,-0.977,1.068,73.333,538.000,1.000
-2328.569,-4258.369,-159828.700,-143471.522,-135039.987,-4562.209,-3956.882,-2281.687,-0.189,0.934,-0.219,-1.556,-1.099,1.068,73.333,539.000,1.000
-2269.619,-4201.418,-159814.205,-143359.247,-134417.561,-4481.982,-3887.600,-2230.828,-0.190,0.932,-0.221,-1.556,-1.099,1.190,73.333,540.000,1.000
-2210.282,-4143.937,-159802.126,-143243.877,-133794.565,-4402.796,-3818.585,-2179.977,-0.189,0.931,-0.220,-1.404,-1.007,1.282,73.333,541.000,1.000
-2150.507,-4085.715,-159788.132,-143125.201,-133171.091,-4324.596,-3749.538,-2128.843,-0.191,0.930,-0.220,-1.282,-0.946,1.282,73.333,542.000,1.000
-2090.360,-4026.794,-159770.936,-143003.529,-132547.356,-4246.913,-3680.234,-2077.157,-0.191,0.930,-0.221,-1.068,-0.854,1.221,73.333,543.000,1.000
-2030.036,-3967.465,-159752.970,-142879.271,-131923.532,-4169.155,-3610.826,-2025.078,-0.193,0.930,-0.223,-0.916,-0.946,1.160,73.333,544.000,1.000
-1969.687,-3908.162,-159736.663,-142753.137,-131299.760,-4091.222,-3542.085,-1973.296,-0.193,0.929,-0.220,-0.732,-0.885,0.946,73.333,545.000,1.000
-1909.372,-3849.362,-159721.441,-142625.867,-130676.359,-4013.487,-3474.963,-1922.323,-0.195,0.932,-0.221,-0.549,-1.038,0.793,73.333,546.000,1.000
-1849.222,-3791.447,-159704.990,-142497.710,-130053.782,-3936.193,-3409.760,-1871.981,-0.196,0.934,-0.222,-0.610,-1.099,0.671,73.333,547.000,1.000
-1789.509,-3734.555,-159686.757,-142368.584,-129432.357,-3859.293,-3345.866,-1821.856,-0.194,0.934,-0.222,-0.458,-1.038,0.702,73.333,548.000,1.000
-1730.451,-3678.464,-159667.915,-142237.697,-128811.791,-3782.715,-3282.074,-1771.831,-0.195,0.936,-0.221,-0.275,-1.099,0.580,73.333,549.000,1.000
-1672.035,-3622.764,-159649.110,-142104.326,-128191.156,-3706.662,-3217.352,-1722.290,-0.195,0.936,-0.226,-0.183,-1.160,0.519,73.333,550.000,1.000
-1614.031,-3567.118,-159629.238,-141968.217,-127569.351,-3631.420,-3151.399,-1673.705,-0.193,0.936,-0.224,-0.183,-1.251,0.366,73.333,551.000,1.000
-1556.140,-3511.349,-159606.783,-141829.503,-126945.769,-3557.006,-3084.627,-1626.031,-0.190,0.937,-0.222,-0.031,-1.221,0.397,73.333,552.000,1.000
-1498.162,-3455.342,-159581.930,-141688.857,-126320.725,-3483.167,-3017.778,-1578.552,-0.191,0.937,-0.220,0.000,-0.977,0.397,73.333,553.000,1.000
-1440.192,-3399.001,-159555.788,-141546.625,-125694.945,-3409.427,-2951.261,-1530.234,-0.193,0.938,-0.219,0.092,-1.038,0.488,73.333,554.000,1.000
-1382.702,-3342.416,-159528.905,-141402.922,-125068.849,-3335.206,-2884.969,-1480.515,-0.191,0.938,-0.221,0.031,-1.160,0.610,73.333,555.000,1.000
-1326.253,-3285.874,-159500.720,-141257.650,-124442.320,-3260.030,-2818.578,-1429.641,-0.190,0.938,-0.221,0.031,-1.038,0.671,73.333,556.000,1.000
-1271.159,-3229.791,-159470.470,-141110.663,-123815.196,-3183.994,-2752.082,-1378.365,-0.188,0.940,-0.220,-0.061,-1.068,0.610,73.333,557.000,1.000
-1217.331,-3174.565,-159438.570,-140962.394,-123187.831,-3107.873,-2686.001,-1327.358,-0.191,0.937,-0.223,-0.031,-1.099,0.671,73.333,558.000,1.000
-1164.187,-3120.242,-159405.938,-140813.034,-122560.799,-3032.301,-2620.801,-1276.775,-0.190,0.939,-0.221,-0.031,-1.068,0.824,73.333,559.000,1.000
-1110.807,-3066.468,-159373.324,-140662.449,-121934.541,-2957.326,-2556.545,-1226.683,-0.191,0.939,-0.219,-0.061,-0.946,1.007,73.333,560.000,1.000
-1056.289,-3012.641,-159340.839,-140510.104,-121309.096,-2882.643,-2492.897,-1177.340,-0.191,0.942,-0.218,-0.061,-0.977,1.129,73.333,561.000,1.000
-1000.156,-2958.136,-159307.695,-140355.204,-120684.023,-2807.957,-2429.234,-1128.908,-0.191,0.941,-0.218,-0.153,-0.946,1.190,73.333,562.000,1.000
-942.628,-2902.753,-159272.804,-140197.560,-120058.889,-2733.269,-2365.026,-1081.282,-0.193,0.940,-0.219,-0.366,-0.854,1.312,73.333,563.000,1.000
-884.568,-2847.061,-159234.934,-140037.266,-119433.478,-2658.884,-2300.165,-1034.166,-0.194,0.940,-0.218,-0.427,-0.946,1.373,73.333,564.000,1.000
-827.126,-2792.225,-159193.576,-139874.855,-118807.776,-2585.340,-2235.225,-987.519,-0.194,0.940,-0.218,-0.519,-1.007,1.373,73.333,565.000,1.000
-771.261,-2739.275,-159149.419,-139711.037,-118182.007,-2513.108,-2171.139,-941.589,-0.194,0.937,-0.218,-0.549,-1.007,1.373,73.333,566.000,1.000
-717.373,-2688.449,-159103.606,-139546.257,-117556.625,-2442.143,-2108.476,-896.426,-0.195,0.936,-0.218,-0.610,-1.099,1.343,73.333,567.000,1.000
-665.167,-2639.082,-159056.789,-139380.816,-116932.063,-2371.669,-2047.060,-851.539,-0.196,0.935,-0.219,-0.702,-1.099,1.495,73.333,568.000,1.000
-613.829,-2589.929,-159008.262,-139214.255,-116308.198,-2300.369,-1985.964,-806.074,-0.195,0.935,-0.217,-0.824,-1.160,1.465,73.333,569.000,1.000
-562.331,-2539.620,-158957.016,-139045.778,-115684.290,-2227.143,-1923.959,-759.418,-0.196,0.936,-0.217,-0.946,-1.160,1.495,73.333,570.000,1.000
-509.755,-2487.128,-158902.692,-138874.464,-115059.254,-2151.746,-1860.055,-711.391,-0.195,0.936,-0.216,-1.007,-1.251,1.373,73.333,571.000,1.000
-455.792,-2432.401,-158845.256,-138699.558,-114432.242,-2074.867,-1794.099,-662.300,-0.196,0.936,-0.217,-1.007,-1.251,1.282,73.333,572.000,1.000
-400.919,-2376.534,-158784.607,-138521.302,-113803.270,-1997.662,-1727.027,-612.949,-0.194,0.935,-0.219,-1.068,-1.251,1.251,73.333,573.000,1.000
-345.912,-2320.957,-158720.090,-138340.214,-113173.036,-1920.942,-1660.072,-564.007,-0.195,0.936,-0.217,-1.099,-1.251,1.312,73.333,574.000,1.000
-291.458,-2266.664,-158651.672,-138156.974,-112542.616,-1845.114,-1594.129,-515.711,-0.193,0.935,-0.217,-1.099,-1.282,1.190,73.333,575.000,1.000
-238.142,-2214.043,-158580.799,-137972.223,-111913.128,-1770.642,-1529.711,-468.133,-0.192,0.935,-0.219,-1.221,-1.221,1.160,73.333,576.000,1.000
-186.381,-2162.881,-158509.135,-137786.112,-111285.155,-1698.108,-1466.896,-421.353,-0.193,0.935,-0.218,-1.099,-1.312,1.160,73.333,577.000,1.000
-136.118,-2112.366,-158436.935,-137598.542,-110658.364,-1627.745,-1405.168,-375.274,-0.192,0.935,-0.216,-1.038,-1.343,1.221,73.333,578.000,1.000
-86.663,-2061.335,-158362.338,-137408.950,-110031.530,-1558.878,-1343.418,-329.454,-0.191,0.932,-0.218,-0.977,-1.404,1.160,73.333,579.000,1.000
-37.061,-2009.019,-158283.500,-137217.255,-109403.449,-1490.261,-1280.786,-283.708,-0.191,0.934,-0.219,-0.977,-1.343,1.160,73.333,580.000,1.000
13.268,-1955.681,-158200.636,-137024.186,-108773.891,-1421.106,-1217.494,-238.465,-0.191,0.933,-0.219,-0.946,-1.312,1.129,73.333,581.000,1.000
64.168,-1902.534,-158115.538,-136830.723,-108143.730,-1351.853,-1154.653,-194.293,-0.192,0.933,-0.218,-0.824,-1.221,1.129,73.333,582.000,1.000
114.927,-1851.002,-158029.935,-136637.768,-107514.400,-1283.937,-1093.399,-151.408,-0.190,0.934,-0.217,-0.702,-1.282,1.221,73.333,583.000,1.000
164.837,-1801.834,-157943.973,-136445.132,-106886.953,-1218.568,-1033.991,-109.406,-0.192,0.934,-0.217,-0.732,-1.312,1.190,73.333,584.000,1.000
213.685,-1754.714,-157857.129,-136251.924,-106261.598,-1155.747,-975.764,-67.458,-0.190,0.936,-0.217,-0.641,-1.282,1.068,73.333,585.000,1.000
261.918,-1708.418,-157769.245,-136057.017,-105637.609,-1093.993,-917.514,-24.680,-0.190,0.936,-0.217,-0.580,-1.282,1.221,73.333,586.000,1.000
310.379,-1661.366,-157679.965,-135859.299,-105013.478,-1030.910,-857.935,19.524,-0.192,0.936,-0.218,-0.549,-1.343,1.129,73.333,587.000,1.000
359.606,-1612.620,-157588.545,-135658.660,-104387.900,-964.869,-796.506,64.931,-0.192,0.937,-0.217,-0.580,-1.312,1.099,73.333,588.000,1.000
409.036,-1562.816,-157494.421,-135456.081,-103761.101,-896.653,-734.335,110.137,-0.193,0.937,-0.217,-0.519,-1.343,1.160,73.333,589.000,1.000
457.353,-1513.707,-157398.411,-135253.338,-103134.955,-829.091,-673.747,153.293,-0.193,0.938,-0.217,-0.549,-1.251,0.946,73.333,590.000,1.000
504.058,-1466.294,-157301.925,-135051.210,-102511.090,-764.341,-616.216,193.955,-0.191,0.938,-0.219,-0.580,-1.099,1.007,73.333,591.000,1.000
550.082,-1419.997,-157205.164,-134848.563,-101889.416,-702.040,-561.128,233.570,-0.191,0.940,-0.218,-0.580,-1.129,0.977,73.333,592.000,1.000
596.716,-1373.594,-157106.988,-134643.933,-101268.669,-640.082,-506.667,274.066,-0.194,0.938,-0.217,-0.610,-1.160,1.007,73.333,593.000,1.000
644.597,-1326.162,-157005.329,-134436.283,-100647.343,-576.179,-450.995,316.640,-0.193,0.938,-0.213,-0.702,-1.190,0.916,73.333,594.000,1.000
693.532,-1277.410,-156898.856,-134225.576,-100024.450,-509.033,-393.041,361.213,-0.192,0.939,-0.214,-0.702,-1.129,0.885,73.333,595.000,1.000
742.803,-1227.707,-156788.144,-134012.476,-99399.933,-438.989,-332.898,406.613,-0.193,0.938,-0.216,-0.824,-1.190,0.916,73.333,596.000,1.000
791.618,-1177.840,-156674.871,-133797.715,-98774.478,-368.004,-271.736,451.280,-0.193,0.938,-0.217,-0.763,-1.221,0.854,73.333,597.000,1.000
839.674,-1128.384,-156560.377,-133582.029,-98149.034,-298.717,-211.187,494.058,-0.194,0.938,-0.216,-0.732,-1.190,0.854,73.333,598.000,1.000
887.543,-1079.061,-156444.369,-133365.196,-97524.200,-232.736,-152.136,534.983,-0.195,0.937,-0.219,-0.671,-1.068,0.763,73.333,599.000,1.000
936.377,-1028.911,-156325.836,-133146.244,-96900.036,-169.575,-94.083,575.209,-0.193,0.938,-0.221,-0.732,-1.190,0.854,73.333,600.000,1.000
986.930,-977.340,-156204.392,-132924.238,-96276.255,-107.309,-35.811,615.937,-0.192,0.938,-0.217,-0.641,-1.160,0.854,73.333,601.000,1.000
1038.654,-925.087,-156080.525,-132699.258,-95652.750,-44.407,23.143,657.128,-0.192,0.938,-0.219,-0.671,-1.068,0.885,73.333,602.000,1.000
1089.988,-873.834,-155955.110,-132472.920,-95029.869,19.186,81.969,697.501,-0.193,0.938,-0.218,-0.580,-1.282,0.854,73.333,603.000,1.000
1139.622,-824.714,-155828.103,-132246.680,-94407.831,82.631,139.680,736.053,-0.193,0.937,-0.218,-0.549,-1.221,0.885,73.333,604.000,1.000
1187.300,-777.421,-155698.947,-132021.042,-93786.456,145.163,196.065,773.184,-0.193,0.938,-0.217,-0.610,-1.160,0.977,73.333,605.000,1.000
1233.681,-730.634,-155567.476,-131795.410,-93165.429,206.726,251.838,810.607,-0.194,0.936,-0.218,-0.641,-1.068,1.038,73.333,606.000,1.000
1279.681,-683.265,-155433.835,-131568.495,-92544.647,267.796,307.855,849.866,-0.193,0.937,-0.215,-0.580,-1.160,1.129,73.333,607.000,1.000
1326.012,-635.219,-155298.191,-131339.515,-91924.359,328.652,364.077,890.732,-0.193,0.938,-0.216,-0.519,-1.160,1.099,73.333,608.000,1.000
1373.065,-586.966,-155159.963,-131107.990,-91304.631,389.371,419.889,931.807,-0.193,0.938,-0.218,-0.519,-1.099,1.160,73.333,609.000,1.000
1420.648,-539.069,-155018.494,-130873.984,-90685.177,450.002,475.016,972.142,-0.192,0.940,-0.217,-0.580,-1.068,1.190,73.333,610.000,1.000
1467.934,-492.082,-154873.892,-130638.010,-90065.736,510.480,529.795,1011.829,-0.190,0.938,-0.216,-0.519,-1.038,1.251,73.333,611.000,1.000
1514.095,-446.352,-154726.859,-130400.522,-89446.462,570.727,584.821,1051.674,-0.191,0.938,-0.214,-0.519,-1.068,1.282,73.333,612.000,1.000
1558.891,-401.852,-154578.428,-130162.073,-88827.997,630.917,640.449,1092.673,-0.192,0.938,-0.218,-0.519,-0.977,1.434,73.333,613.000,1.000
1602.593,-358.380,-154429.116,-129922.822,-88211.003,691.380,696.443,1135.293,-0.189,0.938,-0.219,-0.549,-0.916,1.465,73.333,614.000,1.000
1645.619,-315.825,-154279.001,-129682.944,-87595.796,752.130,751.833,1178.693,-0.189,0.937,-0.218,-0.519,-0.854,1.495,73.333,615.000,1.000
1688.489,-273.847,-154127.758,-129442.471,-86981.959,813.017,805.716,1221.255,-0.192,0.936,-0.216,-0.519,-0.854,1.404,73.333,616.000,1.000
1731.794,-231.550,-153974.396,-129200.876,-86368.354,874.136,858.175,1261.809,-0.193,0.936,-0.214,-0.519,-0.824,1.373,73.333,617.000,1.000
1775.920,-187.925,-153817.916,-128957.751,-85753.983,935.579,910.016,1300.195,-0.192,0.937,-0.213,-0.397,-0.916,1.465,73.333,618.000,1.000
1820.710,-142.615,-153657.651,-128712.753,-85138.631,997.019,961.958,1337.124,-0.191,0.937,-0.210,-0.336,-0.824,1.495,73.333,619.000,1.000
1865.381,-96.312,-153494.047,-128466.047,-84522.980,1057.553,1014.007,1373.293,-0.194,0.936,-0.214,-0.366,-0.885,1.434,73.333,620.000,1.000
1909.028,-50.242,-153328.494,-128218.065,-83908.015,1116.244,1065.694,1408.879,-0.193,0.937,-0.213,-0.397,-0.854,1.495,73.333,621.000,1.000
1951.311,-5.232,-153162.048,-127968.945,-83294.214,1172.936,1116.784,1443.892,-0.192,0.937,-0.211,-0.458,-0.793,1.495,73.333,622.000,1.000
1992.599,38.731,-152995.073,-127718.949,-82681.591,1228.514,1167.481,1478.641,-0.191,0.936,-0.214,-0.397,-0.824,1.373,73.333,623.000,1.000
2033.618,82.334,-152826.995,-127467.960,-82069.943,1284.563,1218.367,1513.911,-0.190,0.936,-0.217,-0.580,-0.763,1.404,73.333,624.000,1.000
2075.083,126.437,-152656.913,-127215.658,-81458.904,1342.459,1270.089,1550.577,-0.191,0.936,-0.217,-0.610,-0.793,1.404,73.333,625.000,1.000
2117.509,171.656,-152484.129,-126961.700,-80847.935,1402.642,1323.054,1589.204,-0.189,0.935,-0.215,-0.549,-0.793,1.404,73.333,626.000,1.000
2161.036,218.053,-152308.109,-126705.873,-80236.527,1464.518,1377.232,1629.650,-0.190,0.938,-0.217,-0.519,-0.702,1.343,73.333,627.000,1.000
2205.360,265.051,-152128.711,-126448.660,-79624.508,1526.910,1432.115,1670.880,-0.190,0.938,-0.215,-0.580,-0.793,1.343,73.333,628.000,1.000
2250.018,311.814,-151945.697,-126190.389,-79011.867,1588.936,1487.199,1711.728,-0.191,0.939,-0.215,-0.519,-0.824,1.312,73.333,629.000,1.000
2294.617,357.663,-151759.107,-125931.162,-78398.747,1650.339,1542.202,1751.663,-0.192,0.938,-0.214,-0.488,-0.793,1.312,73.333,630.000,1.000
2338.611,402.104,-151569.814,-125671.125,-77785.694,1710.986,1596.669,1790.550,-0.191,0.938,-0.215,-0.458,-0.763,1.312,73.333,631.000,1.000
2381.139,444.685,-151379.299,-125410.548,-77173.773,1770.352,1649.604,1827.867,-0.190,0.936,-0.217,-0.549,-0.763,1.251,73.333,632.000,1.000
2421.642,485.309,-151189.083,-125149.945,-76564.196,1827.869,1700.047,1862.949,-0.188,0.937,-0.213,-0.580,-0.671,1.343,73.333,633.000,1.000
2460.589,524.707,-150999.399,-124889.099,-75957.369,1883.813,1748.245,1896.180,-0.191,0.938,-0.214,-0.519,-0.641,1.282,73.333,634.000,1.000
2499.193,564.146,-150809.424,-124627.498,-75352.708,1939.282,1795.567,1929.029,-0.191,0.939,-0.214,-0.458,-0.702,1.312,73.333,635.000,1.000
2538.534,604.622,-150618.209,-124364.876,-74749.356,1995.442,1843.380,1963.053,-0.191,0.938,-0.217,-0.488,-0.702,1.282,73.333,636.000,1.000
2578.939,646.227,-150425.094,-124101.124,-74146.909,2052.833,1892.175,1998.914,-0.191,0.938,-0.214,-0.549,-0.610,1.221,73.333,637.000,1.000
2620.071,688.282,-150229.889,-123836.303,-73545.440,2111.284,1941.606,2036.192,-0.192,0.938,-0.217,-0.580,-0.580,1.190,73.333,638.000,1.000
2661.505,730.178,-150031.928,-123569.762,-72944.677,2170.522,1991.391,2074.208,-0.192,0.936,-0.215,-0.427,-0.641,1.221,73.333,639.000,1.000
2702.970,771.766,-149830.416,-123300.874,-72344.011,2230.288,2041.498,2112.374,-0.191,0.936,-0.216,-0.488,-0.580,1.160,73.333,640.000,1.000
2744.200,813.128,-149625.385,-123029.813,-71743.284,2290.072,2091.674,2150.032,-0.192,0.939,-0.215,-0.458,-0.671,1.190,73.333,641.000,1.000
2784.954,854.430,-149417.471,-122757.106,-71142.814,2349.332,2141.479,2186.668,-0.191,0.938,-0.216,-0.458,-0.702,1.190,73.333,642.000,1.000
2825.183,895.906,-149207.431,-122483.318,-70542.746,2407.852,2190.687,2222.262,-0.192,0.937,-0.215,-0.397,-0.763,1.129,73.333,643.000,1.000
2864.925,937.643,-148995.592,-122208.444,-69942.884,2465.688,2239.296,2257.180,-0.193,0.938,-0.217,-0.427,-0.732,1.129,73.333,644.000,1.000
2904.053,979.342,-148782.401,-121932.662,-69343.331,2522.903,2287.034,2291.481,-0.195,0.937,-0.215,-0.519,-0.732,1.160,73.333,645.000,1.000
2942.519,1020.660,-148568.249,-121656.462,-68744.374,2579.707,2333.606,2324.930,-0.193,0.938,-0.214,-0.458,-0.824,1.068,73.333,646.000,1.000
2980.666,1061.603,-148352.609,-121379.952,-68145.768,2636.432,2379.310,2357.636,-0.195,0.939,-0.214,-0.336,-0.793,1.007,73.333,647.000,1.000
3019.024,1102.398,-148134.674,-121103.129,-67547.018,2693.033,2424.792,2390.176,-0.197,0.937,-0.216,-0.427,-0.854,0.946,73.333,648.000,1.000
3057.919,1143.252,-147913.885,-120825.594,-66948.035,2749.102,2470.547,2423.190,-0.194,0.938,-0.214,-0.366,-0.885,0.946,73.333,649.000,1.000
3097.374,1184.347,-147690.177,-120546.906,-66349.238,2804.428,2516.749,2456.877,-0.191,0.937,-0.217,-0.366,-0.885,0.946,73.333,650.000,1.000
3137.371,1226.007,-147463.516,-120266.535,-65750.921,2859.465,2563.597,2491.274,-0.192,0.939,-0.215,-0.397,-1.038,0.946,73.333,651.000,1.000
3177.891,1268.461,-147233.673,-119983.833,-65153.096,2914.847,2611.365,2526.667,-0.193,0.940,-0.213,-0.397,-1.099,0.916,73.333,652.000,1.000
3218.582,1311.275,-147001.180,-119699.099,-64556.212,2970.298,2659.788,2563.084,-0.195,0.938,-0.215,-0.366,-1.221,0.946,73.333,653.000,1.000
3258.728,1353.347,-146767.117,-119413.282,-63961.209,3024.490,2707.976,2599.851,-0.195,0.937,-0.213,-0.366,-1.221,0.885,73.333,654.000,1.000
3297.716,1393.621,-146532.575,-119127.523,-63368.785,3075.947,2754.982,2635.979,-0.195,0.938,-0.217,-0.366,-1.221,0.885,73.333,655.000,1.000
3335.560,1431.940,-146298.021,-118842.328,-62778.729,3124.201,2800.506,2671.022,-0.195,0.938,-0.214,-0.244,-1.251,0.916,73.333,656.000,1.000
3372.745,1469.094,-146063.115,-118557.287,-62190.170,3170.149,2844.970,2705.126,-0.195,0.938,-0.211,-0.244,-1.312,0.885,73.333,657.000,1.000
3409.634,1506.102,-145827.507,-118272.052,-61602.381,3215.459,2889.040,2738.398,-0.193,0.937,-0.214,-0.305,-1.343,0.946,73.333,658.000,1.000
3446.315,1543.713,-145590.525,-117986.022,-61014.854,3261.922,2933.503,2770.952,-0.192,0.940,-0.213,-0.244,-1.343,0.946,73.333,659.000,1.000
3482.757,1582.159,-145351.396,-117698.710,-60427.301,3310.704,2978.967,2803.039,-0.195,0.938,-0.212,-0.183,-1.404,0.916,73.333,660.000,1.000
3518.864,1621.038,-145109.875,-117410.109,-59839.880,3361.802,3025.344,2834.684,-0.196,0.938,-0.211,-0.275,-1.312,1.007,73.333,661.000,1.000
3554.410,1659.518,-144866.331,-117120.613,-59253.269,3414.172,3071.734,2865.299,-0.193,0.938,-0.215,-0.153,-1.373,1.099,73.333,662.000,1.000
3589.199,1696.944,-144621.627,-116831.116,-58668.339,3466.474,3117.008,2894.211,-0.193,0.938,-0.214,-0.183,-1.495,1.068,73.333,663.000,1.000
3623.499,1733.483,-144375.844,-116541.740,-58085.216,3518.069,3160.873,2921.919,-0.194,0.938,-0.213,-0.214,-1.495,1.099,73.333,664.000,1.000
3658.064,1769.919,-144128.271,-116251.741,-57503.283,3569.094,3203.988,2950.076,-0.193,0.940,-0.212,-0.244,-1.556,0.977,73.333,665.000,1.000
3693.649,1807.000,-143878.276,-115960.062,-56921.991,3619.899,3247.323,2980.490,-0.194,0.938,-0.213,-0.366,-1.587,1.007,73.333,666.000,1.000
3730.575,1845.101,-143625.530,-115665.690,-56341.190,3670.703,3291.631,3014.235,-0.193,0.938,-0.213,-0.183,-1.587,1.190,73.333,667.000,1.000
3768.429,1883.969,-143370.365,-115368.674,-55761.158,3721.277,3336.830,3050.748,-0.193,0.937,-0.214,-0.153,-1.434,1.190,73.333,668.000,1.000
3806.076,1922.644,-143113.433,-115069.977,-55182.462,3770.872,3381.850,3087.708,-0.193,0.938,-0.212,-0.122,-1.373,1.038,73.333,669.000,1.000
3842.305,1960.059,-142855.483,-114771.107,-54605.578,3818.662,3425.385,3122.376,-0.193,0.938,-0.211,-0.153,-1.434,0.977,73.333,670.000,1.000
3876.706,1995.965,-142596.884,-114473.013,-54030.368,3864.365,3467.027,3153.592,-0.192,0.939,-0.213,-0.275,-1.465,1.038,73.333,671.000,1.000
3909.858,2031.084,-142337.220,-114175.294,-53456.040,3908.399,3507.618,3182.493,-0.193,0.940,-0.213,-0.244,-1.434,0.946,73.333,672.000,1.000
3942.874,2066.555,-142075.950,-113876.999,-52881.707,3951.762,3548.610,3211.534,-0.191,0.940,-0.211,-0.275,-1.404,0.977,73.333,673.000,1.000
3976.844,2103.304,-141812.560,-113576.938,-52306.831,3995.908,3591.200,3242.853,-0.190,0.940,-0.212,-0.244,-1.373,1.160,73.333,674.000,1.000
4012.320,2141.518,-141547.026,-113274.625,-51731.634,4042.082,3635.442,3276.776,-0.192,0.940,-0.213,-0.275,-1.343,1.129,73.333,675.000,1.000
4049.127,2180.604,-141279.687,-112970.516,-51156.948,4090.610,3680.214,3311.764,-0.192,0.938,-0.214,-0.214,-1.312,1.038,73.333,676.000,1.000
4086.511,2219.610,-141010.554,-112665.322,-50583.623,4140.864,3724.057,3345.726,-0.191,0.938,-0.214,-0.275,-1.404,0.946,73.333,677.000,1.000
4123.603,2257.815,-140739.599,-112359.772,-50012.186,4191.788,3766.023,3377.448,-0.191,0.936,-0.215,-0.244,-1.404,0.977,73.333,678.000,1.000
4159.955,2295.190,-140466.610,-112053.734,-49442.481,4242.556,3806.324,3407.346,-0.190,0.935,-0.215,-0.183,-1.373,0.977,73.333,679.000,1.000
4195.554,2332.188,-140191.462,-111746.723,-48873.849,4292.594,3846.134,3436.738,-0.191,0.933,-0.216,-0.122,-1.404,1.007,73.333,680.000,1.000
4230.405,2369.128,-139914.366,-111438.560,-48305.779,4341.324,3886.770,3466.655,-0.194,0.935,-0.213,-0.092,-1.434,0.946,73.333,681.000,1.000
4264.368,2405.912,-139635.575,-111129.309,-47738.251,4388.270,3928.881,3497.247,-0.193,0.934,-0.214,-0.122,-1.465,0.854,73.333,682.000,1.000
4297.406,2442.211,-139355.497,-110819.566,-47171.603,4433.274,3971.970,3527.699,-0.193,0.935,-0.215,0.000,-1.434,0.793,73.333,683.000,1.000
4329.635,2477.633,-139074.224,-110509.801,-46606.064,4476.348,4014.584,3556.730,-0.193,0.935,-0.214,0.092,-1.434,0.793,73.333,684.000,1.000
4361.031,2511.684,-138791.819,-110200.483,-46041.813,4517.193,4054.966,3583.463,-0.193,0.934,-0.214,0.122,-1.343,0.671,73.333,685.000,1.000
4391.604,2544.214,-138508.383,-109891.833,-45478.932,4555.774,4092.387,3608.376,-0.191,0.936,-0.217,0.183,-1.343,0.824,73.333,686.000,1.000
4421.861,2576.007,-138223.421,-109583.154,-44917.019,4593.419,4128.118,3633.253,-0.192,0.935,-0.216,0.183,-1.312,0.732,73.333,687.000,1.000
4452.657,2608.442,-137936.245,-109273.535,-44355.410,4632.289,4164.443,3659.798,-0.191,0.935,-0.217,0.183,-1.373,0.824,73.333,688.000,1.000
4484.497,2642.409,-137646.337,-108962.229,-43793.786,4673.705,4202.821,3688.429,-0.191,0.938,-0.213,0.244,-1.312,0.732,73.333,689.000,1.000
4517.188,2677.693,-137353.874,-108649.224,-43232.566,4717.354,4243.037,3718.227,-0.191,0.939,-0.218,0.275,-1.343,0.732,73.333,690.000,1.000
4550.296,2713.501,-137059.425,-108334.796,-42672.390,4762.219,4283.998,3748.057,-0.192,0.940,-0.216,0.275,-1.251,0.702,73.333,691.000,1.000
4583.505,2749.157,-136763.287,-108018.939,-42113.458,4807.610,4324.768,3777.358,-0.192,0.939,-0.214,0.275,-1.251,0.732,73.333,692.000,1.000
4616.443,2784.257,-136466.041,-107702.176,-41555.838,4853.109,4364.785,3805.898,-0.192,0.939,-0.213,0.305,-1.190,0.793,73.333,693.000,1.000
4648.738,2818.786,-136168.136,-107385.040,-40999.595,4898.429,4404.010,3833.690,-0.192,0.939,-0.213,0.244,-1.129,0.732,73.333,694.000,1.000
4680.266,2852.959,-135869.501,-107067.886,-40444.475,4943.442,4442.756,3860.943,-0.192,0.942,-0.211,0.153,-1.129,0.732,73.333,695.000,1.000
4711.156,2886.854,-135569.550,-106750.888,-39889.738,4988.189,4481.295,3887.941,-0.192,0.941,-0.212,0.092,-0.977,0.732,73.333,696.000,1.000
4741.793,2920.572,-135267.341,-106433.725,-39334.459,5032.934,4519.856,3915.152,-0.192,0.941,-0.213,0.122,-0.946,0.732,73.333,697.000,1.000
4772.834,2954.655,-134962.390,-106115.941,-38778.132,5078.168,4558.806,3943.331,-0.193,0.941,-0.216,-0.031,-0.977,0.671,73.333,698.000,1.000
4804.879,2989.907,-134654.633,-105796.780,-38220.915,5124.399,4598.621,3973.179,-0.194,0.940,-0.215,-0.061,-0.946,0.702,73.333,699.000,1.000
4837.984,3026.702,-134344.634,-105476.037,-37663.827,5171.553,4639.315,4004.484,-0.196,0.941,-0.213,-0.122,-0.977,0.702,73.333,700.000,1.000
4871.627,3064.676,-134033.475,-105154.377,-37108.538,5218.820,4680.237,4036.133,-0.196,0.938,-0.215,-0.122,-1.099,0.702,73.333,701.000,1.000
4905.012,3102.825,-133722.004,-104832.653,-36556.485,5265.211,4720.557,4066.956,-0.196,0.937,-0.215,-0.183,-0.977,0.610,73.333,702.000,1.000
4937.243,3139.560,-133410.918,-104511.840,-36008.236,5309.835,4759.562,4096.057,-0.196,0.939,-0.215,-0.153,-1.007,0.610,73.333,703.000,1.000
4967.592,3173.237,-133100.505,-104192.242,-35463.419,5351.923,4796.725,4122.878,-0.196,0.937,-0.213,-0.214,-0.946,0.610,73.333,704.000,1.000
4995.848,3203.128,-132790.859,-103873.644,-34921.387,5391.022,4831.668,4147.246,-0.193,0.938,-0.211,-0.275,-0.916,0.610,73.333,705.000,1.000
5022.422,3229.964,-132481.916,-103555.504,-34381.732,5427.379,4864.360,4169.538,-0.195,0.939,-0.216,-0.336,-0.946,0.519,73.333,706.000,1.000
5048.124,3255.471,-132172.975,-103236.822,-33844.074,5461.929,4895.349,4190.532,-0.195,0.938,-0.214,-0.244,-0.885,0.702,73.333,707.000,1.000
5073.887,3281.398,-131863.189,-102916.871,-33307.753,5495.806,4925.612,4211.051,-0.195,0.936,-0.216,-0.183,-0.885,0.824,73.333,708.000,1.000
5100.588,3308.994,-131551.674,-102595.011,-32771.645,5530.320,4956.547,4232.232,-0.195,0.937,-0.219,-0.153,-0.854,0.793,73.333,709.000,1.000
5128.682,3338.827,-131237.913,-102271.046,-32234.648,5566.899,4989.560,4255.384,-0.193,0.937,-0.219,-0.153,-0.854,0.824,73.333,710.000,1.000
5157.835,3370.548,-130922.031,-101945.382,-31696.473,5606.217,5025.078,4280.996,-0.193,0.937,-0.217,-0.061,-0.824,0.916,73.333,711.000,1.000
5187.174,3403.040,-130604.361,-101618.475,-31157.829,5647.525,5062.112,4308.204,-0.193,0.935,-0.214,0.061,-0.824,0.977,73.333,712.000,1.000
5215.982,3435.168,-130285.301,-101290.811,-30619.879,5689.254,5099.074,4335.526,-0.194,0.934,-0.215,0.092,-0.824,0.977,73.333,713.000,1.000
5244.157,3466.496,-129964.689,-100962.330,-30083.379,5730.299,5135.091,4362.052,-0.192,0.936,-0.214,0.214,-0.824,1.068,73.333,714.000,1.000
5272.160,3497.351,-129642.006,-100632.783,-29548.473,5770.388,5170.319,4387.711,-0.194,0.936,-0.216,0.183,-0.732,1.007,73.333,715.000,1.000
5300.482,3528.272,-129316.807,-100302.068,-29014.954,5809.568,5205.273,4412.728,-0.196,0.936,-0.215,0.275,-0.702,1.007,73.333,716.000,1.000
5328.999,3559.338,-128988.957,-99970.322,-28482.676,5847.582,5239.983,4436.770,-0.198,0.935,-0.214,0.244,-0.702,1.007,73.333,717.000,1.000
5357.036,3590.089,-128659.249,-99638.483,-27951.933,5883.856,5273.777,4458.874,-0.199,0.934,-0.214,0.214,-0.732,0.977,73.333,718.000,1.000
5384.046,3620.078,-128328.621,-99307.291,-27423.107,5918.349,5306.194,4478.712,-0.198,0.935,-0.214,0.183,-0.763,1.007,73.333,719.000,1.000
5410.182,3649.380,-127997.370,-98976.718,-26896.030,5952.210,5337.815,4497.570,-0.194,0.935,-0.214,0.183,-0.885,0.946,73.333,720.000,1.000
5436.404,3678.791,-127664.852,-98645.738,-26369.579,5987.657,5370.295,4518.116,-0.192,0.937,-0.213,0.092,-0.916,0.946,73.333,721.000,1.000
5463.734,3709.285,-127329.801,-98312.724,-25842.236,6026.864,5405.402,4543.009,-0.191,0.937,-0.214,0.122,-0.763,1.129,73.333,722.000,1.000
5492.140,3740.951,-126991.922,-97977.362,-25313.623,6070.226,5443.422,4573.001,-0.188,0.937,-0.218,0.214,-0.824,1.282,73.333,723.000,1.000
5520.472,3772.838,-126651.990,-97640.738,-24784.893,6115.789,5482.687,4606.202,-0.188,0.938,-0.218,0.214,-0.824,1.404,73.333,724.000,1.000
5547.680,3803.970,-126310.958,-97304.333,-24257.504,6160.626,5520.777,4639.149,-0.188,0.941,-0.216,0.092,-0.702,1.648,73.333,725.000,1.000
5573.873,3834.308,-125969.137,-96968.697,-23732.046,6203.035,5556.336,4669.054,-0.188,0.944,-0.215,0.092,-0.580,1.770,73.333,726.000,1.000
5599.993,3864.615,-125626.239,-96633.154,-23208.439,6243.294,5589.648,4695.113,-0.189,0.945,-0.213,0.061,-0.458,1.953,73.333,727.000,1.000
5626.854,3895.693,-125282.356,-96297.078,-22686.681,6282.725,5621.816,4718.107,-0.190,0.944,-0.217,0.061,-0.458,2.014,73.333,728.000,1.000
5654.731,3927.984,-124937.461,-95960.315,-22166.629,6322.832,5654.137,4739.581,-0.191,0.943,-0.217,-0.122,-0.366,2.136,73.333,729.000,1.000
5683.449,3961.384,-124591.201,-95625.036,-21647.842,6364.580,5687.531,4760.904,-0.190,0.940,-0.216,-0.183,-0.427,2.106,73.333,730.000,1.000
5712.503,3995.132,-124243.342,-95296.385,-21129.997,6407.664,5721.887,4782.527,-0.189,0.936,-0.217,-0.244,-0.427,2.228,73.333,731.000,1.000
5741.207,4028.012,-123893.675,-94978.273,-20613.000,6450.490,5756.063,4803.993,-0.193,0.934,-0.219,-0.275,-0.305,2.167,73.333,732.000,1.000
5769.079,4059.091,-123542.169,-94668.717,-20096.886,6491.229,5788.796,4824.763,-0.193,0.932,-0.217,-0.092,-0.427,2.045,73.333,733.000,1.000
5796.045,4088.380,-123188.802,-94359.511,-19581.861,6529.097,5819.799,4845.052,-0.197,0.932,-0.215,-0.031,-0.458,1.923,73.333,734.000,1.000
5822.027,4116.480,-122834.095,-94041.434,-19068.650,6564.366,5849.615,4865.418,-0.198,0.935,-0.212,0.000,-0.549,1.801,73.333,735.000,1.000
5846.824,4143.945,-122478.970,-93708.994,-18558.050,6597.732,5878.950,4886.233,-0.198,0.937,-0.210,0.000,-0.702,1.434,73.333,736.000,1.000
5870.632,4171.245,-122123.492,-93361.913,-18049.812,6630.136,5908.528,4907.869,-0.200,0.938,-0.212,-0.061,-0.732,1.068,73.333,737.000,1.000
5894.233,4198.874,-121766.896,-93005.062,-17542.534,6662.576,5938.889,4930.618,-0.200,0.939,-0.212,-0.122,-0.793,0.854,73.333,738.000,1.000
5918.460,4227.102,-121408.128,-92645.452,-17034.648,6695.639,5970.048,4954.297,-0.199,0.941,-0.211,-0.275,-0.946,0.641,73.333,739.000,1.000
5943.441,4255.487,-121047.050,-92288.759,-16525.762,6729.013,6001.253,4977.906,-0.196,0.941,-0.215,-0.427,-1.068,0.549,73.333,740.000,1.000
5968.491,4283.051,-120684.862,-91936.993,-16017.048,6761.770,6031.449,5000.166,-0.194,0.943,-0.213,-0.427,-1.160,0.427,73.333,741.000,1.000
5992.966,4309.297,-120322.782,-91588.530,-15510.000,6793.428,6060.340,5020.740,-0.194,0.944,-0.213,-0.580,-1.282,0.244,73.333,742.000,1.000
6017.209,4335.036,-119961.073,-91240.974,-15004.899,6824.694,6088.882,5040.667,-0.192,0.943,-0.214,-0.549,-1.221,0.153,73.333,743.000,1.000
6042.234,4361.826,-119598.913,-90892.936,-14500.805,6856.984,6118.530,5061.422,-0.191,0.943,-0.214,-0.580,-1.251,0.092,73.333,744.000,1.000
6068.446,4390.447,-119235.867,-90544.557,-13997.227,6891.014,6149.699,5083.294,-0.190,0.941,-0.213,-0.732,-1.251,0.153,73.333,745.000,1.000
6095.271,4420.451,-118872.401,-90196.359,-13494.710,6926.322,6181.482,5105.277,-0.191,0.942,-0.216,-0.763,-1.221,0.092,73.333,746.000,1.000
6121.798,4450.876,-118508.669,-89848.077,-12993.726,6961.995,6212.868,5126.400,-0.187,0.941,-0.216,-0.732,-1.129,0.153,73.333,747.000,1.000
6147.190,4480.820,-118144.448,-89499.742,-12494.147,6997.366,6243.570,5146.522,-0.190,0.941,-0.214,-0.732,-1.007,0.275,73.333,748.000,1.000
6170.942,4509.679,-117779.263,-89151.826,-11995.605,7032.353,6273.921,5166.272,-0.191,0.938,-0.211,-0.824,-0.854,0.275,73.333,749.000,1.000
6193.211,4537.270,-117412.745,-88804.734,-11497.973,7067.223,6304.241,5186.503,-0.190,0.939,-0.212,-0.824,-0.885,0.488,73.333,750.000,1.000
6214.803,4563.898,-117044.725,-88457.987,-11001.367,7102.337,6334.694,5207.941,-0.191,0.937,-0.213,-0.763,-0.763,0.732,73.333,751.000,1.000
6236.490,4590.087,-116675.104,-88110.391,-10506.101,7137.988,6365.408,5230.810,-0.194,0.937,-0.213,-0.702,-0.763,0.885,73.333,752.000,1.000
6258.311,4616.008,-116304.473,-87761.908,-10012.858,7173.873,6396.105,5254.291,-0.193,0.938,-0.211,-0.702,-0.763,1.007,73.333,753.000,1.000
6279.799,4641.475,-115933.423,-87413.366,-9522.086,7209.128,6426.233,5276.981,-0.195,0.937,-0.209,-0.824,-0.702,1.190,73.333,754.000,1.000
6300.686,4666.352,-115561.996,-87065.403,-9033.445,7243.031,6455.498,5297.800,-0.197,0.937,-0.210,-0.702,-0.763,1.190,73.333,755.000,1.000
6321.183,4690.845,-115189.735,-86717.787,-8546.017,7275.559,6484.112,5316.546,-0.195,0.937,-0.212,-0.732,-0.763,1.129,73.333,756.000,1.000
6341.813,4715.465,-114815.781,-86369.504,-8058.868,7307.404,6512.706,5334.003,-0.195,0.937,-0.210,-0.793,-0.763,1.068,73.333,757.000,1.000
6363.069,4740.658,-114439.827,-86020.247,-7571.708,7339.397,6541.824,5351.503,-0.196,0.934,-0.209,-0.793,-0.885,1.129,73.333,758.000,1.000
6385.089,4766.449,-114062.233,-85670.415,-7084.915,7371.870,6571.519,5370.255,-0.195,0.935,-0.210,-0.702,-0.946,1.099,73.333,759.000,1.000
6407.492,4792.417,-113683.877,-85320.781,-6599.079,7404.538,6601.276,5390.595,-0.195,0.933,-0.210,-0.702,-1.007,1.038,73.333,760.000,1.000
6429.624,4818.111,-113305.681,-84971.916,-6114.439,7437.039,6630.443,5411.913,-0.194,0.933,-0.211,-0.793,-0.977,1.068,73.333,761.000,1.000
6451.013,4843.331,-112927.956,-84623.709,-5630.739,7469.255,6658.659,5433.201,-0.194,0.934,-0.209,-0.916,-0.977,1.068,73.333,762.000,1.000
6471.598,4868.009,-112550.902,-84276.205,-5147.830,7501.061,6685.812,5453.550,-0.194,0.936,-0.208,-0.824,-1.007,1.129,73.333,763.000,1.000
6491.655,4892.208,-112174.397,-83929.296,-4665.918,7532.357,6712.128,5472.697,-0.195,0.936,-0.208,-0.763,-0.946,1.099,73.333,764.000,1.000
6511.686,4916.289,-111797.774,-83582.524,-4185.232,7563.283,6738.214,5491.190,-0.193,0.936,-0.211,-0.671,-1.099,1.099,73.333,765.000,1.000
6532.413,4940.935,-111419.959,-83235.062,-3705.673,7594.194,6764.860,5510.102,-0.193,0.935,-0.209,-0.671,-1.160,1.099,73.333,766.000,1.000
6554.432,4966.664,-111039.922,-82886.019,-3227.063,7625.164,6792.447,5530.226,-0.192,0.935,-0.208,-0.732,-1.099,1.190,73.333,767.000,1.000
6577.510,4993.122,-110658.046,-82535.885,-2749.965,7655.385,6820.186,5551.114,-0.193,0.936,-0.206,-0.732,-1.038,1.190,73.333,768.000,1.000
6600.586,5019.211,-110275.815,-82186.049,-2275.550,7683.752,6846.599,5571.412,-0.192,0.934,-0.207,-0.763,-1.038,1.160,73.333,769.000,1.000
6622.743,5044.124,-109894.450,-81837.559,-1804.417,7710.286,6870.990,5590.107,-0.190,0.936,-0.207,-0.793,-1.007,1.190,73.333,770.000,1.000
6644.020,5068.085,-109513.899,-81490.193,-1335.757,7736.631,6894.178,5607.359,-0.191,0.937,-0.210,-0.763,-1.007,1.373,73.333,771.000,1.000
6665.106,5091.953,-109132.919,-81142.585,-867.911,7764.867,6917.668,5624.092,-0.194,0.936,-0.210,-0.763,-1.038,1.312,73.333,772.000,1.000
6686.534,5116.347,-108750.503,-80793.667,-399.729,7795.980,6942.367,5641.022,-0.195,0.939,-0.212,-0.732,-1.038,1.373,73.333,773.000,1.000
6708.282,5141.256,-108366.227,-80442.775,68.904,7829.552,6968.332,5658.362,-0.194,0.940,-0.210,-0.763,-1.007,1.373,73.333,774.000,1.000
6729.730,5166.057,-107980.518,-80090.131,537.068,7864.045,6994.922,5675.770,-0.194,0.938,-0.207,-0.793,-1.038,1.343,73.333,775.000,1.000
6749.924,5189.928,-107594.660,-79737.040,1003.120,7897.334,7021.021,5692.480,-0.192,0.939,-0.209,-0.885,-0.977,1.221,73.333,776.000,1.000
6768.338,5212.606,-107209.464,-79384.634,1465.775,7927.972,7045.905,5708.044,-0.191,0.940,-0.210,-0.793,-0.977,1.312,73.333,777.000,1.000
6785.540,5234.811,-106824.595,-79033.184,1925.121,7956.284,7069.952,5722.966,-0.192,0.939,-0.210,-0.732,-1.038,1.282,73.333,778.000,1.000
6802.865,5257.767,-106438.605,-78681.682,2382.612,7984.054,7094.355,5738.526,-0.192,0.938,-0.208,-0.824,-0.977,1.373,73.333,779.000,1.000
6821.403,5282.223,-106050.209,-78329.006,2839.871,8013.000,7120.021,5755.716,-0.191,0.940,-0.213,-0.824,-0.946,1.434,73.333,780.000,1.000
6841.252,5307.767,-105659.432,-77975.103,3297.465,8043.514,7146.717,5774.349,-0.190,0.939,-0.213,-0.763,-1.007,1.556,73.333,781.000,1.000
6861.465,5332.826,-105267.442,-77620.946,3754.588,8074.564,7172.999,5792.885,-0.192,0.939,-0.211,-0.763,-0.946,1.587,73.333,782.000,1.000
6880.904,5355.692,-104875.888,-77268.032,4209.811,8104.725,7197.172,5809.444,-0.191,0.938,-0.208,-0.763,-0.854,1.495,73.333,783.000,1.000
6899.434,5376.079,-104485.251,-76916.570,4662.473,8133.620,7218.936,5823.726,-0.191,0.938,-0.210,-0.824,-0.824,1.465,73.333,784.000,1.000
6918.011,5395.432,-104094.650,-76565.416,5113.022,8162.020,7239.673,5837.346,-0.192,0.938,-0.212,-0.702,-0.916,1.526,73.333,785.000,1.000
6937.724,5415.692,-103702.789,-76213.135,5562.432,8190.794,7261.209,5852.246,-0.194,0.939,-0.211,-0.641,-0.854,1.495,73.333,786.000,1.000
6958.973,5437.876,-103308.452,-75858.575,6011.709,8220.087,7284.605,5869.174,-0.192,0.941,-0.210,-0.580,-0.916,1.404,73.333,787.000,1.000
6981.378,5461.589,-102911.380,-75501.845,6461.241,8249.192,7309.572,5887.423,-0.194,0.939,-0.211,-0.641,-1.007,1.373,73.333,788.000,1.000
7004.287,5485.764,-102512.105,-75143.713,6910.655,8277.308,7334.992,5905.937,-0.194,0.939,-0.209,-0.610,-1.038,1.251,73.333,789.000,1.000
7027.142,5509.570,-102111.659,-74785.120,7359.202,8304.307,7359.861,5924.216,-0.194,0.938,-0.211,-0.641,-1.099,1.160,73.333,790.000,1.000
7049.369,5532.555,-101711.384,-74427.048,7806.115,8330.693,7383.832,5942.248,-0.193,0.939,-0.211,-0.671,-1.221,1.099,73.333,791.000,1.000
7070.401,5554.560,-101312.087,-74069.994,8250.942,8357.077,7407.227,5960.022,-0.193,0.938,-0.212,-0.580,-1.160,1.068,73.333,792.000,1.000
7090.236,5575.927,-100913.792,-73714.060,8693.699,8383.749,7430.592,5977.211,-0.191,0.942,-0.212,-0.519,-1.099,1.007,73.333,793.000,1.000
7109.662,5597.486,-100515.593,-73358.606,9134.731,8410.665,7454.296,5993.296,-0.189,0.944,-0.209,-0.427,-1.129,0.946,73.333,794.000,1.000
7129.553,5619.935,-100116.524,-73003.084,9574.113,8437.532,7478.164,6007.699,-0.191,0.943,-0.209,-0.458,-1.129,0.946,73.333,795.000,1.000
7150.096,5643.359,-99716.227,-72647.595,10011.548,8464.106,7501.603,6020.150,-0.191,0.944,-0.211,-0.336,-1.190,0.854,73.333,796.000,1.000
7170.811,5667.384,-99314.546,-72292.194,10447.074,8490.499,7524.179,6031.110,-0.190,0.943,-0.210,-0.397,-1.099,0.916,73.333,797.000,1.000
7191.004,5691.533,-98911.679,-71936.953,10881.299,8516.935,7545.923,6041.702,-0.189,0.943,-0.210,-0.488,-1.160,1.038,73.333,798.000,1.000
7210.168,5715.401,-98507.751,-71581.566,11315.213,8543.398,7567.409,6053.446,-0.189,0.939,-0.210,-0.366,-1.099,1.007,73.333,799.000,1.000
7228.230,5738.569,-98102.635,-71225.692,11749.745,8569.587,7589.318,6067.548,-0.189,0.936,-0.209,-0.336,-1.068,1.068,73.333,800.000,1.000
7245.650,5760.710,-97696.183,-70869.174,12185.241,8595.330,7611.968,6084.371,-0.190,0.934,-0.210,-0.336,-0.916,1.160,73.333,801.000,1.000
7263.116,5781.888,-97288.337,-70511.648,12621.009,8620.990,7635.269,6103.518,-0.192,0.933,-0.210,-0.122,-0.824,1.099,73.333,802.000,1.000
7280.911,5802.502,-96879.749,-70153.201,13055.228,8647.217,7658.651,6123.805,-0.195,0.936,-0.209,0.000,-0.946,1.007,73.333,803.000,1.000
7298.736,5823.035,-96471.099,-69793.981,13486.217,8674.469,7681.386,6143.659,-0.196,0.934,-0.212,0.183,-0.946,0.977,73.333,804.000,1.000
7316.199,5843.961,-96062.434,-69433.954,13913.793,8702.721,7703.176,6161.984,-0.198,0.937,-0.212,0.214,-1.038,0.824,73.333,805.000,1.000
7333.175,5865.559,-95653.393,-69073.122,14339.113,8731.511,7724.326,6178.692,-0.196,0.936,-0.210,0.244,-1.099,0.671,73.333,806.000,1.000
7349.712,5887.603,-95243.534,-68711.604,14763.523,8760.274,7745.441,6194.382,-0.196,0.935,-0.212,0.336,-1.068,0.580,73.333,807.000,1.000
7365.937,5909.323,-94833.098,-68350.214,15187.559,8788.550,7766.900,6209.492,-0.197,0.935,-0.210,0.366,-1.129,0.427,73.333,808.000,1.000
7381.883,5929.687,-94422.853,-67989.934,15610.832,8815.994,7788.441,6223.787,-0.198,0.936,-0.210,0.488,-1.221,0.427,73.333,809.000,1.000
7397.309,5947.814,-94013.758,-67631.737,16032.457,8842.164,7809.100,6236.433,-0.200,0.935,-0.210,0.519,-1.221,0.275,73.333,810.000,1.000
7412.029,5963.602,-93606.333,-67276.015,16451.744,8866.601,7827.975,6246.969,-0.198,0.937,-0.210,0.580,-1.251,0.031,73.333,811.000,1.000
7426.216,5977.954,-93200.007,-66921.834,16868.591,8889.178,7845.038,6256.058,-0.197,0.938,-0.210,0.702,-1.373,-0.031,73.333,812.000,1.000
7440.314,5992.286,-92793.718,-66567.751,17283.461,8910.394,7861.203,6265.177,-0.195,0.938,-0.211,0.732,-1.434,0.122,73.333,813.000,1.000
7455.036,6008.146,-92385.895,-66211.976,17697.562,8931.607,7878.181,6276.128,-0.194,0.939,-0.208,0.763,-1.373,0.122,73.333,814.000,1.000
7471.043,6026.700,-91975.146,-65853.447,18112.240,8954.223,7897.543,6290.050,-0.195,0.939,-0.212,0.732,-1.343,0.092,73.333,815.000,1.000
7488.221,6047.972,-91561.485,-65492.895,18527.786,8978.414,7919.430,6306.392,-0.195,0.942,-0.211,0.763,-1.343,0.122,73.333,816.000,1.000
7505.691,6070.939,-91146.059,-65131.967,18943.334,9003.176,7942.579,6323.358,-0.194,0.941,-0.208,0.671,-1.373,0.305,73.333,817.000,1.000
