EEG 1,EEG 2,EEG 3,EEG 4,EEG 5,EEG 6,EEG 7,EEG 8,Accelerometer X,Accelerometer Y,Accelerometer Z,Gyroscope X,Gyroscope Y,Gyroscope Z,Battery Level,Counter,Validation Indicator
4500.461,517.655,-11754.487,-9259.752,-26761.236,6655.467,-89.547,-256.696,-0.045,0.974,0.199,0.000,0.000,0.000,80.000,1.000,1.000
36492.767,2154.687,-19534.515,-57638.986,-23222.760,38588.993,-12003.516,-731.208,-0.051,0.983,0.189,0.000,0.000,0.000,80.000,2.000,1.000
123821.855,2604.401,-43641.022,-189824.406,-13648.676,123788.130,-41770.521,2661.892,-0.053,0.982,0.188,0.000,0.000,0.000,80.000,3.000,1.000
270799.031,3472.641,-88419.152,-406338.905,2435.033,258142.349,-83894.533,23660.644,-0.052,0.985,0.187,0.000,0.000,0.000,80.000,4.000,1.000
445254.856,24333.898,-142082.183,-629645.375,21522.492,394710.534,-116901.938,78052.189,-0.053,0.987,0.189,0.000,0.000,0.000,80.000,5.000,1.000
599700.659,94711.629,-176772.345,-736158.674,38427.645,478169.126,-115572.192,163678.606,-0.052,0.989,0.188,-3.815,2.838,-3.906,80.000,6.000,1.000
696373.603,223789.259,-163527.182,-637328.025,49020.533,486166.775,-62723.832,256027.986,-0.051,0.991,0.186,-4.456,-1.221,-2.625,80.000,7.000,1.000
721819.027,386953.084,-91500.388,-344175.168,51831.684,441142.094,43921.271,330074.825,-0.053,0.990,0.189,-3.326,-3.571,-1.190,80.000,8.000,1.000
691526.785,540942.155,24360.163,37632.575,48561.259,390907.227,186580.793,380828.376,-0.053,0.990,0.189,-2.899,-4.547,-0.458,80.000,9.000,1.000
640591.095,646345.353,151638.442,370168.279,43048.216,378411.675,331072.487,420954.147,-0.053,0.992,0.189,-2.563,-5.066,-0.244,80.000,10.000,1.000
600999.433,684243.602,258078.963,558138.217,38897.563,420022.514,446582.874,465397.439,-0.054,0.991,0.186,-2.441,-5.310,-0.061,80.000,11.000,1.000
580006.949,663694.199,328145.796,593726.542,37456.639,498657.711,523403.952,520222.249,-0.053,0.989,0.188,-2.441,-5.524,-0.061,80.000,12.000,1.000
559218.727,613737.531,367104.589,543208.788,37810.017,576179.507,568438.609,578858.217,-0.051,0.991,0.184,-2.380,-5.524,0.000,80.000,13.000,1.000
516019.696,561182.416,390225.341,488281.721,38470.058,622183.183,591979.858,623919.310,-0.052,0.990,0.183,-2.319,-5.676,0.031,80.000,14.000,1.000
444285.758,512637.693,408627.493,470702.263,38813.544,634353.113,602598.094,636073.289,-0.053,0.989,0.184,-2.350,-5.798,0.031,80.000,15.000,1.000
355213.819,457668.114,423618.629,481872.372,39002.365,629210.276,606179.126,606604.539,-0.051,0.988,0.184,-2.319,-5.859,0.092,80.000,16.000,1.000
264968.049,387150.082,431109.912,495475.864,39090.076,617181.352,605671.241,543253.123,-0.049,0.991,0.187,-2.319,-5.890,0.000,80.000,17.000,1.000
185968.614,306585.722,429560.602,501286.194,38738.972,593329.915,602689.927,463206.766,-0.052,0.991,0.184,-2.289,-5.981,-0.061,80.000,18.000,1.000
126387.206,232517.413,423058.982,506371.838,37794.114,551470.394,598860.973,381209.009,-0.049,0.994,0.182,-2.319,-6.012,-0.183,80.000,19.000,1.000
90751.909,178487.534,417238.922,514383.405,36703.312,498222.423,595370.144,305933.695,-0.049,0.994,0.184,-2.350,-5.920,-0.183,80.000,20.000,1.000
77495.199,146230.043,413987.924,516598.220,36089.630,447707.848,591937.297,244823.076,-0.048,0.993,0.182,-2.380,-5.951,-0.122,80.000,21.000,1.000
77808.985,129208.680,411311.181,505240.610,36038.922,406945.994,586599.471,205628.199,-0.047,0.997,0.185,-2.411,-5.981,-0.092,80.000,22.000,1.000
80235.812,120907.753,407484.894,487035.783,36054.319,372302.840,576638.105,189787.523,-0.047,0.999,0.185,-2.502,-5.890,0.000,80.000,23.000,1.000
77812.253,117723.300,403567.011,476691.616,35703.156,339066.764,560079.320,187411.951,-0.045,1.000,0.183,-2.563,-5.951,0.122,80.000,24.000,1.000
70720.805,116252.654,401444.600,479300.583,35090.968,309043.039,536553.167,183594.013,-0.045,0.998,0.184,-2.625,-5.829,0.275,80.000,25.000,1.000
62540.174,111983.717,400807.849,485316.782,34609.212,286611.859,507141.682,170664.819,-0.045,0.999,0.184,-2.625,-5.829,0.366,80.000,26.000,1.000
55277.786,102346.399,399375.809,483688.365,34384.792,270755.161,474105.321,152474.389,-0.042,0.996,0.183,-2.655,-5.829,0.488,80.000,27.000,1.000
48474.604,89515.997,395849.363,474943.681,34167.930,255014.300,440698.201,136633.480,-0.041,0.995,0.184,-2.472,-5.646,0.519,80.000,28.000,1.000
41682.959,78300.723,391471.051,468135.706,33725.111,235126.699,410247.359,125212.280,-0.041,0.993,0.184,-2.502,-5.493,0.610,80.000,29.000,1.000
35893.732,71227.899,388271.313,467897.091,33150.481,213644.142,384534.941,114606.092,-0.044,0.992,0.184,-2.350,-5.524,0.671,80.000,30.000,1.000
32128.043,66664.771,386544.392,469327.303,32705.680,195791.849,362946.368,102382.381,-0.043,0.990,0.183,-2.258,-5.310,0.702,80.000,31.000,1.000
29732.790,61702.923,384790.689,465864.687,32463.898,182768.102,343449.769,90836.548,-0.046,0.990,0.185,-2.258,-5.280,0.885,80.000,32.000,1.000
26974.950,55655.837,381855.066,458085.460,32242.854,171116.697,324506.181,83179.935,-0.045,0.988,0.184,-2.136,-5.249,0.854,80.000,33.000,1.000
23029.816,50026.773,378288.617,452076.258,31867.820,157871.032,305999.223,78652.412,-0.047,0.988,0.183,-1.984,-5.219,0.916,80.000,34.000,1.000
18675.923,45847.150,375371.927,451016.954,31381.899,144019.990,288523.173,73398.214,-0.049,0.988,0.184,-1.831,-5.188,0.916,80.000,35.000,1.000
15037.139,42278.610,373389.239,451631.003,30952.433,132314.195,272238.192,65408.911,-0.050,0.987,0.187,-1.740,-5.249,0.885,80.000,36.000,1.000
12260.621,37976.263,371419.184,449180.973,30645.639,123298.254,256707.306,56671.411,-0.052,0.988,0.188,-1.770,-5.249,0.854,80.000,37.000,1.000
9694.486,32929.045,368656.340,443420.996,30370.063,114924.108,241644.508,50124.224,-0.054,0.989,0.186,-1.740,-5.402,0.763,80.000,38.000,1.000
6923.416,28327.559,365382.927,438059.655,30020.406,105509.508,227374.465,45963.741,-0.052,0.990,0.184,-1.587,-5.554,0.702,80.000,39.000,1.000
4158.868,24955.577,362459.100,435601.274,29603.763,95651.176,214375.857,41960.443,-0.051,0.992,0.184,-1.495,-5.646,0.641,80.000,40.000,1.000
1729.346,22342.258,360203.634,434660.703,29203.672,86955.366,202580.127,36651.907,-0.050,0.994,0.186,-1.434,-5.829,0.549,80.000,41.000,1.000
-379.965,19536.037,358113.622,432402.363,28866.490,79880.282,191379.478,30926.097,-0.049,0.995,0.187,-1.404,-5.951,0.549,80.000,42.000,1.000
-2382.385,16239.418,355597.012,428107.049,28561.275,73500.569,180309.130,26387.391,-0.049,0.997,0.186,-1.404,-6.073,0.549,80.000,43.000,1.000
-4374.589,12931.915,352666.980,423503.288,28234.529,66914.781,169507.512,23202.583,-0.049,1.000,0.187,-1.526,-6.226,0.458,80.000,44.000,1.000
-6335.622,10130.718,349810.775,420300.748,27869.549,60149.898,159415.169,20179.264,-0.050,1.000,0.186,-1.617,-6.317,0.427,80.000,45.000,1.000
-8264.765,7841.147,347355.387,418365.857,27490.140,53737.685,150161.606,16463.179,-0.052,0.999,0.187,-1.831,-6.439,0.275,80.000,46.000,1.000
-10131.228,5693.549,345138.583,416288.237,27129.158,47985.831,141417.999,12423.490,-0.050,0.996,0.188,-1.892,-6.531,0.153,80.000,47.000,1.000
-11790.625,3387.807,342772.857,413073.519,26801.131,42837.905,132831.588,8900.165,-0.051,0.993,0.190,-1.892,-6.683,0.153,80.000,48.000,1.000
-13157.563,940.629,340096.869,409023.531,26491.731,38065.514,124433.426,6150.795,-0.052,0.991,0.189,-1.923,-6.805,0.183,80.000,49.000,1.000
-14422.832,-1381.823,337313.417,405249.655,26167.635,33365.486,116524.537,3763.729,-0.053,0.985,0.187,-1.923,-6.989,0.061,80.000,50.000,1.000
-15880.630,-3320.897,334732.579,402531.006,25808.419,28521.212,109243.388,1274.582,-0.053,0.983,0.189,-1.892,-7.141,0.061,80.000,51.000,1.000
-17502.156,-4891.792,332432.271,400537.161,25434.921,23713.219,102382.302,-1421.840,-0.050,0.984,0.183,-1.740,-7.263,0.031,80.000,52.000,1.000
-18899.115,-6419.643,330183.894,398123.411,25092.565,19471.289,95649.332,-4126.119,-0.048,0.982,0.185,-1.526,-7.446,0.031,80.000,53.000,1.000
-19843.020,-8217.542,327710.370,394557.245,24795.580,16022.399,89006.530,-6548.996,-0.049,0.980,0.182,-1.434,-7.538,0.000,80.000,54.000,1.000
-20641.094,-10192.666,325004.524,390435.117,24501.224,12826.430,82668.432,-8519.553,-0.048,0.980,0.185,-1.312,-7.629,0.061,80.000,55.000,1.000
-21765.489,-11898.820,322349.561,386993.533,24159.384,9142.371,76798.389,-10178.105,-0.048,0.982,0.183,-1.160,-7.843,0.122,80.000,56.000,1.000
-23187.135,-13082.004,319989.721,384296.315,23781.327,5051.193,71298.701,-11935.822,-0.046,0.982,0.186,-0.916,-7.935,0.122,80.000,57.000,1.000
-24370.166,-14058.398,317821.805,380565.412,23431.633,1472.575,65936.355,-14045.566,-0.049,0.982,0.184,-0.854,-8.057,0.092,80.000,58.000,1.000
-25002.589,-15358.762,315502.849,373905.468,23143.805,-1049.716,60619.360,-16214.726,-0.050,0.983,0.186,-0.610,-8.118,0.183,80.000,59.000,1.000
-25461.509,-17027.645,312877.889,364544.921,22870.796,-3187.609,55480.089,-17879.589,-0.050,0.986,0.186,-0.519,-8.179,0.092,80.000,60.000,1.000
-26322.368,-18522.211,310194.878,354711.692,22544.254,-6012.337,50682.593,-18950.196,-0.052,0.986,0.184,-0.458,-8.270,0.092,80.000,61.000,1.000
-27559.404,-19419.096,307801.188,346151.651,22167.993,-9523.710,46207.755,-20032.080,-0.052,0.987,0.184,-0.458,-8.392,0.031,80.000,62.000,1.000
-28562.202,-20011.808,305687.511,338393.527,21816.566,-12582.841,41876.167,-21683.022,-0.052,0.990,0.188,-0.458,-8.484,0.031,80.000,63.000,1.000
-28976.377,-20952.843,303483.425,329951.120,21535.345,-14453.105,37564.213,-23625.601,-0.052,0.990,0.188,-0.580,-8.728,-0.153,80.000,64.000,1.000
-29206.724,-22375.945,300938.415,320765.051,21276.895,-15859.506,33341.877,-25051.854,-0.055,0.989,0.185,-0.610,-8.820,-0.061,80.000,65.000,1.000
-29869.079,-23693.709,298262.101,312494.641,20963.683,-18044.009,29367.600,-25714.984,-0.055,0.990,0.186,-0.519,-8.911,-0.092,80.000,66.000,1.000
-30940.649,-24382.822,295855.781,306227.730,20593.967,-21061.687,25679.673,-26324.846,-0.051,0.991,0.186,-0.641,-9.094,-0.122,80.000,67.000,1.000
-31790.126,-24705.254,293777.057,300803.723,20245.279,-23681.028,22145.104,-27624.316,-0.049,0.988,0.186,-0.702,-9.338,-0.031,80.000,68.000,1.000
-32050.001,-25367.351,291656.255,294187.444,19968.979,-25071.287,18622.143,-29361.226,-0.048,0.988,0.188,-0.854,-9.430,0.000,80.000,69.000,1.000
-32121.866,-26563.276,289188.775,286136.193,19719.976,-25960.984,15129.044,-30596.867,-0.048,0.987,0.188,-0.854,-9.491,0.122,80.000,70.000,1.000
-32619.198,-27709.715,286545.614,278524.635,19418.391,-27652.679,11807.639,-30983.613,-0.047,0.989,0.185,-0.824,-9.521,0.153,80.000,71.000,1.000
-33526.296,-28241.867,284144.525,272831.997,19058.572,-30241.397,8732.985,-31264.105,-0.046,0.988,0.186,-0.793,-9.552,0.244,80.000,72.000,1.000
-34234.009,-28384.023,282087.497,268177.166,18715.985,-32493.985,5813.387,-32273.339,-0.044,0.987,0.185,-0.824,-9.583,0.397,80.000,73.000,1.000
-34387.200,-28841.744,280025.382,262552.341,18443.544,-33551.417,2904.499,-33796.042,-0.045,0.989,0.188,-0.702,-9.583,0.366,80.000,74.000,1.000
-34364.654,-29841.880,277624.705,255552.224,18198.642,-34100.458,-10.911,-34857.527,-0.046,0.991,0.188,-0.732,-9.583,0.397,80.000,75.000,1.000
-34744.620,-30835.587,274976.467,248876.659,17881.564,-35416.222,-2809.675,-35060.919,-0.047,0.990,0.185,-0.732,-9.491,0.427,80.000,76.000,1.000
-35513.993,-31257.901,272371.851,243968.983,17396.351,-37620.279,-5395.465,-35132.131,-0.047,0.990,0.186,-0.702,-9.491,0.519,80.000,77.000,1.000
-36106.657,-31292.119,269771.731,240054.878,16649.805,-39547.674,-7827.062,-35923.069,-0.044,0.989,0.188,-0.671,-9.430,0.610,80.000,78.000,1.000
-36190.596,-31602.834,266733.441,235229.549,15534.684,-40365.902,-10243.417,-37249.874,-0.044,0.987,0.186,-0.549,-9.430,0.763,80.000,79.000,1.000
-36107.021,-32425.919,262928.842,229048.519,13965.243,-40693.924,-12685.459,-38158.019,-0.048,0.986,0.188,-0.488,-9.430,0.793,80.000,80.000,1.000
-36381.319,-33265.803,258589.144,223074.825,11963.200,-41717.621,-15049.440,-38233.827,-0.048,0.984,0.186,-0.366,-9.399,0.641,80.000,81.000,1.000
-37008.217,-33589.543,254300.784,218706.383,9714.453,-43570.300,-17230.521,-38155.842,-0.046,0.985,0.189,-0.336,-9.399,0.641,80.000,82.000,1.000
-37487.284,-33546.585,250405.879,215302.865,7498.871,-45199.030,-19265.052,-38752.050,-0.048,0.984,0.188,-0.183,-9.491,0.549,80.000,83.000,1.000
-37523.324,-33743.302,246748.496,211117.917,5518.098,-45838.592,-21285.898,-39881.749,-0.048,0.985,0.186,-0.061,-9.521,0.610,80.000,84.000,1.000
-37412.300,-34412.594,243032.471,205675.864,3784.824,-46031.597,-23351.292,-40660.956,-0.049,0.985,0.186,0.031,-9.491,0.488,80.000,85.000,1.000
-37611.120,-35120.951,239267.306,200340.676,2185.133,-46839.873,-25374.882,-40682.913,-0.052,0.983,0.185,0.183,-9.430,0.336,80.000,86.000,1.000
-38116.535,-35381.535,235720.282,196398.734,630.576,-48396.430,-27246.370,-40548.220,-0.050,0.985,0.186,0.366,-9.521,0.305,80.000,87.000,1.000
-38498.543,-35307.540,232497.243,193343.177,-873.882,-49778.836,-28978.976,-41014.971,-0.048,0.989,0.185,0.488,-9.552,0.214,80.000,88.000,1.000
-38503.348,-35429.750,229362.174,189640.338,-2295.139,-50304.584,-30690.630,-41973.333,-0.048,0.991,0.187,0.580,-9.552,0.122,80.000,89.000,1.000
-38381.438,-35966.786,226041.923,184824.738,-3651.864,-50430.425,-32447.954,-42633.267,-0.046,0.994,0.185,0.458,-9.521,0.000,80.000,90.000,1.000
-38520.176,-36553.484,222586.070,180051.416,-4996.199,-51074.412,-34183.223,-42617.028,-0.043,0.996,0.185,0.458,-9.399,-0.031,80.000,91.000,1.000
-38919.024,-36762.235,219291.470,176459.999,-6335.387,-52363.614,-35790.640,-42443.757,-0.042,0.995,0.185,0.305,-9.277,0.061,80.000,92.000,1.000
-39218.601,-36674.110,216305.944,173661.280,-7613.035,-53516.983,-37268.005,-42787.034,-0.040,0.995,0.185,0.092,-9.125,0.092,80.000,93.000,1.000
-39204.830,-36737.733,213448.853,170347.957,-8779.569,-53946.593,-38716.996,-43567.849,-0.037,0.993,0.184,0.122,-8.881,0.183,80.000,94.000,1.000
-39081.645,-37150.886,210470.706,166082.984,-9855.492,-54026.336,-40207.207,-44105.738,-0.037,0.993,0.183,0.061,-8.728,0.366,80.000,95.000,1.000
-39168.308,-37618.590,207381.337,161812.196,-10903.372,-54528.512,-41689.367,-44064.423,-0.040,0.991,0.184,-0.061,-8.453,0.427,80.000,96.000,1.000
-39468.898,-37780.833,204411.350,158512.109,-11949.550,-55573.540,-43068.968,-43879.935,-0.043,0.991,0.186,-0.061,-8.301,0.427,80.000,97.000,1.000
-39694.948,-37694.126,201686.002,155897.286,-12959.854,-56523.231,-44335.213,-44132.643,-0.045,0.991,0.187,-0.214,-8.240,0.549,80.000,98.000,1.000
-39672.300,-37725.807,199063.777,152888.784,-13894.891,-56886.380,-45573.649,-44769.531,-0.048,0.991,0.185,-0.214,-8.057,0.580,80.000,99.000,1.000
-39560.006,-38045.579,196340.412,149094.065,-14764.699,-56955.217,-46850.013,-45219.000,-0.048,0.990,0.184,-0.061,-7.935,0.458,80.000,100.000,1.000
-39609.994,-38418.111,193520.987,145265.120,-15611.908,-57354.032,-48125.430,-45183.273,-0.047,0.990,0.188,-0.122,-7.874,0.580,80.000,101.000,1.000
-39827.378,-38545.596,190795.778,142213.988,-16453.457,-58189.266,-49313.726,-45009.511,-0.047,0.987,0.189,-0.092,-7.751,0.549,80.000,102.000,1.000
-39988.338,-38463.416,188274.614,139740.843,-17262.199,-58957.379,-50398.378,-45181.110,-0.046,0.987,0.186,-0.153,-7.721,0.427,80.000,103.000,1.000
-39957.025,-38464.934,185848.040,136979.541,-18008.676,-59264.184,-51452.950,-45671.455,-0.045,0.985,0.186,-0.122,-7.599,0.427,80.000,104.000,1.000
-39854.639,-38695.554,183346.894,133586.772,-18701.844,-59332.415,-52541.789,-46022.941,-0.042,0.985,0.186,-0.061,-7.446,0.458,80.000,105.000,1.000
-39874.642,-38978.400,180765.761,130139.317,-19375.520,-59651.274,-53638.669,-45986.907,-0.044,0.984,0.185,0.000,-7.263,0.519,80.000,106.000,1.000
-40023.670,-39077.295,178252.947,127293.499,-20043.887,-60312.092,-54669.014,-45833.182,-0.045,0.985,0.185,0.183,-7.141,0.549,80.000,107.000,1.000
-40134.571,-39010.600,175901.610,124922.883,-20687.257,-60931.735,-55612.032,-45950.212,-0.045,0.985,0.186,0.336,-6.927,0.519,80.000,108.000,1.000
-40103.265,-39001.243,173632.627,122358.568,-21283.201,-61202.868,-56525.371,-46325.244,-0.043,0.991,0.185,0.458,-6.805,0.580,80.000,109.000,1.000
-40014.592,-39164.907,171312.591,119312.070,-21837.249,-61283.935,-57463.687,-46596.774,-0.041,0.994,0.185,0.519,-6.653,0.549,80.000,110.000,1.000
-40008.279,-39370.898,168930.311,116208.145,-22373.591,-61539.597,-58406.559,-46558.269,-0.041,0.995,0.185,0.549,-6.470,0.427,80.000,111.000,1.000
-40091.923,-39438.332,166597.197,113557.323,-22902.920,-62044.572,-59290.845,-46411.689,-0.041,0.997,0.187,0.519,-6.165,0.427,80.000,112.000,1.000
-40150.042,-39376.209,164389.490,111285.465,-23411.851,-62523.224,-60097.879,-46464.922,-0.043,0.996,0.188,0.366,-5.920,0.397,80.000,113.000,1.000
-40110.809,-39351.388,162252.907,108890.923,-23884.616,-62750.531,-60877.477,-46724.473,-0.043,0.997,0.188,0.214,-5.737,0.336,80.000,114.000,1.000
-40032.373,-39455.911,160085.737,106137.438,-24324.499,-62835.387,-61678.854,-46921.215,-0.042,0.998,0.189,0.153,-5.554,0.427,80.000,115.000,1.000
-40009.366,-39597.584,157873.245,103326.232,-24747.805,-63035.538,-62485.614,-46888.131,-0.042,0.996,0.188,0.122,-5.371,0.427,80.000,116.000,1.000
-40046.713,-39639.974,155695.002,100846.790,-25162.427,-63406.492,-63241.245,-46762.666,-0.043,0.994,0.188,-0.061,-5.188,0.366,80.000,117.000,1.000
-40067.706,-39581.601,153611.049,98669.878,-25560.581,-63759.532,-63926.213,-46774.139,-0.045,0.991,0.188,-0.214,-4.944,0.458,80.000,118.000,1.000
-40024.655,-39540.599,151587.130,96435.593,-25932.340,-63938.905,-64582.575,-46940.502,-0.044,0.991,0.188,-0.305,-4.730,0.397,80.000,119.000,1.000
-39953.731,-39589.915,149549.154,93950.775,-26279.179,-64015.023,-65256.034,-47073.298,-0.043,0.990,0.188,-0.305,-4.547,0.336,80.000,120.000,1.000
-39914.589,-39673.217,147480.803,91407.637,-26610.779,-64160.995,-65937.794,-47045.334,-0.043,0.988,0.183,-0.336,-4.364,0.305,80.000,121.000,1.000
-39912.132,-39695.552,145435.173,89086.412,-26932.431,-64419.926,-66581.694,-46944.095,-0.044,0.989,0.185,-0.214,-4.211,0.366,80.000,122.000,1.000
-39902.086,-39648.139,143457.748,86991.594,-27240.599,-64675.081,-67167.802,-46930.779,-0.044,0.987,0.186,-0.122,-4.059,0.458,80.000,123.000,1.000
-39856.219,-39606.131,141529.814,84884.791,-27530.351,-64825.798,-67727.534,-47026.721,-0.044,0.987,0.185,-0.061,-3.815,0.366,80.000,124.000,1.000
-39792.893,-39622.344,139599.957,82614.900,-27802.623,-64909.669,-68300.155,-47107.221,-0.045,0.987,0.189,-0.031,-3.754,0.275,80.000,125.000,1.000
-39743.800,-39666.522,137651.297,80287.294,-28062.382,-65028.895,-68882.893,-47079.745,-0.047,0.986,0.188,0.122,-3.540,0.427,80.000,126.000,1.000
-39713.106,-39676.220,135716.236,78092.698,-28312.127,-65211.236,-69438.274,-46993.607,-0.047,0.985,0.184,0.122,-3.326,0.397,80.000,127.000,1.000
-39680.064,-39636.161,133829.252,76065.805,-28549.803,-65390.319,-69942.822,-46954.573,-0.048,0.987,0.186,0.275,-3.174,0.458,80.000,128.000,1.000
-39629.650,-39585.962,131985.147,74073.820,-28772.522,-65504.197,-70413.090,-46984.825,-0.047,0.986,0.185,0.458,-3.204,0.519,80.000,129.000,1.000
-39566.302,-39562.409,130151.746,72004.801,-28980.103,-65565.129,-70879.149,-47010.633,-0.048,0.989,0.183,0.610,-3.143,0.549,80.000,130.000,1.000
-39501.678,-39558.705,128311.778,69891.049,-29174.848,-65625.981,-71345.924,-46969.647,-0.047,0.993,0.184,0.824,-3.052,0.519,80.000,131.000,1.000
-39441.405,-39543.026,126479.194,67840.247,-29359.455,-65711.623,-71791.723,-46883.480,-0.049,0.995,0.188,0.854,-3.021,0.610,80.000,132.000,1.000
-39385.388,-39500.407,124676.346,65898.347,-29535.641,-65803.441,-72200.142,-46815.057,-0.051,0.994,0.188,0.916,-2.960,0.580,80.000,133.000,1.000
-39331.449,-39446.027,122906.281,64009.683,-29703.640,-65875.608,-72582.452,-46787.972,-0.052,0.993,0.187,0.916,-2.991,0.427,80.000,134.000,1.000
-39274.161,-39403.147,121152.336,62094.559,-29862.229,-65923.678,-72963.512,-46770.670,-0.054,0.994,0.190,0.916,-2.869,0.305,80.000,135.000,1.000
-39207.731,-39378.673,119399.528,60131.290,-30010.072,-65962.231,-73353.961,-46727.921,-0.056,0.992,0.190,0.854,-2.930,0.214,80.000,136.000,1.000
-39134.845,-39359.923,117650.128,58162.304,-30147.781,-66010.415,-73743.381,-46662.478,-0.057,0.989,0.189,0.793,-3.052,0.031,80.000,137.000,1.000
-39066.799,-39329.171,115918.316,56239.961,-30277.978,-66079.904,-74118.315,-46602.946,-0.058,0.986,0.191,0.824,-3.174,0.000,80.000,138.000,1.000
-39009.053,-39280.968,114213.241,54370.384,-30402.524,-66166.091,-74481.409,-46569.107,-0.058,0.983,0.190,0.885,-3.174,-0.122,80.000,139.000,1.000
-38950.984,-39227.866,112529.328,52508.819,-30520.234,-66248.116,-74848.350,-46556.784,-0.057,0.978,0.190,0.946,-3.265,-0.061,80.000,140.000,1.000
-38878.554,-39188.591,110852.737,50607.742,-30628.643,-66308.855,-75228.973,-46548.153,-0.056,0.975,0.183,1.068,-3.448,-0.061,80.000,141.000,1.000
-38795.400,-39167.211,109176.516,48673.446,-30727.877,-66358.440,-75615.809,-46528.297,-0.056,0.976,0.181,1.190,-3.540,-0.061,80.000,142.000,1.000
-38721.244,-39146.187,107508.212,46768.576,-30821.277,-66426.457,-75992.628,-46495.919,-0.052,0.975,0.182,1.373,-3.479,-0.092,80.000,143.000,1.000
-38665.552,-39105.508,105861.114,44944.218,-30911.410,-66523.406,-76352.376,-46464.489,-0.055,0.976,0.185,1.495,-3.510,0.031,80.000,144.000,1.000
-38611.559,-39047.148,104238.293,43178.708,-30996.551,-66619.330,-76701.690,-46447.773,-0.057,0.978,0.180,1.617,-3.693,0.092,80.000,145.000,1.000
-38536.520,-38993.762,102628.009,41400.801,-31072.921,-66677.238,-77049.283,-46440.887,-0.058,0.981,0.181,1.740,-3.693,-0.031,80.000,146.000,1.000
-38442.882,-38959.639,101017.450,39579.191,-31139.979,-66703.128,-77393.731,-46420.988,-0.058,0.982,0.180,1.831,-3.754,-0.061,80.000,147.000,1.000
-38356.565,-38930.452,99408.987,37767.391,-31201.488,-66741.830,-77724.714,-46373.640,-0.055,0.982,0.181,1.801,-3.693,0.031,80.000,148.000,1.000
-38292.396,-38881.060,97817.691,36035.374,-31260.813,-66818.037,-78036.378,-46315.373,-0.056,0.983,0.181,1.709,-3.754,0.061,80.000,149.000,1.000
-38233.101,-38809.462,96251.925,34374.382,-31316.614,-66899.617,-78334.737,-46277.198,-0.056,0.984,0.180,1.587,-3.845,0.153,80.000,150.000,1.000
-38152.504,-38741.650,94701.567,32701.187,-31364.946,-66938.468,-78630.931,-46265.203,-0.055,0.985,0.178,1.556,-3.845,0.061,80.000,151.000,1.000
-38051.819,-38698.186,93150.183,30964.729,-31405.046,-66937.236,-78928.892,-46249.977,-0.056,0.984,0.178,1.495,-3.876,0.092,80.000,152.000,1.000
-37958.464,-38665.919,91596.397,29217.199,-31440.710,-66948.561,-79221.525,-46203.023,-0.054,0.985,0.178,1.556,-3.845,0.061,80.000,153.000,1.000
-37888.717,-38614.675,90056.117,27547.412,-31475.258,-67004.712,-79500.523,-46135.525,-0.056,0.985,0.182,1.465,-3.906,0.031,80.000,154.000,1.000
-37825.520,-38537.663,88541.664,25964.382,-31507.030,-67071.970,-79766.077,-46084.496,-0.057,0.983,0.181,1.404,-3.998,0.031,80.000,155.000,1.000
-37742.377,-38461.061,87045.035,24386.463,-31531.772,-67094.457,-80024.492,-46061.575,-0.057,0.982,0.179,1.404,-3.967,-0.122,80.000,156.000,1.000
-37639.795,-38408.099,85548.087,22754.704,-31548.647,-67068.337,-80276.471,-46032.999,-0.057,0.986,0.184,1.251,-3.967,-0.183,80.000,157.000,1.000
-37543.958,-38366.100,84046.567,21118.253,-31561.561,-67044.058,-80511.359,-45960.980,-0.057,0.987,0.181,1.129,-3.937,-0.122,80.000,158.000,1.000
-37470.246,-38302.925,82555.732,19570.057,-31573.987,-67054.898,-80717.529,-45854.159,-0.056,0.986,0.177,0.916,-3.998,-0.214,80.000,159.000,1.000
-37402.050,-38210.739,81089.772,18120.669,-31584.378,-67070.379,-80896.030,-45757.199,-0.054,0.989,0.180,0.824,-3.906,-0.275,80.000,160.000,1.000
-37314.062,-38117.400,79642.514,16679.685,-31588.562,-67039.474,-81060.665,-45692.461,-0.053,0.991,0.176,0.641,-3.784,-0.275,80.000,161.000,1.000
-37206.961,-38049.147,78195.537,15172.638,-31585.717,-66962.878,-81223.160,-45632.009,-0.052,0.993,0.180,0.488,-3.754,-0.244,80.000,162.000,1.000
-37105.882,-37995.595,76742.666,13637.070,-31579.735,-66893.765,-81381.156,-45537.725,-0.051,0.994,0.180,0.458,-3.754,-0.153,80.000,163.000,1.000
-37025.918,-37925.047,75297.661,12165.734,-31574.274,-66867.105,-81524.953,-45415.335,-0.050,0.993,0.178,0.214,-3.540,-0.092,80.000,164.000,1.000
-36952.069,-37827.964,73875.095,10779.007,-31568.169,-66853.866,-81652.284,-45306.997,-0.048,0.994,0.177,-0.092,-3.571,0.092,80.000,165.000,1.000
-36860.931,-37729.833,72470.456,9397.890,-31557.502,-66802.911,-81772.496,-45233.911,-0.046,0.992,0.180,-0.275,-3.357,0.153,80.000,166.000,1.000
-36753.152,-37656.539,71066.325,7952.527,-31541.250,-66711.582,-81895.025,-45168.262,-0.046,0.991,0.179,-0.519,-3.235,0.244,80.000,167.000,1.000
-36651.923,-37599.734,69655.928,6477.447,-31522.602,-66627.647,-82016.854,-45072.036,-0.046,0.988,0.177,-0.702,-3.021,0.397,80.000,168.000,1.000
-36570.985,-37529.124,68251.861,5061.811,-31504.507,-66583.206,-82126.840,-44949.445,-0.044,0.988,0.177,-0.916,-2.686,0.488,80.000,169.000,1.000
-36496.441,-37433.315,66868.630,3728.240,-31485.722,-66551.942,-82220.374,-44840.269,-0.046,0.988,0.181,-1.160,-2.625,0.519,80.000,170.000,1.000
-36406.593,-37333.956,65503.216,2403.775,-31462.676,-66487.275,-82305.320,-44765.073,-0.050,0.985,0.185,-1.312,-2.533,0.641,80.000,171.000,1.000
-36301.025,-37255.082,64139.860,1020.335,-31434.264,-66386.297,-82391.033,-44697.303,-0.052,0.982,0.184,-1.312,-2.502,0.580,80.000,172.000,1.000
-36199.179,-37190.459,62771.765,-393.481,-31402.993,-66291.383,-82474.926,-44598.677,-0.052,0.982,0.183,-1.343,-2.258,0.610,80.000,173.000,1.000
-36112.425,-37113.257,61409.713,-1755.101,-31371.457,-66231.215,-82546.266,-44469.939,-0.052,0.984,0.183,-1.495,-2.258,0.763,80.000,174.000,1.000
-36028.884,-37012.978,60066.626,-3039.539,-31339.152,-66182.940,-82601.177,-44348.121,-0.055,0.983,0.187,-1.678,-2.136,0.763,80.000,175.000,1.000
-35931.194,-36909.408,58739.863,-4309.474,-31303.771,-66105.871,-82648.895,-44256.614,-0.055,0.984,0.189,-1.740,-2.197,0.793,80.000,176.000,1.000
-35821.115,-36825.662,57415.055,-5627.338,-31264.837,-65997.570,-82700.831,-44176.437,-0.057,0.982,0.188,-1.709,-2.136,0.702,80.000,177.000,1.000
-35717.390,-36758.152,56085.318,-6972.358,-31224.644,-65895.500,-82756.921,-44075.404,-0.059,0.978,0.185,-1.709,-2.136,0.793,80.000,178.000,1.000
-35631.180,-36683.798,54759.635,-8275.842,-31185.318,-65825.858,-82808.022,-43953.461,-0.061,0.975,0.186,-1.434,-2.197,0.641,80.000,179.000,1.000
-35552.171,-36591.683,53450.134,-9516.786,-31145.914,-65769.628,-82848.449,-43840.717,-0.059,0.981,0.186,-1.312,-2.228,0.580,80.000,180.000,1.000
-35462.801,-36495.402,52156.221,-10746.018,-31103.527,-65689.485,-82881.221,-43753.009,-0.058,0.988,0.191,-1.373,-2.228,0.549,80.000,181.000,1.000
-35359.764,-36410.730,50866.660,-12006.351,-31056.761,-65576.666,-82908.545,-43665.800,-0.058,0.992,0.192,-1.495,-2.350,0.549,80.000,182.000,1.000
-35255.021,-36331.969,49575.516,-13263.079,-31007.002,-65455.137,-82922.116,-43542.148,-0.059,0.993,0.190,-1.740,-2.289,0.641,80.000,183.000,1.000
-35158.773,-36241.643,48289.331,-14457.942,-30956.647,-65347.425,-82914.378,-43383.151,-0.059,0.995,0.189,-1.862,-2.319,0.732,80.000,184.000,1.000
-35068.571,-36138.649,47016.535,-15615.862,-30906.967,-65253.632,-82899.057,-43236.048,-0.062,0.994,0.189,-1.892,-2.258,0.763,80.000,185.000,1.000
-34976.801,-36043.549,45754.936,-16840.692,-30857.810,-65165.734,-82907.471,-43144.486,-0.061,0.998,0.190,-2.014,-2.319,0.916,80.000,186.000,1.000
-34882.566,-35971.723,44494.748,-18182.362,-30808.528,-65085.652,-82955.129,-43098.317,-0.062,0.996,0.193,-2.045,-2.441,0.946,80.000,187.000,1.000
-34790.924,-35910.958,43232.400,-19550.449,-30758.450,-65017.454,-83017.959,-43043.965,-0.063,0.994,0.192,-2.258,-2.411,1.099,80.000,188.000,1.000
-34702.850,-35834.908,41975.780,-20804.607,-30706.702,-64950.222,-83053.263,-42943.182,-0.063,0.994,0.189,-2.258,-2.625,0.977,80.000,189.000,1.000
-34611.737,-35734.651,40734.059,-21911.921,-30652.325,-64862.032,-83042.876,-42808.023,-0.059,0.998,0.190,-2.289,-2.655,0.977,80.000,190.000,1.000
-34512.005,-35627.670,39506.161,-22973.536,-30594.992,-64744.058,-83007.692,-42675.137,-0.061,0.997,0.189,-2.533,-2.716,1.129,80.000,191.000,1.000
-34407.310,-35534.426,38282.938,-24096.222,-30535.469,-64613.124,-82979.495,-42560.201,-0.059,0.995,0.191,-2.655,-2.777,1.312,80.000,192.000,1.000
-34306.808,-35454.611,37059.173,-25278.809,-30475.078,-64494.672,-82967.563,-42450.104,-0.061,0.996,0.193,-2.655,-2.808,1.556,80.000,193.000,1.000
-34214.649,-35372.465,35839.277,-26446.215,-30414.588,-64396.709,-82958.334,-42332.965,-0.060,0.993,0.191,-2.594,-2.869,1.617,80.000,194.000,1.000
-34126.105,-35280.012,34630.200,-27561.167,-30353.697,-64305.407,-82940.114,-42217.789,-0.059,0.994,0.193,-2.563,-2.899,1.740,80.000,195.000,1.000
-34034.487,-35186.344,33431.928,-28663.539,-30291.804,-64205.668,-82917.981,-42119.179,-0.058,0.992,0.193,-2.533,-2.838,1.923,80.000,196.000,1.000
-33938.662,-35102.580,32238.039,-29802.010,-30228.964,-64098.655,-82902.508,-42033.087,-0.056,0.992,0.194,-2.563,-2.808,2.075,80.000,197.000,1.000
-33842.224,-35025.526,31044.630,-30963.842,-30165.757,-63995.608,-82892.002,-41939.379,-0.055,0.991,0.195,-2.472,-2.777,2.289,80.000,198.000,1.000
-33747.316,-34942.190,29855.169,-32095.289,-30102.406,-63900.031,-82873.720,-41827.228,-0.056,0.993,0.197,-2.380,-2.777,2.380,80.000,199.000,1.000
-33651.513,-34846.452,28675.505,-33171.607,-30038.283,-63801.695,-82839.269,-41706.472,-0.057,0.994,0.196,-2.167,-2.655,2.472,80.000,200.000,1.000
-33551.663,-34745.552,27506.442,-34222.324,-29972.460,-63689.551,-82793.161,-41591.607,-0.057,0.997,0.198,-2.106,-2.655,2.563,80.000,201.000,1.000
-33448.943,-34649.865,26343.416,-35287.722,-29904.721,-63566.043,-82745.828,-41483.483,-0.054,1.000,0.200,-2.075,-2.625,2.716,80.000,202.000,1.000
-33348.041,-34560.749,25182.766,-36370.320,-29835.847,-63444.014,-82701.770,-41372.646,-0.053,1.001,0.199,-2.014,-2.686,2.838,80.000,203.000,1.000
-33251.492,-34471.266,24026.051,-37440.900,-29766.710,-63330.874,-82657.005,-41255.624,-0.054,1.000,0.202,-2.106,-2.655,3.052,80.000,204.000,1.000
-33156.580,-34376.275,22877.302,-38479.136,-29697.374,-63220.081,-82605.682,-41139.199,-0.052,1.001,0.202,-1.862,-2.625,3.204,80.000,205.000,1.000
-33059.043,-34278.520,21737.461,-39495.538,-29627.431,-63100.844,-82547.115,-41029.371,-0.053,1.000,0.203,-1.862,-2.594,3.174,80.000,206.000,1.000
-32958.091,-34183.737,20603.543,-40513.521,-29556.774,-62972.094,-82485.192,-40922.437,-0.052,0.999,0.199,-1.862,-2.319,3.204,80.000,207.000,1.000
-32856.452,-34092.561,19473.041,-41540.458,-29485.691,-62842.454,-82422.263,-40810.143,-0.052,0.997,0.203,-1.709,-2.258,3.082,80.000,208.000,1.000
-32756.639,-34000.361,18347.032,-42563.954,-29414.502,-62718.669,-82356.689,-40690.917,-0.053,0.995,0.201,-1.678,-2.258,3.052,80.000,209.000,1.000
-32658.384,-33903.574,17228.301,-43568.939,-29343.202,-62597.450,-82285.227,-40570.547,-0.054,0.992,0.202,-1.556,-2.167,2.991,80.000,210.000,1.000
-32560.152,-33803.993,16117.590,-44553.495,-29271.428,-62470.577,-82206.883,-40453.310,-0.053,0.991,0.201,-1.434,-2.075,2.991,80.000,211.000,1.000
-32462.024,-33706.529,15012.769,-45528.794,-29198.922,-62336.270,-82124.962,-40337.754,-0.053,0.993,0.202,-1.160,-2.136,2.777,80.000,212.000,1.000
-32365.653,-33614.090,13911.586,-46506.457,-29125.888,-62202.196,-82045.087,-40221.591,-0.051,0.990,0.203,-0.946,-2.197,2.838,80.000,213.000,1.000
-32271.370,-33525.299,12814.336,-47487.829,-29052.617,-62076.686,-81970.484,-40106.434,-0.049,0.990,0.204,-0.702,-2.045,2.777,80.000,214.000,1.000
-32176.638,-33436.315,11723.209,-48462.483,-28978.988,-61958.875,-81898.375,-39994.666,-0.050,0.988,0.202,-0.458,-1.801,2.625,80.000,215.000,1.000
-32078.600,-33344.643,10639.347,-49419.317,-28904.734,-61840.501,-81822.673,-39884.720,-0.047,0.988,0.202,-0.214,-1.740,2.655,80.000,216.000,1.000
-31977.125,-33250.708,9561.574,-50359.540,-28829.930,-61716.015,-81740.474,-39772.665,-0.048,0.987,0.199,0.000,-1.678,2.533,80.000,217.000,1.000
-31874.748,-33156.174,8488.081,-51296.029,-28754.990,-61587.717,-81654.627,-39657.803,-0.048,0.984,0.199,0.214,-1.587,2.441,80.000,218.000,1.000
-31774.184,-33061.719,7418.549,-52238.845,-28680.240,-61461.052,-81569.684,-39543.975,-0.047,0.982,0.199,0.549,-1.495,2.380,80.000,219.000,1.000
-31675.978,-32966.311,6354.287,-53181.017,-28605.518,-61336.498,-81485.438,-39433.730,-0.047,0.979,0.198,0.854,-1.434,2.319,80.000,220.000,1.000
-31578.908,-32869.187,5296.508,-54105.571,-28530.351,-61209.296,-81397.237,-39324.639,-0.051,0.978,0.199,1.068,-1.221,2.106,80.000,221.000,1.000
-31482.024,-32771.996,4244.936,-55007.661,-28454.520,-61077.109,-81303.182,-39213.604,-0.049,0.977,0.197,1.312,-1.160,2.045,80.000,222.000,1.000
-31385.432,-32677.738,3198.282,-55902.518,-28378.286,-60944.436,-81207.975,-39102.285,-0.050,0.978,0.198,1.648,-1.099,1.984,80.000,223.000,1.000
-31289.381,-32587.412,2155.753,-56807.410,-28302.099,-60817.887,-81117.816,-38995.033,-0.051,0.979,0.194,1.892,-1.007,1.862,80.000,224.000,1.000
-31193.112,-32497.986,1117.905,-57717.483,-28226.086,-60697.542,-81031.527,-38890.929,-0.051,0.981,0.194,2.136,-0.916,1.556,80.000,225.000,1.000
-31095.187,-32404.823,85.990,-58609.670,-28149.840,-60575.786,-80940.124,-38782.267,-0.053,0.985,0.196,2.319,-0.946,1.343,80.000,226.000,1.000
-30994.848,-32306.293,-939.369,-59471.916,-28072.769,-60445.523,-80836.824,-38663.363,-0.054,0.988,0.192,2.319,-0.885,1.343,80.000,227.000,1.000
-30893.156,-32205.590,-1958.807,-60319.351,-27994.717,-60307.819,-80725.237,-38538.253,-0.052,0.988,0.194,2.319,-0.885,1.221,80.000,228.000,1.000
-30792.527,-32107.542,-2973.487,-61175.896,-27916.154,-60170.233,-80615.306,-38416.553,-0.048,0.988,0.193,2.411,-0.854,0.977,80.000,229.000,1.000
-30694.714,-32013.687,-3983.771,-62043.006,-27837.633,-60037.765,-80511.331,-38302.144,-0.047,0.989,0.192,2.350,-0.671,1.038,80.000,230.000,1.000
-30599.860,-31922.106,-4988.996,-62899.153,-27759.325,-59908.452,-80408.271,-38190.553,-0.045,0.989,0.192,2.350,-0.519,0.885,80.000,231.000,1.000
-30506.861,-31831.049,-5988.584,-63730.557,-27681.132,-59778.051,-80300.304,-38077.366,-0.043,0.990,0.194,2.380,-0.427,0.885,80.000,232.000,1.000
-30413.983,-31740.574,-6982.920,-64550.145,-27602.999,-59646.019,-80188.620,-37964.187,-0.042,0.989,0.193,2.319,-0.244,0.824,80.000,233.000,1.000
-30319.711,-31650.755,-7972.805,-65379.947,-27524.951,-59515.455,-80078.596,-37854.471,-0.039,0.987,0.190,2.289,-0.061,0.793,80.000,234.000,1.000
-30223.216,-31559.388,-8958.130,-66219.280,-27446.800,-59387.007,-79970.322,-37745.944,-0.040,0.987,0.187,2.350,0.031,0.824,80.000,235.000,1.000
-30124.532,-31463.461,-9937.666,-67044.214,-27368.147,-59256.049,-79856.767,-37632.033,-0.041,0.988,0.187,2.350,0.336,0.824,80.000,236.000,1.000
-30024.750,-31363.333,-10910.526,-67840.068,-27289.177,-59118.172,-79733.339,-37511.288,-0.042,0.988,0.183,2.289,0.519,0.977,80.000,237.000,1.000
-29925.829,-31263.828,-11877.458,-68621.999,-27215.642,-58975.532,-79605.387,-37391.113,-0.039,0.986,0.183,2.197,0.763,0.977,80.000,238.000,1.000
-29829.462,-31169.636,-12840.172,-69415.946,-27178.307,-58835.097,-79482.551,-37279.707,-0.042,0.986,0.186,2.197,0.824,0.977,80.000,239.000,1.000
-29735.532,-31079.752,-13799.385,-70223.464,-27261.124,-58699.814,-79365.919,-37175.595,-0.041,0.987,0.183,2.289,0.977,0.916,80.000,240.000,1.000
-29642.134,-30988.444,-14754.004,-71019.336,-27593.942,-58564.659,-79245.580,-37068.856,-0.043,0.986,0.183,2.228,1.190,0.977,80.000,241.000,1.000
-29547.185,-30891.902,-15702.482,-71785.052,-28287.358,-58423.122,-79112.588,-36952.881,-0.042,0.988,0.184,2.197,1.404,1.007,80.000,242.000,1.000
-29450.167,-30792.444,-16644.682,-72532.377,-29367.385,-58275.721,-78969.920,-36831.681,-0.042,0.987,0.184,2.136,1.495,1.068,80.000,243.000,1.000
-29352.425,-30695.182,-17581.953,-73287.050,-30766.949,-58129.827,-78828.645,-36713.899,-0.039,0.986,0.185,2.045,1.709,1.099,80.000,244.000,1.000
-29255.497,-30601.342,-18515.362,-74053.882,-32358.019,-57990.400,-78693.980,-36601.522,-0.040,0.986,0.184,1.984,1.923,1.221,80.000,245.000,1.000
-29159.721,-30507.434,-19444.470,-74811.799,-33991.987,-57854.158,-78560.133,-36488.852,-0.042,0.986,0.181,1.923,2.014,1.190,80.000,246.000,1.000
-29064.108,-30410.417,-20368.082,-75543.766,-35542.975,-57714.021,-78419.439,-36371.589,-0.042,0.985,0.181,1.862,2.075,1.160,80.000,247.000,1.000
-28967.424,-30311.595,-21285.821,-76259.020,-36949.033,-57567.286,-78272.214,-36252.423,-0.043,0.985,0.180,1.740,2.258,1.282,80.000,248.000,1.000
-28869.681,-30214.934,-22198.516,-76979.507,-38226.558,-57418.025,-78125.237,-36136.569,-0.042,0.985,0.183,1.740,2.441,1.312,80.000,249.000,1.000
-28771.810,-30121.716,-23106.906,-77708.591,-39438.925,-57270.602,-77981.080,-36023.404,-0.043,0.986,0.180,1.648,2.502,1.282,80.000,250.000,1.000
-28674.140,-30028.689,-24010.562,-78426.384,-40643.263,-57123.696,-77833.740,-35906.423,-0.044,0.986,0.179,1.556,2.625,1.312,80.000,251.000,1.000
-28576.169,-29932.380,-24908.612,-79117.569,-41860.993,-56973.114,-77677.058,-35782.101,-0.043,0.988,0.180,1.526,2.716,1.404,80.000,252.000,1.000
-28477.710,-29833.493,-25801.111,-79792.335,-43087.178,-56818.573,-77513.730,-35655.033,-0.042,0.988,0.182,1.434,2.899,1.404,80.000,253.000,1.000
-28379.427,-29735.326,-26689.046,-80473.422,-44312.983,-56664.739,-77352.516,-35532.457,-0.043,0.987,0.180,1.373,2.960,1.526,80.000,254.000,1.000
-28281.980,-29638.653,-27572.969,-81166.565,-45531.264,-56514.919,-77197.142,-35415.481,-0.042,0.990,0.180,1.312,3.052,1.556,80.000,255.000,1.000
-28185.490,-29541.008,-28452.267,-81855.727,-46725.667,-56367.127,-77042.524,-35299.036,-0.043,0.992,0.180,1.068,3.113,1.648,80.000,256.000,1.000
-28089.692,-29440.771,-29326.054,-82527.103,-47865.569,-56217.641,-76882.604,-35179.537,-0.044,0.993,0.180,0.885,3.113,1.740,80.000,257.000,1.000
-27994.400,-29339.973,-30194.443,-83187.059,-48922.103,-56066.500,-76718.172,-35059.322,-0.044,0.994,0.180,0.732,3.082,1.831,80.000,258.000,1.000
-27899.882,-29242.505,-31058.498,-83852.275,-49890.792,-55918.313,-76555.153,-34943.006,-0.045,0.994,0.178,0.549,3.204,1.801,80.000,259.000,1.000
-27806.384,-29149.807,-31918.910,-84525.876,-50793.439,-55777.154,-76396.261,-34830.901,-0.046,0.990,0.180,0.305,3.265,1.984,80.000,260.000,1.000
-27713.666,-29059.679,-32775.240,-85193.482,-51662.046,-55642.403,-76238.116,-34718.966,-0.048,0.990,0.182,0.122,3.174,1.892,80.000,261.000,1.000
-27621.055,-28969.157,-33626.639,-85842.668,-52525.298,-55509.874,-76076.635,-34604.578,-0.050,0.991,0.183,0.061,3.021,1.923,80.000,262.000,1.000
-27527.865,-28877.231,-34472.881,-86477.593,-53402.366,-55375.512,-75911.900,-34489.164,-0.048,0.990,0.183,-0.061,2.960,1.892,80.000,263.000,1.000
-27433.915,-28784.423,-35314.419,-87111.627,-54298.533,-55237.770,-75746.809,-34374.805,-0.047,0.988,0.183,-0.122,2.808,2.014,80.000,264.000,1.000
-27339.539,-28690.424,-36151.549,-87748.422,-55203.251,-55096.447,-75581.876,-34259.937,-0.047,0.990,0.182,-0.183,2.625,1.984,80.000,265.000,1.000
-27245.190,-28593.881,-36983.959,-88378.386,-56098.102,-54951.135,-75414.037,-34141.014,-0.048,0.988,0.182,-0.305,2.625,1.862,80.000,266.000,1.000
-27150.791,-28494.505,-37811.170,-88993.311,-56971.381,-54801.676,-75240.828,-34017.873,-0.048,0.989,0.183,-0.458,2.563,2.045,80.000,267.000,1.000
-27055.830,-28394.336,-38633.270,-89597.488,-57824.858,-54649.386,-75063.841,-33894.970,-0.049,0.988,0.185,-0.488,2.411,2.045,80.000,268.000,1.000
-26960.127,-28296.224,-39450.947,-90202.125,-58666.680,-54497.145,-74887.364,-33776.827,-0.048,0.990,0.185,-0.397,2.228,2.106,80.000,269.000,1.000
-26863.767,-28200.875,-40264.707,-90809.975,-59499.807,-54347.001,-74713.351,-33662.849,-0.050,0.991,0.183,-0.427,1.984,2.014,80.000,270.000,1.000
-26766.771,-28106.770,-41074.324,-91412.503,-60321.053,-54198.701,-74539.756,-33548.471,-0.049,0.991,0.186,-0.458,1.862,1.953,80.000,271.000,1.000
-26669.003,-28012.619,-41879.261,-92002.155,-61129.750,-54050.845,-74364.032,-33430.784,-0.049,0.990,0.187,-0.305,1.648,2.014,80.000,272.000,1.000
-26570.150,-27918.518,-42679.412,-92581.318,-61931.203,-53902.399,-74186.153,-33311.001,-0.050,0.991,0.183,-0.458,1.587,1.892,80.000,273.000,1.000
-26470.054,-27824.838,-43475.216,-93158.208,-62729.893,-53753.295,-74007.825,-33191.656,-0.051,0.995,0.185,-0.427,1.404,1.831,80.000,274.000,1.000
-26369.053,-27730.636,-44266.942,-93735.309,-63522.067,-53603.480,-73829.201,-33072.709,-0.049,0.992,0.185,-0.458,1.190,1.770,80.000,275.000,1.000
-26267.969,-27634.122,-45054.132,-94307.023,-64299.156,-53452.156,-73648.180,-32952.037,-0.051,0.991,0.186,-0.488,0.916,1.740,80.000,276.000,1.000
-26167.479,-27534.389,-45835.929,-94867.945,-65057.835,-53298.091,-73462.933,-32828.781,-0.049,0.991,0.188,-0.641,0.702,1.740,80.000,277.000,1.000
-26067.939,-27432.610,-46611.950,-95419.380,-65803.054,-53140.776,-73274.077,-32704.750,-0.050,0.992,0.187,-0.671,0.549,1.648,80.000,278.000,1.000
-25969.816,-27331.464,-47382.687,-95967.522,-66540.918,-52981.558,-73084.401,-32582.684,-0.050,0.990,0.188,-0.549,0.427,1.648,80.000,279.000,1.000
-25873.230,-27232.552,-48148.872,-96514.975,-67270.824,-52822.276,-72895.747,-32463.101,-0.050,0.991,0.188,-0.549,0.214,1.495,80.000,280.000,1.000
-25777.689,-27135.405,-48910.782,-97058.506,-67987.952,-52663.749,-72707.655,-32344.497,-0.049,0.991,0.188,-0.519,-0.031,1.404,80.000,281.000,1.000
-25682.642,-27039.076,-49668.390,-97594.956,-68692.066,-52506.004,-72519.255,-32226.249,-0.047,0.991,0.187,-0.580,-0.214,1.373,80.000,282.000,1.000
-25587.774,-26943.273,-50421.824,-98125.318,-69388.882,-52348.514,-72330.408,-32108.971,-0.047,0.991,0.189,-0.610,-0.458,1.282,80.000,283.000,1.000
-25492.870,-26847.861,-51171.324,-98653.267,-70082.305,-52190.466,-72141.154,-31992.550,-0.047,0.989,0.190,-0.519,-0.549,1.373,80.000,284.000,1.000
-25397.790,-26752.128,-51916.847,-99179.907,-70768.568,-52031.214,-71950.922,-31875.433,-0.048,0.987,0.190,-0.488,-0.641,1.251,80.000,285.000,1.000
-25302.875,-26655.606,-52658.066,-99703.000,-71441.275,-51871.231,-71759.443,-31756.687,-0.046,0.986,0.189,-0.519,-0.763,1.190,80.000,286.000,1.000
-25208.818,-26558.893,-53394.823,-100220.263,-72100.161,-51712.022,-71567.705,-31637.395,-0.042,0.985,0.187,-0.641,-0.824,1.190,80.000,287.000,1.000
-25116.128,-26463.170,-54127.384,-100731.038,-72750.904,-51554.645,-71377.104,-31519.463,-0.043,0.984,0.189,-0.580,-0.946,1.099,80.000,288.000,1.000
-25025.176,-26369.345,-54856.174,-101236.414,-73397.147,-51399.338,-71188.628,-31404.369,-0.044,0.981,0.189,-0.427,-1.068,1.007,80.000,289.000,1.000
-24936.221,-26277.261,-55581.278,-101736.968,-74035.512,-51245.727,-71002.185,-31292.399,-0.046,0.980,0.188,-0.427,-1.160,0.946,80.000,290.000,1.000
-24849.106,-26185.731,-56302.256,-102232.235,-74660.333,-51092.883,-70816.439,-31182.554,-0.047,0.980,0.189,-0.336,-1.312,0.885,80.000,291.000,1.000
-24762.818,-26093.259,-57018.414,-102721.769,-75271.094,-50939.195,-70629.255,-31072.997,-0.046,0.981,0.189,-0.092,-1.373,0.885,80.000,292.000,1.000
-24675.803,-25999.019,-57729.325,-103205.368,-75872.439,-50782.826,-70438.622,-30961.753,-0.047,0.984,0.190,0.031,-1.465,0.763,80.000,293.000,1.000
-24587.111,-25903.503,-58435.196,-103683.865,-76468.032,-50623.322,-70244.221,-30847.849,-0.046,0.987,0.192,0.031,-1.587,0.549,80.000,294.000,1.000
-24496.849,-25807.832,-59136.614,-104157.994,-77056.266,-50461.925,-70047.461,-30731.627,-0.050,0.987,0.192,0.153,-1.678,0.427,80.000,295.000,1.000
-24405.818,-25712.915,-59833.940,-104627.755,-77633.384,-50300.481,-69850.279,-30614.469,-0.051,0.989,0.196,0.153,-1.892,0.244,80.000,296.000,1.000
-24314.798,-25619.044,-60527.019,-105092.639,-78199.030,-50140.044,-69653.724,-30497.946,-0.052,0.989,0.196,0.214,-2.045,0.061,80.000,297.000,1.000
-24224.283,-25526.159,-61215.613,-105552.040,-78756.463,-49980.521,-69457.601,-30382.923,-0.054,0.989,0.196,0.336,-2.228,0.000,80.000,298.000,1.000
-24134.664,-25434.505,-61899.975,-106007.061,-79308.190,-49822.076,-69261.913,-30269.615,-0.057,0.989,0.193,0.397,-2.441,-0.122,80.000,299.000,1.000
-24045.928,-25344.099,-62580.699,-106459.590,-79852.687,-49665.442,-69067.257,-30157.487,-0.056,0.991,0.194,0.427,-2.686,-0.336,80.000,300.000,1.000
-23957.671,-25254.161,-63258.163,-106910.910,-80387.110,-49511.027,-68874.215,-30045.857,-0.057,0.991,0.193,0.427,-2.838,-0.610,80.000,301.000,1.000
-23869.444,-25163.399,-63932.171,-107360.599,-80911.723,-49357.973,-68682.538,-29934.395,-0.056,0.990,0.194,0.488,-3.113,-0.763,80.000,302.000,1.000
-23780.930,-25070.640,-64602.040,-107805.579,-81428.895,-49203.916,-68490.350,-29822.217,-0.055,0.991,0.193,0.580,-3.326,-0.977,80.000,303.000,1.000
-23692.113,-24975.611,-65267.059,-108242.711,-81938.973,-49046.719,-68295.236,-29707.760,-0.055,0.990,0.193,0.610,-3.632,-1.129,80.000,304.000,1.000
-23603.226,-24879.192,-65926.991,-108671.195,-82439.266,-48886.325,-68096.194,-29590.138,-0.053,0.992,0.192,0.519,-3.754,-1.129,80.000,305.000,1.000
-23514.625,-24783.103,-66582.232,-109093.194,-82928.074,-48725.083,-67894.882,-29470.861,-0.052,0.991,0.195,0.488,-3.815,-1.099,80.000,306.000,1.000
-23426.307,-24688.523,-67233.438,-109511.189,-83407.601,-48565.489,-67694.220,-29353.092,-0.052,0.990,0.194,0.427,-3.876,-1.099,80.000,307.000,1.000
-23337.692,-24595.017,-67880.976,-109924.672,-83881.201,-48407.472,-67495.356,-29238.729,-0.053,0.990,0.191,0.397,-3.937,-1.038,80.000,308.000,1.000
-23248.167,-24501.377,-68524.771,-110332.068,-84349.387,-48249.147,-67297.146,-29127.224,-0.051,0.990,0.190,0.397,-3.967,-1.007,80.000,309.000,1.000
-23157.610,-24406.906,-69164.533,-110733.334,-84809.358,-48089.381,-67097.672,-29016.503,-0.049,0.991,0.189,0.397,-4.120,-0.977,80.000,310.000,1.000
-23066.715,-24312.115,-69800.073,-111130.690,-85258.829,-47929.236,-66896.157,-28904.948,-0.050,0.990,0.193,0.458,-4.120,-1.099,80.000,311.000,1.000
-22976.517,-24218.086,-70431.344,-111526.262,-85698.815,-47770.623,-66693.219,-28792.255,-0.048,0.990,0.191,0.458,-4.089,-1.068,80.000,312.000,1.000
-22887.489,-24125.204,-71058.358,-111919.138,-86131.466,-47613.919,-66489.458,-28678.747,-0.048,0.988,0.191,0.427,-4.089,-1.038,80.000,313.000,1.000
-22799.395,-24033.061,-71681.301,-112307.352,-86556.858,-47458.039,-66285.271,-28565.289,-0.048,0.987,0.189,0.397,-4.089,-0.916,80.000,314.000,1.000
-22711.675,-23940.972,-72300.476,-112690.285,-86972.523,-47301.585,-66081.206,-28453.198,-0.046,0.989,0.187,0.366,-3.967,-0.824,80.000,315.000,1.000
-22624.061,-23848.614,-72916.006,-113069.308,-87376.512,-47143.804,-65878.062,-28343.708,-0.046,0.989,0.189,0.366,-3.998,-0.793,80.000,316.000,1.000
-22536.600,-23756.053,-73527.651,-113445.624,-87769.824,-46984.585,-65676.079,-28236.745,-0.048,0.988,0.191,0.336,-3.906,-0.793,80.000,317.000,1.000
-22449.227,-23663.367,-74134.969,-113817.623,-88154.776,-46823.648,-65473.878,-28130.107,-0.048,0.988,0.187,0.214,-3.784,-0.732,80.000,318.000,1.000
-22361.908,-23570.927,-74737.749,-114183.360,-88532.618,-46661.047,-65269.875,-28021.388,-0.050,0.988,0.189,0.244,-3.815,-0.641,80.000,319.000,1.000
-22274.809,-23479.594,-75336.240,-114543.239,-88903.104,-46497.909,-65064.203,-27910.317,-0.050,0.989,0.189,0.183,-3.693,-0.702,80.000,320.000,1.000
-22188.125,-23390.298,-75930.990,-114899.899,-89266.339,-46336.126,-64858.625,-27798.603,-0.051,0.989,0.189,0.122,-3.662,-0.641,80.000,321.000,1.000
-22101.551,-23302.929,-76522.414,-115254.879,-89623.822,-46176.773,-64654.351,-27687.447,-0.050,0.989,0.188,0.153,-3.662,-0.580,80.000,322.000,1.000
-22014.208,-23215.884,-77110.399,-115605.825,-89976.490,-46018.830,-64450.356,-27576.181,-0.050,0.988,0.187,0.122,-3.540,-0.671,80.000,323.000,1.000
-21925.461,-23127.350,-77694.381,-115949.675,-90323.028,-45860.472,-64244.926,-27464.216,-0.051,0.989,0.191,0.092,-3.448,-0.610,80.000,324.000,1.000
-21835.524,-23036.563,-78273.870,-116286.105,-90660.642,-45700.772,-64037.700,-27352.508,-0.052,0.988,0.189,0.092,-3.448,-0.519,80.000,325.000,1.000
-21745.365,-22943.900,-78848.876,-116617.840,-90987.812,-45540.096,-63829.822,-27242.505,-0.052,0.987,0.191,0.000,-3.479,-0.732,80.000,326.000,1.000
-21655.867,-22849.859,-79419.701,-116947.288,-91305.387,-45378.949,-63622.187,-27134.047,-0.052,0.988,0.188,0.031,-3.479,-0.610,80.000,327.000,1.000
-21567.300,-22754.650,-79986.504,-117273.448,-91614.846,-45216.986,-63414.202,-27025.040,-0.053,0.988,0.192,0.031,-3.479,-0.610,80.000,328.000,1.000
-21479.667,-22659.006,-80549.321,-117594.444,-91917.150,-45054.002,-63205.230,-26913.709,-0.054,0.988,0.193,0.031,-3.387,-0.641,80.000,329.000,1.000
-21392.811,-22564.130,-81108.352,-117909.909,-92212.723,-44890.622,-62995.810,-26799.922,-0.052,0.988,0.191,-0.031,-3.418,-0.549,80.000,330.000,1.000
-21306.450,-22471.043,-81663.970,-118221.180,-92502.133,-44728.019,-62787.346,-26685.028,-0.054,0.990,0.190,-0.031,-3.387,-0.610,80.000,331.000,1.000
-21220.093,-22379.861,-82216.318,-118529.307,-92785.962,-44566.856,-62580.491,-26570.651,-0.054,0.991,0.190,-0.031,-3.357,-0.488,80.000,332.000,1.000
-21133.094,-22289.608,-82765.092,-118833.112,-93063.607,-44406.348,-62373.784,-26457.165,-0.055,0.990,0.192,-0.122,-3.296,-0.580,80.000,333.000,1.000
-21045.270,-22199.207,-83309.952,-119131.656,-93333.693,-44245.314,-62165.237,-26344.046,-0.054,0.991,0.191,-0.061,-3.418,-0.458,80.000,334.000,1.000
-20956.949,-22108.117,-83850.872,-119425.864,-93595.296,-44083.201,-61954.293,-26230.850,-0.056,0.991,0.188,-0.122,-3.418,-0.488,80.000,335.000,1.000
-20868.647,-22016.491,-84387.998,-119717.987,-93848.796,-43920.428,-61742.153,-26117.721,-0.054,0.991,0.186,-0.214,-3.387,-0.488,80.000,336.000,1.000
-20780.812,-21924.910,-84921.446,-120009.376,-94095.570,-43758.098,-61530.533,-26005.003,-0.053,0.992,0.189,-0.244,-3.479,-0.397,80.000,337.000,1.000
-20693.741,-21833.792,-85451.251,-120298.464,-94336.550,-43596.914,-61320.018,-25892.460,-0.054,0.994,0.189,-0.214,-3.387,-0.336,80.000,338.000,1.000
-20607.694,-21743.376,-85977.390,-120583.042,-94571.693,-43436.860,-61110.319,-25780.004,-0.055,0.991,0.188,-0.275,-3.448,-0.244,80.000,339.000,1.000
-20522.807,-21653.866,-86499.744,-120862.487,-94800.262,-43277.425,-60901.217,-25668.493,-0.055,0.989,0.193,-0.336,-3.418,-0.244,80.000,340.000,1.000
-20439.152,-21565.596,-87018.198,-121138.332,-95021.898,-43118.295,-60693.038,-25559.329,-0.055,0.988,0.191,-0.427,-3.387,-0.244,80.000,341.000,1.000
-20356.530,-21478.635,-87532.708,-121412.064,-95236.854,-42959.462,-60486.015,-25452.907,-0.056,0.986,0.190,-0.458,-3.387,-0.092,80.000,342.000,1.000
-20274.118,-21392.369,-88043.270,-121682.325,-95444.968,-42800.743,-60279.379,-25347.641,-0.054,0.986,0.192,-0.397,-3.387,0.031,80.000,343.000,1.000
-20190.806,-21306.092,-88549.937,-121946.882,-95645.891,-42642.370,-60072.250,-25241.414,-0.054,0.985,0.192,-0.305,-3.296,0.122,80.000,344.000,1.000
-20105.766,-21219.385,-89052.736,-122204.874,-95839.436,-42484.887,-59864.177,-25133.129,-0.055,0.986,0.193,-0.275,-3.265,0.153,80.000,345.000,1.000
-20018.894,-21131.955,-89551.658,-122457.638,-96025.702,-42328.438,-59654.967,-25023.085,-0.054,0.987,0.192,-0.305,-3.357,0.214,80.000,346.000,1.000
-19930.709,-21043.312,-90046.846,-122707.187,-96205.227,-42172.504,-59444.512,-24912.148,-0.053,0.989,0.191,-0.275,-3.387,0.244,80.000,347.000,1.000
-19842.183,-20953.089,-90538.584,-122953.621,-96378.463,-42016.042,-59232.565,-24800.786,-0.053,0.987,0.190,-0.366,-3.418,0.244,80.000,348.000,1.000
-19754.632,-20861.831,-91026.987,-123196.083,-96545.583,-41858.267,-59019.250,-24689.577,-0.053,0.986,0.191,-0.336,-3.357,0.275,80.000,349.000,1.000
-19668.822,-20770.490,-91511.847,-123433.839,-96706.429,-41698.851,-58805.069,-24579.290,-0.053,0.989,0.193,-0.366,-3.326,0.458,80.000,350.000,1.000
-19584.494,-20679.699,-91992.938,-123667.273,-96861.052,-41538.133,-58590.829,-24470.375,-0.054,0.988,0.193,-0.305,-3.326,0.427,80.000,351.000,1.000
-19500.751,-20589.517,-92470.282,-123897.689,-97009.805,-41377.014,-58377.379,-24362.685,-0.054,0.984,0.194,-0.336,-3.357,0.610,80.000,352.000,1.000
-19416.557,-20499.392,-92944.015,-124125.430,-97152.481,-41216.019,-58164.711,-24255.352,-0.054,0.986,0.190,-0.244,-3.235,0.610,80.000,353.000,1.000
-19331.339,-20408.872,-93414.299,-124350.470,-97288.852,-41055.507,-57952.332,-24147.497,-0.053,0.986,0.190,-0.214,-3.235,0.549,80.000,354.000,1.000
-19245.295,-20318.302,-93881.398,-124572.957,-97419.433,-40896.197,-57740.068,-24038.847,-0.054,0.987,0.188,-0.183,-3.204,0.610,80.000,355.000,1.000
-19159.354,-20228.878,-94345.636,-124793.667,-97545.322,-40739.150,-57528.497,-23930.132,-0.055,0.990,0.191,-0.153,-3.235,0.519,80.000,356.000,1.000
-19074.438,-20141.479,-94807.111,-125013.362,-97667.078,-40584.788,-57318.331,-23822.565,-0.055,0.987,0.192,-0.214,-3.204,0.610,80.000,357.000,1.000
-18990.567,-20055.379,-95265.451,-125230.970,-97783.542,-40431.658,-57109.086,-23716.393,-0.055,0.987,0.193,-0.214,-3.265,0.763,80.000,358.000,1.000
-18906.988,-19968.922,-95719.950,-125444.617,-97892.745,-40277.376,-56899.500,-23610.752,-0.057,0.988,0.195,-0.336,-3.296,0.763,80.000,359.000,1.000
-18823.010,-19881.134,-96169.912,-125652.655,-97993.319,-40120.413,-56688.637,-23504.497,-0.058,0.987,0.191,-0.275,-3.296,0.824,80.000,360.000,1.000
-18738.691,-19792.422,-96615.019,-125854.784,-98085.156,-39961.029,-56476.526,-23397.220,-0.056,0.985,0.189,-0.305,-3.235,0.824,80.000,361.000,1.000
-18654.571,-19703.705,-97055.514,-126052.014,-98169.064,-39800.594,-56263.889,-23289.567,-0.058,0.984,0.187,-0.275,-3.204,0.824,80.000,362.000,1.000
-18571.043,-19615.426,-97492.031,-126244.973,-98245.869,-39640.090,-56051.262,-23182.549,-0.057,0.985,0.191,-0.336,-3.265,0.824,80.000,363.000,1.000
-18488.135,-19527.619,-97925.244,-126434.370,-98316.526,-39479.982,-55838.995,-23076.901,-0.058,0.986,0.191,-0.275,-3.265,0.885,80.000,364.000,1.000
-18405.376,-19440.041,-98355.569,-126620.980,-98382.082,-39320.495,-55627.117,-22972.337,-0.057,0.988,0.190,-0.366,-3.265,0.824,80.000,365.000,1.000
-18322.140,-19352.450,-98783.096,-126805.768,-98443.471,-39161.825,-55415.445,-22867.876,-0.057,0.991,0.192,-0.397,-3.265,0.702,80.000,366.000,1.000
-18238.242,-19264.926,-99207.680,-126989.569,-98501.141,-39004.084,-55203.956,-22762.982,-0.059,0.992,0.192,-0.458,-3.326,0.671,80.000,367.000,1.000
-18154.254,-19178.059,-99629.140,-127172.038,-98554.570,-38847.220,-54992.771,-22658.108,-0.059,0.992,0.191,-0.549,-3.296,0.580,80.000,368.000,1.000
-18071.161,-19092.699,-100047.479,-127352.639,-98602.987,-38691.530,-54782.278,-22554.453,-0.058,0.991,0.189,-0.580,-3.357,0.458,80.000,369.000,1.000
-17989.217,-19008.680,-100462.756,-127530.324,-98645.531,-38536.922,-54572.298,-22452.465,-0.057,0.992,0.191,-0.732,-3.418,0.397,80.000,370.000,1.000
-17907.703,-18924.650,-100874.857,-127703.743,-98681.094,-38382.397,-54361.811,-22351.160,-0.054,0.989,0.193,-0.946,-3.448,0.488,80.000,371.000,1.000
-17825.762,-18839.379,-101283.537,-127872.193,-98708.794,-38226.985,-54149.972,-22248.949,-0.053,0.987,0.193,-0.946,-3.448,0.549,80.000,372.000,1.000
-17743.057,-18752.616,-101688.577,-128035.374,-98728.288,-38070.379,-53936.597,-22144.629,-0.055,0.988,0.190,-1.007,-3.448,0.519,80.000,373.000,1.000
-17659.805,-18664.907,-102089.842,-128193.880,-98740.094,-37912.815,-53722.089,-22038.170,-0.051,0.984,0.192,-0.916,-3.296,0.519,80.000,374.000,1.000
-17576.368,-18576.811,-102487.308,-128348.239,-98745.263,-37754.364,-53506.846,-21930.372,-0.052,0.986,0.190,-0.885,-3.235,0.671,80.000,375.000,1.000
-17493.194,-18488.772,-102881.184,-128498.696,-98745.218,-37595.164,-53291.501,-21822.392,-0.054,0.988,0.191,-0.763,-3.174,0.671,80.000,376.000,1.000
-17410.817,-18401.341,-103271.886,-128645.722,-98741.457,-37436.027,-53077.274,-21715.383,-0.053,0.991,0.191,-0.854,-3.204,0.763,80.000,377.000,1.000
-17329.644,-18315.101,-103659.750,-128789.705,-98734.624,-37278.049,-52865.081,-21609.875,-0.053,0.992,0.189,-0.977,-3.082,0.824,80.000,378.000,1.000
-17249.599,-18230.208,-104044.790,-128931.555,-98724.438,-37121.850,-52654.721,-21505.656,-0.055,0.992,0.192,-0.946,-3.082,0.824,80.000,379.000,1.000
-17169.530,-18145.532,-104426.632,-129071.469,-98709.532,-36966.375,-52444.248,-21401.519,-0.056,0.991,0.191,-1.068,-3.113,0.946,80.000,380.000,1.000
-17087.866,-18059.448,-104804.751,-129208.887,-98687.960,-36809.662,-52231.302,-21296.496,-0.057,0.991,0.191,-1.160,-3.113,0.854,80.000,381.000,1.000
-17004.124,-17971.652,-105178.929,-129343.743,-98658.798,-36651.232,-52015.652,-21191.828,-0.055,0.990,0.191,-1.190,-3.021,0.854,80.000,382.000,1.000
-16919.313,-17883.331,-105549.438,-129476.008,-98622.735,-36492.452,-51799.272,-21090.028,-0.058,0.991,0.191,-1.160,-3.082,0.916,80.000,383.000,1.000
-16835.172,-17796.054,-105916.813,-129605.851,-98581.499,-36335.213,-51584.558,-20992.295,-0.059,0.988,0.191,-1.129,-3.052,0.946,80.000,384.000,1.000
-16753.024,-17710.625,-106281.484,-129733.000,-98536.453,-36180.328,-51372.504,-20897.262,-0.061,0.988,0.192,-1.160,-3.052,0.824,80.000,385.000,1.000
-16673.191,-17626.914,-106643.519,-129856.833,-98487.817,-36027.255,-51162.426,-20802.135,-0.063,0.990,0.189,-1.099,-3.021,0.732,80.000,386.000,1.000
-16595.066,-17544.274,-107002.554,-129976.817,-98434.738,-35874.839,-50952.740,-20704.297,-0.064,0.992,0.192,-1.068,-3.021,0.732,80.000,387.000,1.000
-16517.624,-17462.006,-107358.046,-130092.299,-98375.768,-35721.897,-50741.838,-20602.235,-0.065,0.993,0.194,-1.190,-2.991,0.519,80.000,388.000,1.000
-16440.040,-17379.789,-107709.694,-130203.795,-98310.183,-35567.832,-50529.373,-20496.567,-0.063,0.993,0.193,-1.190,-3.143,0.366,80.000,389.000,1.000
-16361.873,-17297.552,-108057.595,-130312.570,-98238.350,-35412.546,-50316.282,-20389.767,-0.060,0.993,0.197,-1.312,-3.296,0.336,80.000,390.000,1.000
-16283.147,-17215.374,-108402.119,-130420.152,-98161.167,-35256.456,-50103.905,-20284.678,-0.061,0.993,0.198,-1.251,-3.265,0.275,80.000,391.000,1.000
-16204.038,-17133.091,-108743.614,-130527.742,-98079.139,-35100.218,-49892.732,-20182.602,-0.059,0.990,0.196,-1.160,-3.296,0.122,80.000,392.000,1.000
-16124.466,-17049.905,-109082.150,-130634.822,-97991.725,-34943.725,-49681.447,-20082.164,-0.059,0.990,0.198,-1.129,-3.296,0.153,80.000,393.000,1.000
-16044.338,-16965.138,-109417.594,-130740.232,-97898.464,-34786.517,-49468.271,-19980.797,-0.060,0.992,0.195,-1.038,-3.174,0.092,80.000,394.000,1.000
-15963.769,-16878.929,-109749.869,-130842.743,-97799.757,-34628.653,-49252.751,-19877.026,-0.056,0.991,0.198,-1.007,-3.143,0.031,80.000,395.000,1.000
-15883.099,-16792.229,-110079.047,-130941.742,-97696.585,-34471.069,-49036.369,-19771.691,-0.054,0.991,0.199,-1.007,-2.991,0.092,80.000,396.000,1.000
-15802.579,-16706.135,-110405.178,-131037.446,-97589.765,-34315.027,-48821.555,-19667.150,-0.052,0.991,0.197,-1.038,-3.021,-0.092,80.000,397.000,1.000
-15722.161,-16621.301,-110728.169,-131129.837,-97479.329,-34161.258,-48609.898,-19565.329,-0.051,0.990,0.197,-1.007,-2.899,-0.092,80.000,398.000,1.000
-15641.875,-16538.019,-111047.963,-131219.377,-97365.165,-34010.163,-48401.725,-19466.892,-0.051,0.988,0.198,-0.916,-2.686,-0.092,80.000,399.000,1.000
-15562.019,-16456.149,-111364.655,-131306.671,-97247.299,-33861.592,-48196.109,-19371.027,-0.050,0.986,0.199,-0.763,-2.502,-0.092,80.000,400.000,1.000
-15482.990,-16375.232,-111678.386,-131392.306,-97125.771,-33714.545,-47991.343,-19275.862,-0.048,0.984,0.198,-0.671,-2.380,-0.061,80.000,401.000,1.000
-15404.709,-16294.436,-111989.166,-131476.762,-97000.434,-33567.294,-47785.628,-19179.271,-0.050,0.983,0.200,-0.549,-2.167,-0.122,80.000,402.000,1.000
-15326.542,-16212.647,-112296.883,-131559.687,-96870.766,-33417.983,-47577.572,-19080.024,-0.052,0.983,0.199,-0.488,-2.075,0.031,80.000,403.000,1.000
-15248.264,-16129.543,-112601.530,-131641.284,-96736.825,-33266.361,-47367.592,-18979.542,-0.054,0.981,0.200,-0.397,-1.953,-0.031,80.000,404.000,1.000
-15170.356,-16045.898,-112903.227,-131722.064,-96599.362,-33114.070,-47157.783,-18881.047,-0.054,0.982,0.200,-0.244,-1.831,-0.092,80.000,405.000,1.000
-15093.279,-15962.660,-113201.976,-131801.948,-96458.919,-32962.974,-46949.923,-18786.414,-0.058,0.981,0.202,-0.061,-1.648,-0.061,80.000,406.000,1.000
-15016.728,-15879.912,-113497.523,-131879.920,-96315.303,-32813.455,-46743.937,-18694.309,-0.060,0.980,0.202,-0.061,-1.617,-0.122,80.000,407.000,1.000
-14939.777,-15796.894,-113789.521,-131954.058,-96167.732,-32664.199,-46538.125,-18601.205,-0.060,0.984,0.197,0.000,-1.617,-0.305,80.000,408.000,1.000
-14861.680,-15713.077,-114077.851,-132023.542,-96015.873,-32513.929,-46331.101,-18504.171,-0.061,0.984,0.196,0.214,-1.556,-0.305,80.000,409.000,1.000
-14782.253,-15628.651,-114362.749,-132088.764,-95859.995,-32362.447,-46122.781,-18402.591,-0.063,0.984,0.197,0.244,-1.526,-0.275,80.000,410.000,1.000
-14702.202,-15544.612,-114644.721,-132150.996,-95700.653,-32210.697,-45914.310,-18298.521,-0.061,0.986,0.197,0.275,-1.556,-0.366,80.000,411.000,1.000
-14622.997,-15462.329,-114924.247,-132211.743,-95538.277,-32060.187,-45707.254,-18195.362,-0.061,0.985,0.198,0.244,-1.648,-0.336,80.000,412.000,1.000
-14545.856,-15382.572,-115201.493,-132270.943,-95372.646,-31911.871,-45502.330,-18095.448,-0.060,0.984,0.197,0.397,-1.617,-0.397,80.000,413.000,1.000
-14470.880,-15305.074,-115476.311,-132327.367,-95203.391,-31765.800,-45299.338,-17999.106,-0.059,0.983,0.199,0.519,-1.617,-0.397,80.000,414.000,1.000
-14397.062,-15228.668,-115748.364,-132379.024,-95030.196,-31621.022,-45097.313,-17904.909,-0.060,0.984,0.197,0.458,-1.617,-0.427,80.000,415.000,1.000
-14323.310,-15152.159,-116017.331,-132424.577,-94852.947,-31476.329,-44895.216,-17810.969,-0.059,0.983,0.197,0.519,-1.587,-0.427,80.000,416.000,1.000
-14249.082,-15074.771,-116283.086,-132464.142,-94671.676,-31330.943,-44692.473,-17716.001,-0.059,0.985,0.196,0.580,-1.526,-0.366,80.000,417.000,1.000
-14174.206,-14995.785,-116545.653,-132497.824,-94485.794,-31183.942,-44488.303,-17619.036,-0.060,0.987,0.197,0.763,-1.526,-0.183,80.000,418.000,1.000
-14098.793,-14914.788,-116805.143,-132525.855,-94294.454,-31034.450,-44281.865,-17519.529,-0.058,0.989,0.194,0.732,-1.404,-0.183,80.000,419.000,1.000
-14023.003,-14832.077,-117061.703,-132548.200,-94097.085,-30882.171,-44072.736,-17417.643,-0.056,0.991,0.198,0.732,-1.434,-0.092,80.000,420.000,1.000
-13946.892,-14748.697,-117315.442,-132564.816,-93893.627,-30727.700,-43861.317,-17314.516,-0.055,0.992,0.196,0.763,-1.404,0.000,80.000,421.000,1.000
-13870.446,-14665.852,-117566.395,-132576.566,-93684.682,-30572.337,-43648.893,-17211.997,-0.055,0.992,0.198,0.732,-1.221,0.092,80.000,422.000,1.000
-13793.802,-14584.322,-117814.522,-132585.076,-93471.381,-30417.444,-43436.953,-17111.612,-0.055,0.990,0.198,0.702,-1.190,0.183,80.000,423.000,1.000
-13717.464,-14504.528,-118059.781,-132592.916,-93255.420,-30264.351,-43226.875,-17014.113,-0.056,0.988,0.195,0.732,-1.068,0.275,80.000,424.000,1.000
-13641.848,-14426.246,-118302.138,-132601.824,-93038.183,-30113.753,-43019.281,-16918.998,-0.057,0.987,0.192,0.763,-0.977,0.427,80.000,425.000,1.000
-13567.019,-14348.673,-118541.577,-132612.096,-92820.188,-29965.424,-42813.860,-16824.661,-0.058,0.989,0.193,0.824,-0.885,0.488,80.000,426.000,1.000
-13492.887,-14271.003,-118778.125,-132623.483,-92601.426,-29818.664,-42609.903,-16729.597,-0.058,0.990,0.193,0.824,-0.916,0.458,80.000,427.000,1.000
-13419.414,-14192.811,-119011.837,-132635.193,-92381.359,-29672.569,-42406.565,-16633.451,-0.058,0.990,0.196,0.702,-0.702,0.580,80.000,428.000,1.000
-13346.564,-14114.033,-119242.661,-132646.696,-92158.913,-29526.350,-42203.137,-16537.139,-0.056,0.990,0.194,0.641,-0.702,0.671,80.000,429.000,1.000
-13273.982,-14034.472,-119470.331,-132657.356,-91932.436,-29379.126,-41998.819,-16441.609,-0.056,0.990,0.192,0.671,-0.580,0.793,80.000,430.000,1.000
-13201.394,-13954.163,-119694.642,-132666.858,-91700.757,-29230.458,-41793.278,-16347.365,-0.057,0.990,0.192,0.610,-0.519,0.946,80.000,431.000,1.000
-13128.877,-13873.788,-119915.746,-132675.408,-91464.085,-29081.019,-41587.273,-16254.738,-0.056,0.991,0.195,0.458,-0.427,0.946,80.000,432.000,1.000
-13056.470,-13794.141,-120134.023,-132682.228,-91223.265,-28931.874,-41381.782,-16163.459,-0.056,0.988,0.193,0.397,-0.366,0.916,80.000,433.000,1.000
-12984.032,-13715.682,-120349.799,-132686.047,-90979.235,-28783.857,-41177.331,-16072.389,-0.059,0.989,0.194,0.366,-0.366,0.916,80.000,434.000,1.000
-12911.300,-13638.264,-120563.084,-132685.326,-90732.503,-28637.211,-40973.661,-15979.672,-0.061,0.989,0.196,0.305,-0.366,1.007,80.000,435.000,1.000
-12838.336,-13561.586,-120773.694,-132679.329,-90483.440,-28492.117,-40770.640,-15884.460,-0.061,0.987,0.196,0.244,-0.244,1.129,80.000,436.000,1.000
-12765.764,-13485.800,-120981.585,-132669.064,-90232.828,-28349.313,-40569.425,-15788.727,-0.060,0.987,0.195,0.153,-0.244,1.160,80.000,437.000,1.000
-12694.297,-13411.227,-121186.873,-132655.960,-89980.907,-28209.224,-40371.429,-15696.104,-0.060,0.987,0.195,0.061,-0.305,1.160,80.000,438.000,1.000
-12624.100,-13337.738,-121389.707,-132641.413,-89727.000,-28071.182,-40176.729,-15608.883,-0.062,0.985,0.194,0.061,-0.336,1.068,80.000,439.000,1.000
-12554.385,-13264.192,-121590.125,-132625.747,-89469.974,-27933.217,-39983.295,-15525.784,-0.062,0.984,0.193,0.092,-0.336,1.129,80.000,440.000,1.000
-12483.852,-13188.968,-121787.892,-132608.198,-89208.738,-27792.933,-39787.888,-15442.751,-0.062,0.985,0.194,0.092,-0.305,1.038,80.000,441.000,1.000
-12411.471,-13111.034,-121982.566,-132587.478,-88942.480,-27648.915,-39587.904,-15355.584,-0.059,0.986,0.195,0.092,-0.366,1.099,80.000,442.000,1.000
-12337.051,-13030.668,-122173.894,-132561.846,-88670.902,-27501.493,-39382.875,-15262.347,-0.060,0.987,0.194,0.183,-0.427,1.160,80.000,443.000,1.000
-12261.532,-12949.641,-122362.055,-132531.085,-88394.898,-27352.866,-39175.316,-15165.107,-0.057,0.987,0.194,0.092,-0.336,1.129,80.000,444.000,1.000
-12186.322,-12870.005,-122547.385,-132496.502,-88115.818,-27205.509,-38968.878,-15068.709,-0.057,0.989,0.193,0.122,-0.336,1.282,80.000,445.000,1.000
-12112.444,-12792.713,-122730.108,-132459.923,-87834.595,-27060.571,-38765.682,-14977.395,-0.057,0.989,0.192,0.153,-0.183,1.282,80.000,446.000,1.000
-12040.189,-12717.167,-122910.380,-132422.819,-87551.781,-26917.635,-38565.486,-14892.099,-0.056,0.991,0.195,0.214,-0.061,1.434,80.000,447.000,1.000
-11969.216,-12641.835,-123088.284,-132385.117,-87267.262,-26775.189,-38366.376,-14810.041,-0.056,0.991,0.194,0.031,-0.061,1.434,80.000,448.000,1.000
-11898.959,-12565.622,-123263.717,-132346.215,-86980.345,-26632.119,-38166.675,-14727.152,-0.055,0.988,0.194,0.000,-0.122,1.526,80.000,449.000,1.000
-11828.847,-12488.506,-123436.435,-132305.395,-86690.149,-26488.551,-37966.106,-14640.768,-0.054,0.985,0.194,-0.031,0.031,1.556,80.000,450.000,1.000
-11758.428,-12411.195,-123606.295,-132262.296,-86396.290,-26345.436,-37765.526,-14550.641,-0.054,0.982,0.194,0.092,0.153,1.740,80.000,451.000,1.000
-11687.045,-12334.078,-123773.286,-132216.697,-86098.861,-26203.173,-37565.441,-14457.725,-0.054,0.985,0.194,0.122,0.275,1.770,80.000,452.000,1.000
-11613.862,-12256.698,-123937.410,-132167.592,-85797.854,-26060.824,-37365.012,-14362.777,-0.056,0.985,0.193,0.183,0.244,1.831,80.000,453.000,1.000
-11539.004,-12178.746,-124098.846,-132114.939,-85493.960,-25917.618,-37163.637,-14267.103,-0.060,0.986,0.194,0.214,0.275,1.831,80.000,454.000,1.000
-11463.955,-12100.700,-124257.939,-132059.829,-85188.584,-25773.907,-36962.164,-14172.988,-0.060,0.986,0.196,0.183,0.305,1.648,80.000,455.000,1.000
-11390.419,-12023.345,-124414.817,-132003.411,-84882.618,-25630.469,-36762.217,-14082.453,-0.062,0.990,0.192,0.214,0.183,1.587,80.000,456.000,1.000
-11318.875,-11946.945,-124569.203,-131945.897,-84575.656,-25487.536,-36564.696,-13995.411,-0.064,0.990,0.194,0.092,0.092,1.434,80.000,457.000,1.000
-11248.518,-11871.156,-124720.729,-131886.073,-84266.309,-25344.602,-36368.931,-13909.378,-0.063,0.990,0.191,0.000,0.000,1.465,80.000,458.000,1.000
-11178.482,-11795.749,-124869.382,-131823.421,-83953.711,-25201.398,-36173.796,-13821.837,-0.063,0.990,0.193,0.000,0.000,1.312,80.000,459.000,1.000
-11108.454,-11720.769,-125015.488,-131758.493,-83637.912,-25058.178,-35978.542,-13731.953,-0.062,0.990,0.194,-0.092,-0.122,1.160,80.000,460.000,1.000
-11038.642,-11646.570,-125159.412,-131692.397,-83319.471,-24915.761,-35783.007,-13640.437,-0.062,0.989,0.194,-0.061,-0.305,1.099,80.000,461.000,1.000
-10969.335,-11573.609,-125301.279,-131626.122,-82998.958,-24775.265,-35587.462,-13548.401,-0.063,0.988,0.196,-0.092,-0.275,1.007,80.000,462.000,1.000
-10900.355,-11501.731,-125440.843,-131559.129,-82676.188,-24636.849,-35391.796,-13456.271,-0.062,0.988,0.196,-0.122,-0.427,0.916,80.000,463.000,1.000
-10831.057,-11429.942,-125577.685,-131490.150,-82350.657,-24499.370,-35195.519,-13364.064,-0.062,0.986,0.195,-0.214,-0.397,0.854,80.000,464.000,1.000
-10760.744,-11356.774,-125711.562,-131417.539,-82022.134,-24360.930,-34997.981,-13271.752,-0.060,0.986,0.192,-0.122,-0.488,0.946,80.000,465.000,1.000
-10689.619,-11281.661,-125842.636,-131340.397,-81690.935,-24220.306,-34799.179,-13179.768,-0.059,0.988,0.195,-0.122,-0.610,0.916,80.000,466.000,1.000
-10619.085,-11205.894,-125971.358,-131259.734,-81357.804,-24078.173,-34600.571,-13089.370,-0.057,0.988,0.193,-0.153,-0.549,0.946,80.000,467.000,1.000
-10550.640,-11131.525,-126098.111,-131177.323,-81023.166,-23936.405,-34404.084,-13001.745,-0.055,0.989,0.196,-0.153,-0.549,1.007,80.000,468.000,1.000
-10484.615,-11059.536,-126222.941,-131094.726,-80686.913,-23796.576,-34210.527,-12916.914,-0.054,0.989,0.196,-0.214,-0.427,1.160,80.000,469.000,1.000
-10419.744,-10989.011,-126345.498,-131011.563,-80348.159,-23658.587,-34018.617,-12833.200,-0.053,0.988,0.195,-0.244,-0.366,1.282,80.000,470.000,1.000
-10354.099,-10918.247,-126465.319,-130926.166,-80005.914,-23521.032,-33826.125,-12748.459,-0.053,0.987,0.197,-0.214,-0.305,1.282,80.000,471.000,1.000
-10286.416,-10846.117,-126582.190,-130837.855,-79660.268,-23382.628,-33631.800,-12661.775,-0.054,0.989,0.196,-0.153,-0.366,1.373,80.000,472.000,1.000
-10216.668,-10772.384,-126696.204,-130747.137,-79312.132,-23242.833,-33435.746,-12573.621,-0.055,0.990,0.197,-0.092,-0.275,1.526,80.000,473.000,1.000
-10145.829,-10697.608,-126807.622,-130655.425,-78962.451,-23102.114,-33239.139,-12485.199,-0.057,0.990,0.198,-0.031,-0.214,1.556,80.000,474.000,1.000
-10075.088,-10622.686,-126916.737,-130563.052,-78611.436,-22961.496,-33043.159,-12397.149,-0.056,0.988,0.197,-0.183,-0.183,1.434,80.000,475.000,1.000
-10005.402,-10548.453,-127023.809,-130468.912,-78258.809,-22822.101,-32848.216,-12309.096,-0.057,0.988,0.198,-0.061,-0.092,1.465,80.000,476.000,1.000
-9937.198,-10475.190,-127128.959,-130371.833,-77904.351,-22684.602,-32654.033,-12220.526,-0.058,0.989,0.197,-0.183,-0.061,1.404,80.000,477.000,1.000
-9870.245,-10402.513,-127232.023,-130271.113,-77547.664,-22548.608,-32460.111,-12131.836,-0.059,0.988,0.198,-0.183,-0.153,1.373,80.000,478.000,1.000
-9804.050,-10330.181,-127332.737,-130167.515,-77188.476,-22413.368,-32266.665,-12044.518,-0.062,0.986,0.199,-0.214,-0.244,1.312,80.000,479.000,1.000
-9737.980,-10258.322,-127430.985,-130061.959,-76826.597,-22278.255,-32074.225,-11959.356,-0.063,0.985,0.198,-0.244,-0.336,1.282,80.000,480.000,1.000
-9671.429,-10187.227,-127526.883,-129954.747,-76461.887,-22142.973,-31883.051,-11875.631,-0.061,0.982,0.198,-0.214,-0.366,1.251,80.000,481.000,1.000
-9603.915,-10116.826,-127620.673,-129846.062,-76094.651,-22007.598,-31693.089,-11792.115,-0.062,0.984,0.196,-0.214,-0.305,1.190,80.000,482.000,1.000
-9534.947,-10046.140,-127712.624,-129735.455,-75725.317,-21871.848,-31503.436,-11707.421,-0.063,0.985,0.197,-0.122,-0.366,1.129,80.000,483.000,1.000
-9464.430,-9973.982,-127803.778,-129622.736,-75354.210,-21735.232,-31312.870,-11620.519,-0.064,0.985,0.195,-0.092,-0.488,0.977,80.000,484.000,1.000
-9393.286,-9900.273,-127898.386,-129508.137,-74981.314,-21597.782,-31120.974,-11531.630,-0.064,0.985,0.195,-0.092,-0.610,0.885,80.000,485.000,1.000
-9323.410,-9826.549,-128003.933,-129392.495,-74606.513,-21460.603,-30928.760,-11442.528,-0.060,0.986,0.193,-0.061,-0.641,0.977,80.000,486.000,1.000
-9256.441,-9754.719,-128127.324,-129276.955,-74230.066,-21325.319,-30737.978,-11355.323,-0.058,0.987,0.193,-0.092,-0.732,0.977,80.000,487.000,1.000
-9192.596,-9685.483,-128282.841,-129161.576,-73852.331,-21192.738,-30549.574,-11270.835,-0.057,0.986,0.194,-0.031,-0.702,1.038,80.000,488.000,1.000
-9130.668,-9618.073,-128507.759,-129045.831,-73473.410,-21062.452,-30363.221,-11188.521,-0.059,0.988,0.193,0.061,-0.671,1.038,80.000,489.000,1.000
-9068.545,-9550.495,-128847.086,-128928.620,-73092.333,-20932.521,-30177.055,-11106.621,-0.059,0.990,0.196,0.061,-0.763,1.129,80.000,490.000,1.000
-9004.271,-9480.561,-129307.492,-128809.504,-72707.513,-20800.149,-29988.459,-11022.904,-0.060,0.990,0.195,0.122,-0.763,1.160,80.000,491.000,1.000
-8937.172,-9407.447,-129835.008,-128689.976,-72318.658,-20663.845,-29796.246,-10936.404,-0.059,0.994,0.195,0.031,-0.732,1.099,80.000,492.000,1.000
-8868.315,-9332.494,-130355.123,-128571.731,-71927.526,-20524.890,-29601.868,-10848.439,-0.058,0.992,0.196,-0.031,-0.885,1.099,80.000,493.000,1.000
-8799.976,-9258.430,-130837.763,-128455.104,-71536.999,-20386.766,-29408.713,-10761.981,-0.057,0.994,0.196,-0.061,-0.854,1.190,80.000,494.000,1.000
-8733.958,-9187.076,-131308.522,-128337.386,-71148.637,-20252.126,-29219.309,-10679.207,-0.056,0.991,0.196,-0.122,-0.854,1.282,80.000,495.000,1.000
-8670.560,-9118.245,-131799.713,-128213.937,-70761.401,-20120.804,-29033.590,-10600.155,-0.056,0.991,0.194,-0.183,-0.824,1.343,80.000,496.000,1.000
-8608.821,-9050.571,-132307.764,-128081.274,-70372.669,-19990.758,-28849.729,-10523.401,-0.056,0.989,0.193,-0.244,-0.793,1.404,80.000,497.000,1.000
-8547.318,-8982.646,-132803.793,-127938.495,-69979.813,-19859.802,-28665.455,-10446.769,-0.056,0.987,0.196,-0.214,-0.702,1.465,80.000,498.000,1.000
-8484.872,-8913.645,-133274.638,-127788.048,-69581.654,-19726.681,-28479.003,-10367.864,-0.057,0.988,0.193,-0.153,-0.702,1.526,80.000,499.000,1.000
-8420.758,-8843.340,-133734.579,-127633.937,-69178.586,-19591.041,-28289.374,-10284.725,-0.058,0.987,0.196,-0.061,-0.610,1.465,80.000,500.000,1.000
-8355.109,-8772.516,-134200.541,-127480.257,-68772.368,-19453.929,-28097.300,-10197.376,-0.058,0.988,0.197,-0.122,-0.610,1.343,80.000,501.000,1.000
-8288.837,-8702.581,-134670.200,-127330.293,-68365.426,-19317.631,-27905.348,-10108.134,-0.058,0.989,0.195,-0.122,-0.519,1.343,80.000,502.000,1.000
-8222.694,-8634.013,-135126.690,-127184.571,-67959.031,-19183.523,-27715.548,-10019.471,-0.058,0.990,0.195,-0.122,-0.549,1.495,80.000,503.000,1.000
-8156.896,-8566.071,-135559.993,-127041.460,-67552.952,-19051.285,-27528.232,-9932.807,-0.059,0.988,0.195,-0.244,-0.519,1.404,80.000,504.000,1.000
-8091.369,-8497.663,-135974.716,-126898.094,-67146.214,-18919.714,-27342.595,-9848.544,-0.058,0.987,0.195,-0.214,-0.580,1.434,80.000,505.000,1.000
-8026.172,-8428.264,-136380.766,-126751.986,-66737.895,-18787.770,-27157.663,-9766.442,-0.057,0.984,0.196,-0.183,-0.580,1.404,80.000,506.000,1.000
-7961.491,-8358.098,-136783.501,-126602.367,-66327.380,-18655.020,-26972.744,-9685.898,-0.058,0.984,0.198,-0.183,-0.519,1.465,80.000,507.000,1.000
-7897.221,-8287.532,-137180.922,-126449.329,-65913.897,-18521.193,-26786.963,-9605.746,-0.058,0.983,0.195,-0.092,-0.580,1.526,80.000,508.000,1.000
-7832.860,-8216.707,-137568.402,-126293.799,-65496.971,-18386.207,-26599.530,-9524.556,-0.058,0.983,0.196,-0.031,-0.488,1.465,80.000,509.000,1.000
-7767.842,-8145.584,-137942.597,-126136.691,-65076.941,-18250.325,-26410.376,-9441.414,-0.057,0.985,0.196,-0.031,-0.549,1.343,80.000,510.000,1.000
-7702.261,-8074.465,-138304.556,-125978.672,-64655.042,-18114.519,-26220.745,-9357.133,-0.058,0.987,0.195,0.061,-0.488,1.343,80.000,511.000,1.000
-7636.957,-8004.050,-138660.982,-125820.276,-64233.001,-17980.349,-26032.824,-9274.262,-0.056,0.987,0.199,0.061,-0.519,1.465,80.000,512.000,1.000
-7572.816,-7934.947,-139018.207,-125661.127,-63812.133,-17848.960,-25848.244,-9195.131,-0.055,0.987,0.198,0.000,-0.549,1.465,80.000,513.000,1.000
-7510.198,-7867.433,-139375.759,-125500.754,-63393.025,-17720.641,-25667.355,-9120.145,-0.056,0.986,0.193,-0.031,-0.549,1.587,80.000,514.000,1.000
-7448.593,-7800.945,-139725.809,-125338.275,-62975.000,-17594.434,-25488.801,-9047.110,-0.057,0.987,0.194,-0.061,-0.580,1.526,80.000,515.000,1.000
-7386.966,-7734.256,-140062.388,-125172.604,-62556.157,-17468.553,-25310.182,-8972.627,-0.057,0.987,0.197,0.000,-0.519,1.465,80.000,516.000,1.000
-7324.359,-7666.313,-140389.640,-125003.344,-62134.361,-17341.459,-25129.643,-8894.370,-0.056,0.986,0.199,0.092,-0.519,1.465,80.000,517.000,1.000
-7260.464,-7596.986,-140715.548,-124830.753,-61708.343,-17212.431,-24946.735,-8812.055,-0.057,0.988,0.197,0.122,-0.458,1.465,80.000,518.000,1.000
-7196.075,-7527.542,-141041.344,-124656.803,-61279.164,-17082.297,-24762.956,-8727.542,-0.059,0.987,0.198,0.153,-0.610,1.434,80.000,519.000,1.000
-7132.372,-7459.762,-141359.609,-124483.873,-60849.678,-16952.969,-24580.795,-8643.680,-0.059,0.986,0.198,0.275,-0.580,1.282,80.000,520.000,1.000
-7069.928,-7394.551,-141665.213,-124312.766,-60422.175,-16825.984,-24401.881,-8562.613,-0.058,0.985,0.196,0.244,-0.549,1.251,80.000,521.000,1.000
-7008.553,-7331.341,-141964.577,-124142.279,-59996.865,-16701.517,-24225.951,-8484.661,-0.056,0.984,0.197,0.244,-0.549,1.312,80.000,522.000,1.000
-6947.865,-7268.696,-142267.573,-123969.851,-59572.122,-16578.473,-24051.159,-8408.339,-0.054,0.986,0.196,0.305,-0.610,1.312,80.000,523.000,1.000
-6887.779,-7205.573,-142573.943,-123794.136,-59146.133,-16455.798,-23875.816,-8331.976,-0.054,0.986,0.195,0.244,-0.549,1.343,80.000,524.000,1.000
-6828.246,-7141.613,-142871.545,-123615.394,-58717.817,-16332.961,-23699.308,-8255.050,-0.054,0.986,0.194,0.183,-0.519,1.343,80.000,525.000,1.000
-6769.037,-7076.736,-143151.394,-123434.904,-58287.124,-16209.717,-23521.917,-8178.268,-0.056,0.986,0.194,0.214,-0.549,1.343,80.000,526.000,1.000
-6709.653,-7010.744,-143419.976,-123254.104,-57854.745,-16085.732,-23344.105,-8102.325,-0.055,0.986,0.195,0.244,-0.458,1.404,80.000,527.000,1.000
-6649.496,-6943.645,-143690.112,-123073.146,-57421.199,-15960.612,-23165.980,-8026.856,-0.056,0.989,0.194,0.214,-0.458,1.282,80.000,528.000,1.000
-6588.505,-6876.428,-143964.568,-122891.579,-56986.787,-15834.775,-22987.957,-7951.237,-0.056,0.990,0.195,0.214,-0.458,1.312,80.000,529.000,1.000
-6527.088,-6810.333,-144232.358,-122708.017,-56551.268,-15708.943,-22810.476,-7875.013,-0.057,0.989,0.195,0.214,-0.427,1.373,80.000,530.000,1.000
-6465.673,-6745.740,-144483.683,-122520.698,-56113.859,-15583.260,-22633.402,-7797.841,-0.058,0.988,0.195,0.244,-0.519,1.282,80.000,531.000,1.000
-6404.439,-6682.047,-144723.713,-122329.134,-55674.058,-15457.505,-22456.336,-7719.766,-0.057,0.989,0.196,0.244,-0.519,1.343,80.000,532.000,1.000
-6343.485,-6618.364,-144964.748,-122134.150,-55231.904,-15331.517,-22279.069,-7641.419,-0.058,0.992,0.194,0.153,-0.458,1.221,80.000,533.000,1.000
-6283.321,-6554.437,-145210.044,-121938.130,-54788.036,-15205.819,-22102.208,-7564.273,-0.059,0.989,0.195,0.092,-0.549,1.190,80.000,534.000,1.000
-6224.524,-6490.432,-145449.754,-121743.340,-54343.165,-15081.251,-21926.610,-7489.680,-0.060,0.989,0.195,0.031,-0.427,1.221,80.000,535.000,1.000
-6167.063,-6426.374,-145674.914,-121550.681,-53897.774,-14958.121,-21752.446,-7417.512,-0.060,0.989,0.197,-0.061,-0.458,1.190,80.000,536.000,1.000
-6110.077,-6361.955,-145890.036,-121359.715,-53451.918,-14835.736,-21578.887,-7345.957,-0.061,0.990,0.196,-0.092,-0.519,1.221,80.000,537.000,1.000
-6052.390,-6296.691,-146105.405,-121168.560,-53004.739,-14712.540,-21404.414,-7272.778,-0.060,0.988,0.195,-0.092,-0.488,1.190,80.000,538.000,1.000
-5993.452,-6230.543,-146322.691,-120975.529,-52555.251,-14587.498,-21228.188,-7197.168,-0.059,0.988,0.195,-0.092,-0.580,1.099,80.000,539.000,1.000
-5933.592,-6164.065,-146532.365,-120779.401,-52103.360,-14460.863,-21050.520,-7119.813,-0.061,0.988,0.200,-0.122,-0.549,1.221,80.000,540.000,1.000
-5873.720,-6098.276,-146727.247,-120579.685,-51650.346,-14334.139,-20872.645,-7042.189,-0.062,0.987,0.198,-0.092,-0.732,1.190,80.000,541.000,1.000
-5814.608,-6034.038,-146913.564,-120376.983,-51198.199,-14209.209,-20696.157,-6966.003,-0.062,0.986,0.197,-0.244,-0.732,1.160,80.000,542.000,1.000
-5756.359,-5971.525,-147102.683,-120172.018,-50747.956,-14087.040,-20522.015,-6892.395,-0.061,0.985,0.197,-0.244,-0.732,1.190,80.000,543.000,1.000
-5698.709,-5910.670,-147297.074,-119965.833,-50299.261,-13967.755,-20350.458,-6821.636,-0.060,0.984,0.198,-0.336,-0.885,1.251,80.000,544.000,1.000
-5641.114,-5850.964,-147487.068,-119758.592,-49850.407,-13850.413,-20180.549,-6752.410,-0.058,0.985,0.196,-0.275,-1.007,1.160,80.000,545.000,1.000
-5582.825,-5791.133,-147663.106,-119549.306,-49399.025,-13732.915,-20010.177,-6681.884,-0.056,0.985,0.197,-0.183,-1.007,1.312,80.000,546.000,1.000
-5523.375,-5729.897,-147827.707,-119337.221,-48943.652,-13613.386,-19837.668,-6607.790,-0.055,0.985,0.198,-0.183,-0.977,1.373,80.000,547.000,1.000
-5463.068,-5666.968,-147990.450,-119122.248,-48484.705,-13491.447,-19663.143,-6530.532,-0.056,0.988,0.196,-0.122,-1.068,1.434,80.000,548.000,1.000
-5402.941,-5603.210,-148156.083,-118905.676,-48024.393,-13368.329,-19488.574,-6453.227,-0.055,0.987,0.195,-0.122,-1.129,1.434,80.000,549.000,1.000
-5343.996,-5539.829,-148318.132,-118689.086,-47564.854,-13245.673,-19316.049,-6379.051,-0.056,0.989,0.192,-0.061,-1.190,1.434,80.000,550.000,1.000
-5286.800,-5477.912,-148461.948,-118473.848,-47106.991,-13124.977,-19146.593,-6309.084,-0.057,0.988,0.196,-0.031,-1.190,1.556,80.000,551.000,1.000
-5231.332,-5417.963,-148572.225,-118260.874,-46650.839,-13007.468,-18980.147,-6242.200,-0.055,0.988,0.198,-0.031,-1.099,1.526,80.000,552.000,1.000
-5176.803,-5359.332,-148639.745,-118049.107,-46195.571,-12893.155,-18815.460,-6175.932,-0.056,0.988,0.197,0.000,-1.129,1.648,80.000,553.000,1.000
-5122.049,-5300.747,-148664.453,-117836.834,-45739.880,-12780.769,-18650.917,-6108.279,-0.058,0.986,0.194,0.031,-1.068,1.678,80.000,554.000,1.000
-5066.233,-5241.183,-148649.841,-117623.046,-45282.595,-12668.441,-18485.445,-6038.740,-0.057,0.987,0.196,0.061,-1.099,1.709,80.000,555.000,1.000
-5009.548,-5180.568,-148601.618,-117408.171,-44823.499,-12554.828,-18319.134,-5968.093,-0.056,0.987,0.197,0.031,-1.190,1.617,80.000,556.000,1.000
-4953.092,-5119.781,-148532.116,-117193.749,-44363.444,-12439.795,-18153.093,-5897.593,-0.056,0.988,0.198,0.092,-1.129,1.617,80.000,557.000,1.000
-4897.911,-5059.871,-148454.685,-116980.565,-43903.192,-12323.798,-17988.232,-5828.112,-0.058,0.990,0.197,0.092,-1.099,1.587,80.000,558.000,1.000
-4844.311,-5001.406,-148374.323,-116768.528,-43442.924,-12207.547,-17824.751,-5759.949,-0.058,0.990,0.198,0.122,-1.038,1.465,80.000,559.000,1.000
-4791.572,-4943.926,-148287.223,-116556.001,-42982.203,-12091.562,-17661.931,-5692.396,-0.057,0.990,0.198,0.122,-1.099,1.312,80.000,560.000,1.000
-4738.440,-4886.294,-148191.866,-116340.391,-42520.431,-11975.926,-17498.638,-5624.168,-0.057,0.992,0.200,0.092,-1.129,1.282,80.000,561.000,1.000
-4683.998,-4827.646,-148096.587,-116120.033,-42057.477,-11860.561,-17334.333,-5554.650,-0.057,0.992,0.199,0.122,-1.099,1.343,80.000,562.000,1.000
-4628.201,-4767.892,-148011.237,-115894.590,-41593.499,-11745.408,-17169.130,-5484.007,-0.056,0.990,0.197,0.000,-1.099,1.343,80.000,563.000,1.000
-4571.716,-4707.546,-147936.671,-115665.568,-41128.873,-11630.595,-17003.567,-5412.714,-0.056,0.992,0.199,0.000,-1.068,1.312,80.000,564.000,1.000
-4515.002,-4646.896,-147864.548,-115434.912,-40663.861,-11515.909,-16838.075,-5341.200,-0.055,0.991,0.198,0.061,-1.068,1.282,80.000,565.000,1.000
-4458.069,-4585.952,-147788.168,-115203.945,-40198.555,-11400.862,-16672.970,-5270.081,-0.055,0.990,0.198,-0.092,-0.916,1.282,80.000,566.000,1.000
-4400.896,-4524.799,-147710.037,-114973.122,-39732.812,-11285.119,-16508.497,-5199.921,-0.055,0.990,0.200,-0.122,-0.946,1.221,80.000,567.000,1.000
-4343.696,-4463.484,-147635.552,-114741.459,-39265.864,-11168.315,-16344.451,-5130.566,-0.057,0.988,0.199,-0.092,-0.977,1.221,80.000,568.000,1.000
-4287.072,-4402.184,-147565.185,-114508.200,-38797.216,-11050.567,-16180.798,-5061.739,-0.057,0.986,0.201,-0.061,-0.946,1.190,80.000,569.000,1.000
-4231.763,-4341.241,-147493.765,-114273.182,-38327.142,-10932.576,-16017.738,-4993.279,-0.058,0.986,0.201,0.061,-1.038,1.312,80.000,570.000,1.000
-4178.366,-4281.169,-147417.707,-114036.692,-37856.489,-10815.338,-15855.387,-4924.870,-0.057,0.986,0.200,0.122,-1.038,1.221,80.000,571.000,1.000
-4127.144,-4222.591,-147340.544,-113799.493,-37386.415,-10699.999,-15693.970,-4856.080,-0.058,0.986,0.199,0.214,-0.977,1.312,80.000,572.000,1.000
-4077.870,-4165.893,-147267.782,-113562.008,-36917.647,-10587.343,-15533.791,-4786.775,-0.058,0.986,0.199,0.183,-1.068,1.251,80.000,573.000,1.000
-4029.864,-4110.964,-147200.548,-113324.990,-36450.297,-10477.616,-15375.347,-4717.965,-0.058,0.986,0.201,0.183,-1.007,1.099,80.000,574.000,1.000
-3981.895,-4056.736,-147134.312,-113088.668,-35983.652,-10369.949,-15218.600,-4651.024,-0.060,0.985,0.197,0.336,-1.038,1.068,80.000,575.000,1.000
-3932.571,-4001.516,-147064.298,-112852.147,-35516.369,-10262.328,-15062.424,-4586.126,-0.060,0.987,0.198,0.488,-1.068,1.068,80.000,576.000,1.000
-3881.015,-3943.996,-146990.656,-112614.082,-35047.184,-10152.649,-14905.144,-4521.806,-0.061,0.986,0.198,0.549,-1.160,1.068,80.000,577.000,1.000
-3827.290,-3883.935,-146915.735,-112372.794,-34575.352,-10039.640,-14745.227,-4455.573,-0.059,0.986,0.198,0.549,-1.312,1.038,80.000,578.000,1.000
-3772.510,-3822.380,-146840.664,-112127.676,-34101.213,-9923.617,-14582.372,-4385.793,-0.060,0.987,0.199,0.519,-1.282,1.038,80.000,579.000,1.000
-3718.281,-3761.139,-146764.360,-111879.305,-33625.893,-9806.171,-14417.852,-4313.205,-0.058,0.988,0.198,0.671,-1.373,0.946,80.000,580.000,1.000
-3666.001,-3702.078,-146686.416,-111629.436,-33150.852,-9689.496,-14254.077,-4240.859,-0.058,0.987,0.197,0.610,-1.404,0.916,80.000,581.000,1.000
-3616.113,-3646.228,-146609.504,-111380.512,-32677.575,-9575.622,-14093.485,-4172.118,-0.058,0.988,0.198,0.671,-1.343,1.038,80.000,582.000,1.000
-3567.633,-3593.001,-146536.009,-111133.441,-32206.669,-9465.327,-13936.939,-4107.994,-0.057,0.989,0.197,0.702,-1.373,0.977,80.000,583.000,1.000
-3518.762,-3540.512,-146465.720,-110887.441,-31737.769,-9358.068,-13783.564,-4046.507,-0.057,0.988,0.196,0.671,-1.434,0.946,80.000,584.000,1.000
-3467.944,-3486.496,-146395.486,-110640.367,-31269.679,-9252.136,-13631.233,-3983.995,-0.058,0.988,0.196,0.610,-1.404,1.007,80.000,585.000,1.000
-3414.857,-3429.702,-146321.766,-110390.369,-30800.766,-9145.436,-13477.655,-3917.827,-0.057,0.986,0.195,0.519,-1.373,1.160,80.000,586.000,1.000
-3360.622,-3370.800,-146243.801,-110137.689,-30329.801,-9036.915,-13321.924,-3848.568,-0.057,0.986,0.200,0.427,-1.343,1.099,80.000,587.000,1.000
-3307.103,-3311.947,-146162.683,-109884.024,-29856.569,-8927.218,-13165.009,-3779.388,-0.055,0.985,0.198,0.488,-1.343,1.129,80.000,588.000,1.000
-3255.770,-3255.462,-146080.377,-109631.713,-29382.178,-8818.172,-13008.961,-3713.473,-0.055,0.983,0.198,0.458,-1.282,1.068,80.000,589.000,1.000
-3206.614,-3202.106,-145997.626,-109381.393,-28907.792,-8710.821,-12854.763,-3651.200,-0.054,0.983,0.195,0.641,-1.282,1.099,80.000,590.000,1.000
-3158.435,-3150.855,-145913.700,-109131.633,-28433.666,-8604.592,-12701.689,-3590.464,-0.054,0.983,0.194,0.671,-1.221,1.007,80.000,591.000,1.000
-3109.839,-3099.842,-145828.163,-108880.659,-27959.481,-8498.085,-12548.510,-3529.279,-0.056,0.985,0.194,0.549,-1.221,1.038,80.000,592.000,1.000
-3059.777,-3047.168,-145740.409,-108626.769,-27484.683,-8389.750,-12394.235,-3466.861,-0.056,0.989,0.193,0.641,-1.190,1.160,80.000,593.000,1.000
-3007.879,-2991.879,-145650.635,-108369.439,-27009.289,-8279.048,-12238.877,-3403.654,-0.055,0.991,0.193,0.610,-1.099,1.160,80.000,594.000,1.000
-2954.401,-2934.402,-145559.467,-108109.046,-26533.841,-8166.905,-12083.443,-3340.992,-0.056,0.990,0.196,0.580,-1.007,1.099,80.000,595.000,1.000
-2900.224,-2876.457,-145467.555,-107846.746,-26058.977,-8055.243,-11929.300,-3280.677,-0.059,0.992,0.194,0.488,-1.068,1.038,80.000,596.000,1.000
-2846.474,-2819.988,-145376.010,-107584.303,-25585.218,-7945.715,-11777.262,-3223.820,-0.058,0.992,0.194,0.488,-1.099,0.946,80.000,597.000,1.000
-2793.607,-2765.544,-145284.769,-107322.281,-25112.238,-7838.046,-11626.456,-3169.433,-0.057,0.990,0.195,0.366,-1.038,0.916,80.000,598.000,1.000
-2741.254,-2712.200,-145193.130,-107060.238,-24638.995,-7730.514,-11475.068,-3115.087,-0.057,0.989,0.196,0.275,-1.007,0.885,80.000,599.000,1.000
-2688.901,-2658.687,-145099.930,-106797.087,-24164.303,-7621.722,-11321.862,-3058.434,-0.055,0.987,0.196,0.183,-0.916,0.854,80.000,600.000,1.000
-2636.815,-2604.591,-145003.964,-106532.123,-23687.638,-7512.081,-11167.343,-2998.503,-0.053,0.985,0.196,0.122,-0.854,0.824,80.000,601.000,1.000
-2585.874,-2550.304,-144904.985,-106265.702,-23209.624,-7403.521,-11013.486,-2935.947,-0.052,0.985,0.197,0.031,-0.793,0.824,80.000,602.000,1.000
-2536.463,-2496.036,-144802.762,-105998.020,-22731.314,-7297.390,-10861.749,-2871.757,-0.053,0.985,0.194,0.000,-0.702,0.977,80.000,603.000,1.000
-2488.164,-2441.692,-144698.084,-105729.464,-22253.822,-7193.545,-10712.282,-2806.635,-0.054,0.985,0.194,-0.092,-0.671,1.007,80.000,604.000,1.000
-2440.070,-2387.018,-144592.109,-105460.192,-21777.858,-7090.612,-10564.209,-2741.037,-0.055,0.985,0.195,0.031,-0.610,1.251,80.000,605.000,1.000
-2391.108,-2331.661,-144484.987,-105189.824,-21303.232,-6986.796,-10416.111,-2675.292,-0.057,0.989,0.195,0.061,-0.488,1.160,80.000,606.000,1.000
-2340.187,-2275.190,-144375.979,-104917.804,-20828.883,-6880.693,-10266.486,-2609.532,-0.058,0.991,0.197,0.122,-0.610,1.251,80.000,607.000,1.000
-2286.732,-2217.452,-144263.493,-104643.375,-20353.314,-6771.706,-10114.222,-2543.634,-0.060,0.992,0.197,0.061,-0.580,1.282,80.000,608.000,1.000
-2231.522,-2159.304,-144147.680,-104367.187,-19876.035,-6660.869,-9959.811,-2477.935,-0.061,0.993,0.197,-0.122,-0.641,1.221,80.000,609.000,1.000
-2176.415,-2102.275,-144030.522,-104090.961,-19398.119,-6550.491,-9805.257,-2413.076,-0.060,0.991,0.197,-0.183,-0.793,1.190,80.000,610.000,1.000
-2123.258,-2047.618,-143913.902,-103816.367,-18921.423,-6442.789,-9652.728,-2349.293,-0.062,0.989,0.193,-0.214,-0.946,1.312,80.000,611.000,1.000
-2072.869,-1995.665,-143798.538,-103544.396,-18447.685,-6338.864,-9503.477,-2286.405,-0.063,0.986,0.193,-0.244,-0.916,1.404,80.000,612.000,1.000
-2024.831,-1945.816,-143683.177,-103274.494,-17978.654,-6238.243,-9357.368,-2224.158,-0.063,0.989,0.193,-0.153,-1.007,1.343,80.000,613.000,1.000
-1978.142,-1897.113,-143566.749,-103005.563,-17517.070,-6139.379,-9213.307,-2162.488,-0.065,0.987,0.195,-0.122,-1.068,1.251,80.000,614.000,1.000
-1931.520,-1848.348,-143448.425,-102735.835,-17064.936,-6040.045,-9069.317,-2100.827,-0.066,0.987,0.196,-0.153,-1.251,1.129,80.000,615.000,1.000
-1883.826,-1798.489,-143327.057,-102463.453,-16621.050,-5938.603,-8923.453,-2038.082,-0.068,0.987,0.195,-0.244,-1.373,1.129,80.000,616.000,1.000
-1834.658,-1747.228,-143202.138,-102187.753,-16181.241,-5835.381,-8775.266,-1973.407,-0.067,0.987,0.196,-0.244,-1.556,1.007,80.000,617.000,1.000
-1784.384,-1694.799,-143073.338,-101908.646,-15739.765,-5731.783,-8625.422,-1906.363,-0.064,0.990,0.195,-0.244,-1.617,0.885,80.000,618.000,1.000
-1733.874,-1641.777,-142941.687,-101627.050,-15291.367,-5628.823,-8474.998,-1837.578,-0.062,0.991,0.200,-0.427,-1.587,0.824,80.000,619.000,1.000
-1684.027,-1588.827,-142808.921,-101344.553,-14833.457,-5526.559,-8325.182,-1769.313,-0.061,0.994,0.200,-0.427,-1.648,0.793,80.000,620.000,1.000
-1635.475,-1536.597,-142675.811,-101062.933,-14367.336,-5424.664,-8177.130,-1704.713,-0.058,0.996,0.195,-0.519,-1.740,0.824,80.000,621.000,1.000
-1588.332,-1485.504,-142541.784,-100783.510,-13896.978,-5322.914,-8031.318,-1645.690,-0.058,0.996,0.199,-0.549,-1.678,0.854,80.000,622.000,1.000
-1542.197,-1435.520,-142405.011,-100505.895,-13426.152,-5221.025,-7886.915,-1591.384,-0.054,0.996,0.198,-0.610,-1.678,0.824,80.000,623.000,1.000
-1496.587,-1386.334,-142265.423,-100229.113,-12957.109,-5119.062,-7742.762,-1539.162,-0.054,0.998,0.197,-0.671,-1.648,0.916,80.000,624.000,1.000
-1451.046,-1337.219,-142124.593,-99951.984,-12490.317,-5017.180,-7597.961,-1486.008,-0.051,0.996,0.198,-0.641,-1.526,0.885,80.000,625.000,1.000
-1405.362,-1287.394,-141983.611,-99673.715,-12025.148,-4915.325,-7452.100,-1429.717,-0.052,0.994,0.198,-0.671,-1.373,1.038,80.000,626.000,1.000
-1359.836,-1236.738,-141842.703,-99394.792,-11561.109,-4813.792,-7305.845,-1370.099,-0.053,0.994,0.201,-0.641,-1.160,1.099,80.000,627.000,1.000
-1315.013,-1185.848,-141700.966,-99116.138,-11097.910,-4713.412,-7160.768,-1309.027,-0.052,0.993,0.200,-0.580,-1.038,1.129,80.000,628.000,1.000
-1271.081,-1135.517,-141558.014,-98838.798,-10634.984,-4615.130,-7018.496,-1249.174,-0.053,0.988,0.198,-0.702,-0.946,1.282,80.000,629.000,1.000
-1227.204,-1085.722,-141413.259,-98562.301,-10170.882,-4518.685,-6879.007,-1191.607,-0.052,0.986,0.200,-0.671,-0.854,1.282,80.000,630.000,1.000
-1181.909,-1035.562,-141265.234,-98284.560,-9704.101,-4422.264,-6740.366,-1135.085,-0.055,0.985,0.202,-0.580,-0.763,1.190,80.000,631.000,1.000
-1134.274,-984.309,-141113.145,-98004.139,-9234.694,-4323.877,-6600.641,-1078.034,-0.057,0.983,0.201,-0.580,-0.702,1.190,80.000,632.000,1.000
-1084.787,-932.315,-140957.210,-97721.380,-8764.177,-4223.011,-6459.490,-1020.317,-0.057,0.983,0.203,-0.488,-0.580,1.099,80.000,633.000,1.000
-1035.214,-880.977,-140799.857,-97438.892,-8294.724,-4121.514,-6318.439,-963.381,-0.057,0.984,0.201,-0.549,-0.610,1.068,80.000,634.000,1.000
-987.245,-831.393,-140643.886,-97159.145,-7827.828,-4021.875,-6179.226,-908.695,-0.061,0.984,0.203,-0.336,-0.610,1.099,80.000,635.000,1.000
-941.545,-783.661,-140490.004,-96882.584,-7363.634,-3925.145,-6042.451,-856.712,-0.062,0.981,0.202,-0.153,-0.519,1.068,80.000,636.000,1.000
-897.706,-737.166,-140337.182,-96608.016,-6901.513,-3830.759,-5907.735,-806.829,-0.062,0.981,0.202,-0.031,-0.610,0.946,80.000,637.000,1.000
-854.631,-690.924,-140183.254,-96333.125,-6440.492,-3737.179,-5774.030,-757.350,-0.061,0.981,0.201,0.000,-0.641,0.702,80.000,638.000,1.000
-811.345,-644.225,-140027.406,-96056.502,-5979.849,-3643.113,-5640.336,-706.251,-0.062,0.982,0.199,0.061,-0.763,0.671,80.000,639.000,1.000
-767.524,-597.012,-139870.206,-95778.037,-5519.393,-3548.202,-5506.170,-652.156,-0.062,0.982,0.197,0.183,-0.763,0.549,80.000,640.000,1.000
-723.690,-549.964,-139712.400,-95498.698,-5059.649,-3453.227,-5371.971,-595.319,-0.062,0.983,0.199,0.305,-0.702,0.519,80.000,641.000,1.000
-680.684,-503.920,-139554.517,-95219.874,-4601.525,-3359.484,-5238.826,-537.547,-0.061,0.983,0.202,0.488,-0.793,0.427,80.000,642.000,1.000
-638.745,-458.942,-139395.618,-94941.444,-4145.047,-3267.332,-5107.062,-480.488,-0.061,0.985,0.200,0.488,-0.732,0.397,80.000,643.000,1.000
-597.383,-414.462,-139234.993,-94662.450,-3689.457,-3176.290,-4976.245,-424.809,-0.061,0.986,0.200,0.488,-0.824,0.427,80.000,644.000,1.000
-555.785,-369.781,-139072.698,-94381.857,-3234.091,-3085.818,-4845.911,-370.343,-0.060,0.987,0.201,0.580,-0.885,0.305,80.000,645.000,1.000
-513.328,-324.511,-138908.998,-94099.296,-2779.054,-2995.723,-4716.002,-316.581,-0.060,0.987,0.200,0.641,-1.007,0.244,80.000,646.000,1.000
-469.629,-278.530,-138744.137,-93815.311,-2324.910,-2905.826,-4586.558,-262.998,-0.060,0.987,0.203,0.671,-0.916,0.458,80.000,647.000,1.000
-424.366,-231.514,-138576.858,-93529.983,-1871.341,-2815.117,-4456.833,-209.027,-0.059,0.988,0.201,0.702,-0.946,0.488,80.000,648.000,1.000
-377.763,-183.421,-138406.051,-93243.671,-1417.381,-2722.735,-4326.131,-154.750,-0.057,0.988,0.201,0.671,-0.824,0.610,80.000,649.000,1.000
-330.837,-135.034,-138231.542,-92957.167,-962.386,-2629.177,-4194.833,-100.888,-0.056,0.988,0.197,0.580,-0.793,0.549,80.000,650.000,1.000
-284.857,-87.531,-138053.621,-92671.234,-506.470,-2535.864,-4063.964,-47.831,-0.056,0.986,0.198,0.519,-0.824,0.732,80.000,651.000,1.000
-240.583,-41.462,-137873.196,-92386.164,-50.653,-2443.884,-3934.177,4.964,-0.057,0.987,0.198,0.549,-0.793,0.885,80.000,652.000,1.000
-198.116,3.525,-137690.891,-92100.788,403.657,-2353.366,-3805.286,58.685,-0.057,0.987,0.198,0.641,-0.641,1.007,80.000,653.000,1.000
-157.231,47.971,-137507.670,-91813.510,855.525,-2263.990,-3676.938,114.026,-0.057,0.988,0.199,0.519,-0.671,1.129,80.000,654.000,1.000
-117.252,92.397,-137323.707,-91522.740,1305.588,-2175.061,-3548.748,170.800,-0.058,0.988,0.197,0.519,-0.580,1.251,80.000,655.000,1.000
-77.144,137.157,-137137.794,-91227.889,1755.638,-2085.860,-3420.429,227.984,-0.057,0.987,0.198,0.519,-0.671,1.373,80.000,656.000,1.000
-35.925,182.358,-136948.751,-90930.182,2207.044,-1996.173,-3292.095,283.953,-0.058,0.986,0.196,0.427,-0.580,1.495,80.000,657.000,1.000
6.942,228.022,-136755.451,-90631.209,2660.140,-1905.923,-3163.837,336.913,-0.058,0.986,0.195,0.519,-0.549,1.587,80.000,658.000,1.000
51.218,273.948,-136558.226,-90332.398,3114.156,-1815.123,-3035.692,384.598,-0.058,0.986,0.194,0.580,-0.458,1.678,80.000,659.000,1.000
96.159,319.922,-136358.123,-90033.833,3568.210,-1723.669,-2907.401,424.776,-0.060,0.986,0.197,0.519,-0.519,1.709,80.000,660.000,1.000
140.647,365.542,-136155.899,-89734.613,4021.969,-1631.659,-2778.787,456.183,-0.061,0.988,0.199,0.580,-0.488,1.770,80.000,661.000,1.000
183.521,410.109,-135952.536,-89434.449,4475.229,-1539.861,-2650.438,479.287,-0.059,0.989,0.199,0.549,-0.549,1.678,80.000,662.000,1.000
224.511,453.366,-135748.056,-89133.156,4927.915,-1448.911,-2522.972,497.394,-0.060,0.990,0.198,0.397,-0.488,1.770,80.000,663.000,1.000
264.493,495.868,-135542.269,-88830.782,5379.890,-1358.850,-2396.486,516.669,-0.060,0.991,0.198,0.366,-0.580,1.831,80.000,664.000,1.000
304.971,538.890,-135334.657,-88526.981,5831.157,-1269.003,-2270.371,544.556,-0.059,0.993,0.196,0.275,-0.549,1.862,80.000,665.000,1.000
346.896,583.411,-135124.372,-88221.325,6282.025,-1178.587,-2143.950,586.195,-0.059,0.991,0.196,0.214,-0.580,1.801,80.000,666.000,1.000
389.687,628.889,-134911.366,-87914.450,6732.785,-1087.788,-2017.530,641.178,-0.059,0.991,0.197,0.092,-0.610,1.923,80.000,667.000,1.000
431.694,673.739,-134695.489,-87607.259,7183.729,-997.529,-1892.016,704.162,-0.058,0.991,0.196,0.122,-0.610,1.892,80.000,668.000,1.000
471.540,716.895,-134476.921,-87300.660,7634.920,-908.579,-1767.999,768.221,-0.058,0.987,0.198,0.061,-0.549,1.831,80.000,669.000,1.000
509.073,758.819,-134255.480,-86994.531,8086.470,-820.546,-1644.787,828.550,-0.056,0.988,0.193,-0.031,-0.580,1.831,80.000,670.000,1.000
545.043,800.666,-134030.589,-86687.927,8538.434,-732.271,-1520.905,883.761,-0.057,0.988,0.198,0.061,-0.549,1.831,80.000,671.000,1.000
580.367,842.958,-133802.823,-86380.516,8989.965,-643.428,-1395.904,934.682,-0.054,0.989,0.200,0.000,-0.488,2.014,80.000,672.000,1.000
615.923,885.453,-133573.058,-86072.455,9439.605,-554.916,-1270.804,983.153,-0.055,0.989,0.200,-0.031,-0.488,2.014,80.000,673.000,1.000
652.478,927.730,-133342.327,-85764.542,9886.303,-468.006,-1147.095,1031.191,-0.055,0.990,0.198,-0.031,-0.458,2.014,80.000,674.000,1.000
690.672,969.874,-133110.677,-85457.018,10330.445,-382.842,-1025.085,1080.732,-0.054,0.990,0.197,-0.031,-0.427,2.014,80.000,675.000,1.000
730.762,1012.403,-132877.073,-85149.281,10773.559,-298.151,-903.576,1133.401,-0.052,0.988,0.195,0.061,-0.397,2.014,80.000,676.000,1.000
772.521,1055.930,-132640.774,-84840.694,11217.231,-212.237,-780.874,1190.300,-0.052,0.984,0.198,0.061,-0.305,2.075,80.000,677.000,1.000
815.401,1100.948,-132400.716,-84530.248,11662.818,-123.745,-655.549,1251.948,-0.052,0.983,0.197,0.092,-0.305,2.106,80.000,678.000,1.000
858.362,1147.099,-132156.817,-84217.780,12110.715,-32.660,-527.575,1317.358,-0.053,0.982,0.197,0.092,-0.305,2.075,80.000,679.000,1.000
900.019,1193.021,-131910.390,-83904.397,12559.752,59.465,-398.712,1383.538,-0.056,0.980,0.199,0.061,-0.122,2.075,80.000,680.000,1.000
939.359,1237.190,-131663.556,-83592.085,13007.591,150.417,-271.666,1446.409,-0.056,0.980,0.197,0.275,-0.214,2.014,80.000,681.000,1.000
976.608,1279.196,-131418.234,-83282.317,13452.455,238.912,-148.302,1503.294,-0.061,0.981,0.199,0.336,-0.275,1.831,80.000,682.000,1.000
1013.087,1320.037,-131173.930,-82974.171,13894.674,325.528,-28.233,1554.886,-0.062,0.983,0.197,0.488,-0.244,1.801,80.000,683.000,1.000
1049.990,1360.841,-130929.287,-82666.034,14335.589,411.450,90.127,1603.990,-0.062,0.986,0.197,0.488,-0.336,1.648,80.000,684.000,1.000
1087.824,1402.164,-130683.135,-82356.755,14776.201,497.449,208.303,1653.442,-0.063,0.989,0.194,0.427,-0.397,1.312,80.000,685.000,1.000
1126.488,1444.036,-130434.847,-82045.949,15216.691,583.609,327.095,1704.823,-0.061,0.990,0.197,0.397,-0.458,1.160,80.000,686.000,1.000
1165.617,1486.245,-130185.071,-81734.108,15656.420,669.380,446.357,1758.017,-0.060,0.991,0.198,0.397,-0.641,1.099,80.000,687.000,1.000
1205.105,1528.760,-129934.154,-81421.267,16094.851,754.567,565.837,1811.947,-0.061,0.992,0.198,0.336,-0.671,1.007,80.000,688.000,1.000
1245.041,1571.541,-129682.413,-81107.352,16531.919,839.560,685.369,1865.239,-0.059,0.991,0.197,0.305,-0.763,0.916,80.000,689.000,1.000
1285.183,1614.234,-129429.983,-80792.349,16967.963,924.661,804.653,1916.945,-0.056,0.989,0.194,0.305,-0.824,0.854,80.000,690.000,1.000
1324.516,1656.060,-129176.845,-80476.908,17403.302,1009.253,923.072,1966.979,-0.054,0.989,0.197,0.214,-0.793,0.793,80.000,691.000,1.000
1361.725,1696.398,-128923.338,-80162.536,17838.101,1092.105,1040.022,2016.111,-0.054,0.988,0.199,0.214,-0.732,0.702,80.000,692.000,1.000
1396.042,1735.426,-128668.887,-79850.007,18272.601,1172.642,1155.604,2065.526,-0.055,0.989,0.196,0.183,-0.793,0.702,80.000,693.000,1.000
1427.285,1773.686,-128413.236,-79539.577,18706.313,1251.064,1270.034,2115.499,-0.053,0.987,0.199,0.244,-0.763,0.732,80.000,694.000,1.000
1456.050,1811.757,-128156.410,-79230.444,19138.180,1328.329,1383.539,2165.372,-0.053,0.988,0.198,0.214,-0.610,0.763,80.000,695.000,1.000
1484.141,1850.295,-127897.847,-78920.566,19567.910,1406.062,1496.868,2214.749,-0.054,0.988,0.198,0.305,-0.580,0.824,80.000,696.000,1.000
1514.366,1890.036,-127636.913,-78607.967,19996.508,1485.823,1611.111,2264.036,-0.054,0.988,0.195,0.275,-0.519,0.916,80.000,697.000,1.000
1549.092,1931.357,-127372.688,-78291.768,20425.588,1568.210,1726.918,2313.756,-0.054,0.988,0.198,0.275,-0.458,0.916,80.000,698.000,1.000
1588.595,1973.525,-127105.731,-77973.717,20855.513,1651.896,1843.314,2363.194,-0.058,0.987,0.197,0.427,-0.458,1.068,80.000,699.000,1.000
1631.353,2015.388,-126837.627,-77656.478,21285.030,1734.624,1958.343,2410.933,-0.059,0.988,0.197,0.397,-0.488,1.129,80.000,700.000,1.000
1675.490,2056.662,-126569.319,-77341.182,21712.711,1815.337,2070.915,2456.475,-0.061,0.987,0.198,0.458,-0.549,1.099,80.000,701.000,1.000
1719.676,2098.066,-126300.773,-77027.069,22138.426,1895.094,2181.661,2500.657,-0.063,0.986,0.199,0.397,-0.610,1.129,80.000,702.000,1.000
1763.173,2140.386,-126030.363,-76711.970,22563.621,1976.119,2292.389,2545.048,-0.063,0.987,0.198,0.458,-0.610,1.068,80.000,703.000,1.000
1805.626,2183.514,-125757.025,-76394.574,22989.628,2059.503,2404.344,2590.901,-0.064,0.986,0.197,0.458,-0.702,1.221,80.000,704.000,1.000
1847.215,2226.789,-125480.741,-76074.676,23416.657,2144.542,2517.651,2638.888,-0.064,0.987,0.199,0.397,-0.824,1.282,80.000,705.000,1.000
1888.321,2269.566,-125202.007,-75752.876,23843.940,2229.578,2631.707,2688.951,-0.063,0.988,0.198,0.397,-0.946,1.221,80.000,706.000,1.000
1928.910,2311.489,-124922.042,-75430.721,24270.176,2313.063,2745.638,2740.236,-0.064,0.989,0.198,0.458,-1.038,1.068,80.000,707.000,1.000
1968.510,2352.615,-124641.355,-75109.537,24694.414,2394.556,2859.040,2791.620,-0.066,0.986,0.198,0.488,-1.068,1.129,80.000,708.000,1.000
2006.582,2392.947,-124360.336,-74790.455,25116.281,2474.330,2971.612,2841.651,-0.065,0.986,0.200,0.458,-1.221,1.068,80.000,709.000,1.000
2043.048,2432.166,-124079.038,-74473.622,25536.060,2552.624,3082.858,2889.022,-0.064,0.987,0.201,0.458,-1.099,1.160,80.000,710.000,1.000
2078.238,2469.724,-123797.223,-74158.220,25954.218,2629.241,3192.262,2933.412,-0.062,0.986,0.199,0.488,-1.221,1.099,80.000,711.000,1.000
2112.570,2505.405,-123515.294,-73843.391,26370.780,2703.919,3299.628,2975.596,-0.061,0.985,0.198,0.458,-1.312,1.160,80.000,712.000,1.000
2146.419,2539.831,-123232.900,-73528.024,26785.837,2777.269,3405.531,3016.736,-0.060,0.986,0.194,0.366,-1.465,1.190,80.000,713.000,1.000
2179.957,2573.861,-122949.490,-73211.882,27199.640,2850.244,3510.628,3057.202,-0.059,0.986,0.197,0.458,-1.495,1.160,80.000,714.000,1.000
2213.405,2608.083,-122664.283,-72895.238,27612.605,2923.403,3615.335,3096.848,-0.057,0.987,0.196,0.427,-1.465,1.190,80.000,715.000,1.000
2247.121,2642.672,-122376.387,-72578.171,28025.210,2996.675,3719.851,3135.780,-0.057,0.986,0.196,0.397,-1.526,1.221,80.000,716.000,1.000
2281.424,2677.544,-122086.058,-72260.605,28437.408,3069.442,3824.043,3174.521,-0.057,0.985,0.197,0.488,-1.495,1.373,80.000,717.000,1.000
2316.580,2712.850,-121793.901,-71941.754,28848.547,3141.376,3927.933,3214.144,-0.058,0.985,0.198,0.519,-1.526,1.465,80.000,718.000,1.000
2352.778,2749.228,-121500.937,-71621.158,29257.884,3213.079,4032.011,3255.753,-0.057,0.986,0.196,0.610,-1.495,1.343,80.000,719.000,1.000
2390.071,2787.654,-121207.147,-71298.685,29665.938,3286.295,4137.467,3300.021,-0.059,0.986,0.196,0.610,-1.495,1.343,80.000,720.000,1.000
2427.759,2828.193,-120911.358,-70974.937,30074.205,3362.297,4245.045,3346.452,-0.059,0.986,0.197,0.610,-1.526,1.343,80.000,721.000,1.000
2464.386,2869.352,-120613.363,-70651.628,30483.331,3440.174,4353.746,3393.233,-0.058,0.988,0.198,0.519,-1.434,1.312,80.000,722.000,1.000
2499.030,2909.542,-120313.200,-70329.659,30892.954,3518.078,4462.092,3438.856,-0.058,0.989,0.197,0.488,-1.526,1.343,80.000,723.000,1.000
2532.128,2948.359,-120011.311,-70009.060,31302.272,3594.934,4569.423,3482.947,-0.060,0.988,0.197,0.458,-1.465,1.251,80.000,724.000,1.000
2565.116,2986.575,-119707.918,-69689.291,31710.771,3671.031,4676.022,3525.847,-0.058,0.989,0.198,0.580,-1.373,1.282,80.000,725.000,1.000
2599.148,3025.011,-119402.950,-69370.047,32118.172,3747.063,4782.181,3567.620,-0.057,0.990,0.196,0.519,-1.434,1.312,80.000,726.000,1.000
2634.111,3063.601,-119097.202,-69051.979,32523.781,3822.782,4887.295,3607.635,-0.055,0.988,0.196,0.488,-1.373,1.343,80.000,727.000,1.000
2668.870,3101.651,-118791.017,-68735.273,32926.995,3897.354,4990.561,3645.681,-0.054,0.989,0.198,0.610,-1.282,1.343,80.000,728.000,1.000
2702.140,3138.412,-118484.440,-68419.457,33327.726,3970.171,5091.735,3682.787,-0.056,0.989,0.197,0.519,-1.312,1.251,80.000,729.000,1.000
2733.469,3173.747,-118177.045,-68103.197,33726.495,4041.456,5191.484,3720.923,-0.057,0.989,0.197,0.580,-1.221,1.160,80.000,730.000,1.000
2763.464,3208.083,-117868.147,-67785.239,34124.043,4112.022,5290.899,3761.434,-0.058,0.989,0.197,0.458,-1.190,1.251,80.000,731.000,1.000
2793.398,3241.887,-117557.747,-67465.707,34520.754,4182.563,5390.655,3803.829,-0.057,0.990,0.196,0.458,-1.282,1.251,80.000,732.000,1.000
2824.602,3275.339,-117245.355,-67145.238,34916.838,4253.490,5490.972,3846.496,-0.056,0.988,0.197,0.427,-1.251,1.312,80.000,733.000,1.000
2857.597,3308.070,-116930.853,-66825.023,35312.144,4324.438,5591.326,3887.723,-0.058,0.987,0.198,0.397,-1.221,1.251,80.000,734.000,1.000
2891.921,3339.716,-116614.578,-66506.019,35706.266,4394.616,5690.812,3926.525,-0.056,0.988,0.197,0.397,-1.099,1.312,80.000,735.000,1.000
2926.648,3370.654,-116297.000,-66188.282,36098.867,4463.795,5788.964,3963.048,-0.056,0.987,0.196,0.397,-1.099,1.312,80.000,736.000,1.000
2961.193,3402.117,-115978.906,-65870.962,36490.065,4532.780,5886.310,3998.800,-0.058,0.988,0.198,0.427,-1.190,1.221,80.000,737.000,1.000
2995.581,3435.486,-115659.793,-65552.090,36880.886,4603.020,5984.449,4036.390,-0.055,0.988,0.197,0.458,-1.190,1.190,80.000,738.000,1.000
3029.865,3471.050,-115338.921,-65230.539,37272.278,4675.065,6084.628,4077.600,-0.057,0.988,0.197,0.519,-1.129,1.160,80.000,739.000,1.000
3063.956,3507.986,-115015.822,-64906.301,37664.306,4748.256,6186.870,4122.215,-0.057,0.989,0.198,0.397,-1.129,1.190,80.000,740.000,1.000
3097.630,3545.040,-114690.389,-64579.990,38056.265,4821.569,6290.153,4168.386,-0.057,0.989,0.197,0.366,-1.160,1.190,80.000,741.000,1.000
3130.615,3581.187,-114363.564,-64252.944,38447.079,4894.210,6392.922,4213.631,-0.057,0.990,0.196,0.305,-1.099,1.221,80.000,742.000,1.000
3162.937,3616.190,-114035.852,-63926.218,38836.130,4966.040,6494.107,4256.194,-0.057,0.988,0.193,0.214,-1.129,1.251,80.000,743.000,1.000
3194.845,3650.349,-113707.568,-63600.848,39223.398,5037.185,6593.363,4295.563,-0.058,0.988,0.198,0.305,-1.129,1.129,80.000,744.000,1.000
3226.539,3684.145,-113378.605,-63277.353,39609.408,5107.863,6691.095,4332.520,-0.058,0.988,0.199,0.275,-1.129,1.129,80.000,745.000,1.000
3257.860,3717.864,-113048.656,-62955.688,39994.781,5178.268,6788.079,4368.492,-0.057,0.987,0.194,0.244,-1.068,1.129,80.000,746.000,1.000
3288.380,3751.394,-112718.407,-62635.896,40379.422,5248.161,6884.606,4404.452,-0.055,0.989,0.194,0.183,-0.916,1.099,80.000,747.000,1.000
3317.814,3784.399,-112388.483,-62317.559,40762.471,5316.887,6980.319,4440.486,-0.056,0.986,0.194,0.244,-0.916,1.099,80.000,748.000,1.000
3346.310,3816.584,-112059.602,-62000.335,41142.788,5383.693,7074.500,4475.992,-0.055,0.987,0.193,0.275,-0.916,1.221,80.000,749.000,1.000
3374.752,3848.336,-111731.389,-61683.369,41520.450,5448.871,7167.225,4510.929,-0.056,0.986,0.197,0.275,-0.824,1.282,80.000,750.000,1.000
3404.327,3880.602,-111401.920,-61365.454,41897.213,5513.973,7259.721,4546.314,-0.056,0.987,0.198,0.214,-0.946,1.404,80.000,751.000,1.000
3435.733,3914.153,-111069.614,-61046.086,42275.092,5580.596,7353.437,4583.390,-0.055,0.986,0.196,0.214,-1.007,1.404,80.000,752.000,1.000
3468.873,3949.093,-110733.516,-60724.911,42655.060,5649.329,7449.132,4622.714,-0.056,0.986,0.195,0.153,-0.885,1.251,80.000,753.000,1.000
3502.804,3984.469,-110394.519,-60402.292,43036.241,5718.928,7545.755,4663.031,-0.057,0.986,0.198,0.092,-0.824,1.343,80.000,754.000,1.000
3536.221,4018.802,-110054.652,-60078.987,43416.469,5787.020,7640.922,4701.711,-0.057,0.985,0.199,0.122,-0.793,1.373,80.000,755.000,1.000
3568.112,4051.029,-109715.795,-59755.932,43793.495,5851.669,7732.654,4736.673,-0.056,0.984,0.197,0.183,-0.793,1.404,80.000,756.000,1.000
3598.411,4081.296,-109379.150,-59434.066,44166.333,5912.684,7820.827,4768.131,-0.056,0.986,0.195,0.092,-0.824,1.343,80.000,757.000,1.000
3628.175,4111.094,-109043.430,-59112.782,44536.452,5972.297,7907.748,4798.997,-0.055,0.987,0.197,0.214,-0.732,1.312,80.000,758.000,1.000
3658.556,4142.009,-108706.559,-58790.836,44906.438,6033.554,7996.382,4832.813,-0.054,0.990,0.200,0.244,-0.641,1.251,80.000,759.000,1.000
3689.680,4174.407,-108367.334,-58467.377,45277.812,6098.026,8088.195,4871.163,-0.054,0.990,0.200,0.183,-0.702,1.221,80.000,760.000,1.000
3720.434,4207.074,-108025.850,-58142.695,45650.191,6164.733,8182.245,4912.546,-0.055,0.991,0.201,0.092,-0.732,1.129,80.000,761.000,1.000
3749.656,4238.374,-107683.352,-57818.163,46022.119,6231.175,8276.065,4953.646,-0.056,0.990,0.198,0.061,-0.641,1.129,80.000,762.000,1.000
3777.399,4267.934,-107340.146,-57494.480,46392.629,6295.771,8367.890,4992.077,-0.058,0.990,0.197,0.153,-0.641,1.099,80.000,763.000,1.000
3804.702,4296.811,-106996.275,-57171.902,46761.344,6358.704,8457.553,5027.695,-0.059,0.990,0.199,0.092,-0.610,1.160,80.000,764.000,1.000
3832.861,4326.670,-106651.459,-56849.936,47128.450,6421.466,8546.320,5062.481,-0.058,0.987,0.198,0.122,-0.641,1.129,80.000,765.000,1.000
3862.650,4358.437,-106304.954,-56527.592,47494.428,6485.431,8635.574,5098.639,-0.059,0.989,0.197,0.183,-0.732,1.099,80.000,766.000,1.000
3893.722,4391.408,-105957.056,-56204.759,47858.998,6550.334,8725.113,5136.173,-0.058,0.989,0.198,0.153,-0.793,1.068,80.000,767.000,1.000
3924.829,4423.890,-105608.474,-55881.902,48221.196,6614.621,8813.494,5173.039,-0.056,0.990,0.200,0.153,-0.763,1.068,80.000,768.000,1.000
3954.764,4454.595,-105260.218,-55559.870,48580.299,6676.792,8899.486,5207.201,-0.055,0.988,0.200,0.092,-0.702,1.129,80.000,769.000,1.000
3983.446,4483.837,-104912.158,-55238.356,48936.988,6737.076,8983.603,5238.856,-0.057,0.988,0.198,0.183,-0.671,1.038,80.000,770.000,1.000
4011.831,4513.239,-104562.511,-54915.632,49293.288,6797.743,9068.186,5270.659,-0.057,0.988,0.198,0.336,-0.732,1.038,80.000,771.000,1.000
4040.986,4544.454,-104209.713,-54590.246,49651.165,6861.514,9155.770,5305.658,-0.058,0.988,0.199,0.305,-0.763,1.068,80.000,772.000,1.000
4071.138,4577.835,-103853.000,-54261.923,50011.275,6929.440,9247.278,5344.848,-0.059,0.988,0.199,0.336,-0.854,1.068,80.000,773.000,1.000
4101.154,4611.523,-103493.994,-53932.953,50372.020,6999.255,9340.571,5385.709,-0.059,0.986,0.201,0.214,-0.824,1.038,80.000,774.000,1.000
4129.596,4642.847,-103135.304,-53606.647,50730.659,7066.960,9431.900,5424.072,-0.060,0.986,0.199,0.153,-0.824,1.068,80.000,775.000,1.000
4156.247,4670.711,-102778.147,-53284.744,51085.353,7130.086,9518.942,5457.576,-0.059,0.984,0.198,0.183,-0.885,1.099,80.000,776.000,1.000
4182.347,4696.437,-102422.456,-52966.491,51435.911,7189.055,9602.056,5487.188,-0.058,0.984,0.200,0.275,-0.946,1.129,80.000,777.000,1.000
4209.513,4722.691,-102066.512,-52648.586,51783.731,7246.439,9683.621,5516.125,-0.058,0.985,0.197,0.336,-1.038,1.282,80.000,778.000,1.000
4238.350,4751.353,-101708.603,-52327.936,52130.739,7304.751,9765.939,5547.030,-0.058,0.985,0.198,0.275,-1.038,1.343,80.000,779.000,1.000
4268.166,4782.460,-101347.624,-52003.255,52478.423,7365.041,9850.027,5580.483,-0.056,0.988,0.198,0.305,-0.946,1.312,80.000,780.000,1.000
4297.472,4814.382,-100983.325,-51675.415,52827.064,7426.654,9935.417,5615.223,-0.057,0.988,0.195,0.366,-0.946,1.373,80.000,781.000,1.000
4324.893,4844.937,-100616.997,-51347.019,53175.513,7487.847,10020.562,5649.227,-0.057,0.987,0.198,0.305,-0.977,1.404,80.000,782.000,1.000
4350.199,4873.126,-100249.614,-51020.037,53522.369,7547.559,10104.446,5681.595,-0.056,0.986,0.196,0.366,-0.946,1.404,80.000,783.000,1.000
4374.323,4899.602,-99881.844,-50695.331,53866.731,7606.074,10187.214,5712.945,-0.057,0.988,0.196,0.366,-0.916,1.343,80.000,784.000,1.000
4398.660,4925.752,-99513.538,-50372.354,54208.739,7664.476,10269.738,5744.299,-0.057,0.989,0.201,0.366,-0.916,1.373,80.000,785.000,1.000
4424.158,4952.367,-99143.595,-50049.719,54549.508,7723.489,10352.719,5776.013,-0.058,0.988,0.199,0.397,-0.977,1.465,80.000,786.000,1.000
4450.923,4979.255,-98771.548,-49726.635,54890.114,7782.860,10436.078,5807.725,-0.057,0.988,0.198,0.366,-0.946,1.434,80.000,787.000,1.000
4478.531,5006.112,-98397.234,-49402.799,55231.042,7842.108,10519.521,5839.213,-0.057,0.988,0.195,0.427,-0.946,1.373,80.000,788.000,1.000
4506.295,5033.108,-98021.626,-49079.036,55571.675,7900.898,10602.697,5870.490,-0.056,0.988,0.195,0.336,-0.885,1.404,80.000,789.000,1.000
4533.565,5060.987,-97645.930,-48756.317,55910.841,7959.434,10685.520,5901.788,-0.057,0.988,0.197,0.366,-0.793,1.282,80.000,790.000,1.000
4559.883,5090.412,-97270.221,-48434.775,56248.001,8018.552,10768.434,5933.502,-0.056,0.988,0.194,0.366,-0.854,1.251,80.000,791.000,1.000
4585.110,5121.123,-96894.186,-48114.176,56583.381,8078.743,10851.768,5965.767,-0.057,0.989,0.196,0.366,-0.916,1.312,80.000,792.000,1.000
4609.610,5151.981,-96517.116,-47793.859,56917.448,8139.398,10935.199,5998.401,-0.056,0.989,0.197,0.244,-0.824,1.282,80.000,793.000,1.000
4634.094,5181.763,-96139.107,-47473.590,57250.365,8199.271,11017.841,6031.137,-0.057,0.991,0.196,0.275,-0.702,1.343,80.000,794.000,1.000
4659.480,5210.357,-95760.324,-47152.910,57582.435,8258.362,11099.549,6064.351,-0.057,0.991,0.195,0.183,-0.763,1.282,80.000,795.000,1.000
4686.261,5238.393,-95380.558,-46831.201,57913.905,8317.974,11180.914,6098.373,-0.057,0.993,0.198,0.183,-0.854,1.282,80.000,796.000,1.000
4713.936,5265.932,-95000.449,-46508.823,58244.222,8378.748,11261.807,6132.161,-0.056,0.992,0.196,0.244,-0.946,1.465,80.000,797.000,1.000
4741.518,5292.551,-94620.179,-46186.147,58572.829,8440.382,11341.690,6164.277,-0.057,0.993,0.196,0.153,-0.916,1.404,80.000,798.000,1.000
4768.317,5318.197,-94239.571,-45863.398,58899.769,8502.473,11420.581,6194.477,-0.057,0.992,0.199,0.092,-0.854,1.312,80.000,799.000,1.000
4794.240,5343.612,-93858.119,-45540.383,59225.419,8565.076,11499.344,6223.977,-0.060,0.991,0.198,-0.031,-0.916,1.312,80.000,800.000,1.000
4819.396,5369.645,-93475.476,-45217.047,59549.748,8628.067,11578.786,6254.133,-0.061,0.990,0.197,-0.122,-0.946,1.312,80.000,801.000,1.000
4843.860,5396.544,-93092.353,-44894.202,59872.176,8690.420,11658.666,6285.328,-0.059,0.990,0.198,-0.214,-0.977,1.434,80.000,802.000,1.000
4867.871,5424.112,-92708.774,-44572.332,60192.648,8751.042,11738.236,6317.316,-0.059,0.987,0.196,-0.275,-0.916,1.282,80.000,803.000,1.000
4891.705,5451.863,-92324.412,-44251.808,60511.704,8809.537,11816.707,6349.385,-0.059,0.988,0.196,-0.336,-0.885,1.282,80.000,804.000,1.000
4915.694,5479.452,-91938.715,-43932.445,60830.068,8866.517,11893.729,6380.822,-0.059,0.987,0.199,-0.397,-0.946,1.282,80.000,805.000,1.000
4940.327,5507.073,-91551.114,-43613.431,61148.280,8923.200,11969.691,6411.488,-0.057,0.986,0.198,-0.397,-1.129,1.221,80.000,806.000,1.000
4966.046,5535.201,-91162.112,-43294.229,61466.347,8980.440,12045.350,6441.659,-0.056,0.985,0.196,-0.336,-1.068,1.160,80.000,807.000,1.000
4992.679,5563.626,-90772.378,-42974.564,61783.814,9038.001,12121.167,6471.380,-0.060,0.982,0.198,-0.336,-1.099,1.160,80.000,808.000,1.000
5019.213,5590.889,-90383.166,-42655.142,62099.654,9094.295,12196.601,6499.941,-0.060,0.983,0.198,-0.336,-1.038,1.129,80.000,809.000,1.000
5044.872,5615.795,-89994.846,-42336.270,62413.493,9148.216,12271.500,6527.232,-0.058,0.984,0.196,-0.244,-1.068,1.129,80.000,810.000,1.000
5069.805,5638.735,-89605.950,-42017.151,62726.399,9200.595,12347.246,6554.589,-0.060,0.983,0.198,-0.122,-1.190,1.099,80.000,811.000,1.000
5094.534,5661.220,-89215.408,-41697.426,63039.423,9253.059,12425.179,6583.233,-0.060,0.983,0.196,-0.061,-1.160,1.099,80.000,812.000,1.000
5119.343,5684.942,-88823.089,-41377.342,63352.383,9306.672,12505.137,6613.047,-0.057,0.984,0.194,-0.061,-1.038,1.160,80.000,813.000,1.000
5143.951,5710.667,-88430.609,-41058.154,63663.510,9361.031,12585.120,6642.689,-0.058,0.985,0.196,-0.092,-1.129,1.282,80.000,814.000,1.000
5167.726,5737.766,-88040.251,-40741.225,63970.404,9414.438,12662.339,6670.639,-0.056,0.985,0.197,-0.061,-1.099,1.282,80.000,815.000,1.000
5190.100,5764.682,-87653.250,-40427.071,64271.746,9465.072,12734.815,6696.075,-0.055,0.986,0.199,-0.092,-1.099,1.373,80.000,816.000,1.000
5211.020,5790.126,-87269.356,-40115.069,64568.464,9512.476,12802.537,6719.246,-0.057,0.985,0.200,0.031,-1.038,1.312,80.000,817.000,1.000
5231.113,5813.843,-86886.041,-39802.972,64863.458,9558.187,12867.603,6741.375,-0.057,0.983,0.199,-0.092,-0.916,1.312,80.000,818.000,1.000
5251.182,5836.153,-86500.998,-39488.935,65159.275,9604.208,12932.548,6763.658,-0.058,0.984,0.200,-0.061,-0.946,1.282,80.000,819.000,1.000
5271.930,5857.701,-86113.296,-39172.325,65456.719,9651.819,12999.156,6787.062,-0.056,0.983,0.200,-0.031,-1.007,1.343,80.000,820.000,1.000
5293.717,5879.210,-85723.045,-38853.639,65755.102,9701.266,13068.051,6812.295,-0.056,0.984,0.198,-0.031,-1.099,1.556,80.000,821.000,1.000
5316.420,5901.104,-85331.500,-38534.389,66052.981,9751.872,13138.699,6839.443,-0.054,0.986,0.199,0.000,-0.977,1.404,80.000,822.000,1.000
5339.712,5923.633,-84939.176,-38215.491,66349.403,9803.088,13210.542,6868.311,-0.058,0.990,0.198,0.000,-1.038,1.343,80.000,823.000,1.000
