EEG 1,EEG 2,EEG 3,EEG 4,EEG 5,EEG 6,EEG 7,EEG 8,Accelerometer X,Accelerometer Y,Accelerometer Z,Gyroscope X,Gyroscope Y,Gyroscope Z,Battery Level,Counter,Validation Indicator
-3274.570,4784.196,-7173.044,-4065.442,-4080.239,5151.145,-3394.485,-4489.672,0.039,0.947,-0.215,0.000,0.000,0.000,73.333,1.000,1.000
-20408.487,34141.047,-9834.399,-29420.397,-28507.806,35432.921,-20269.256,-32796.545,0.036,0.958,-0.225,0.000,0.000,0.000,73.333,2.000,1.000
-57056.524,114288.904,-17861.268,-106123.314,-94198.789,118104.210,-54324.102,-114806.497,0.039,0.967,-0.226,0.000,0.000,0.000,73.333,3.000,1.000
-91343.461,249162.177,-33539.436,-253167.027,-198416.284,257226.388,-88183.715,-257725.916,0.040,0.975,-0.222,0.000,0.000,0.000,73.333,4.000,1.000
-81181.529,409213.781,-55806.167,-456134.891,-303587.466,422325.749,-99323.444,-423030.228,0.042,0.982,-0.224,-1.221,0.793,0.702,73.333,5.000,1.000
535.953,550870.026,-77134.641,-662378.679,-361716.250,568455.491,-91066.710,-545294.186,0.048,0.987,-0.223,-17.090,4.303,9.613,73.333,6.000,1.000
144740.732,639517.340,-80626.311,-792496.700,-345661.591,659905.279,-102379.449,-570860.254,0.051,0.992,-0.224,-18.402,1.770,10.651,73.333,7.000,1.000
311856.036,662843.369,-45186.066,-773949.599,-261239.134,683968.818,-180860.715,-485303.406,0.054,0.994,-0.222,-18.951,1.556,11.047,73.333,8.000,1.000
450341.223,635056.406,39728.933,-587110.378,-140599.442,655101.406,-334965.796,-320067.961,0.058,0.994,-0.226,-19.531,1.465,11.780,73.333,9.000,1.000
518892.571,588327.074,163901.808,-284936.020,-26148.887,604478.695,-515056.909,-137061.579,0.059,0.995,-0.220,-19.928,1.831,12.177,73.333,10.000,1.000
505436.228,551890.376,301194.669,35836.315,49466.217,556565.950,-643086.809,3369.662,0.059,0.993,-0.218,-20.142,2.350,12.512,73.333,11.000,1.000
431179.026,532023.537,422311.959,287627.009,78923.342,512332.750,-659143.190,72785.629,0.062,0.992,-0.219,-20.416,2.899,12.695,73.333,12.000,1.000
334072.188,511338.577,505565.714,429037.707,78302.076,456499.309,-554873.545,81812.988,0.065,0.993,-0.218,-20.630,3.448,12.939,73.333,13.000,1.000
244441.691,468984.556,543925.324,469347.024,68425.688,379064.638,-379075.461,60795.625,0.064,0.992,-0.213,-20.905,3.967,13.031,73.333,14.000,1.000
173568.104,399845.650,546266.679,448872.325,59076.298,287450.437,-208507.686,34398.703,0.066,0.990,-0.211,-21.088,4.333,13.092,73.333,15.000,1.000
120677.564,314900.164,530161.345,411358.151,50299.058,199978.055,-100050.720,12283.459,0.067,0.989,-0.208,-21.332,4.700,13.062,73.333,16.000,1.000
84105.105,229355.105,511206.900,383728.175,42830.500,131005.335,-61434.338,-3508.213,0.067,0.987,-0.208,-21.637,5.035,13.123,73.333,17.000,1.000
62961.845,154355.294,497251.647,372488.729,41289.752,83189.256,-63089.417,-10647.341,0.067,0.984,-0.204,-21.942,5.341,13.306,73.333,18.000,1.000
52374.678,96782.671,489738.896,373078.807,47481.853,51698.985,-73382.414,-8060.404,0.067,0.984,-0.203,-22.308,5.615,13.672,73.333,19.000,1.000
43722.883,60545.414,487589.427,379680.692,55755.226,32053.368,-80118.883,-503.798,0.072,0.983,-0.197,-22.583,5.707,13.733,73.333,20.000,1.000
31849.348,44758.249,488951.412,387889.646,58416.516,22264.133,-84031.879,3916.712,0.079,0.983,-0.196,-22.491,5.920,13.367,73.333,21.000,1.000
19737.645,42404.729,491008.611,393320.850,54331.581,19723.497,-83497.156,1778.737,0.083,0.988,-0.195,-22.156,6.287,12.543,73.333,22.000,1.000
13832.787,43886.886,490689.056,392385.159,49396.307,19617.290,-73111.155,-2523.300,0.086,1.000,-0.197,-21.515,6.744,11.414,73.333,23.000,1.000
15588.917,42999.770,486765.099,385376.127,48733.314,17691.289,-53896.851,-2807.640,0.086,1.007,-0.196,-21.393,7.202,10.529,73.333,24.000,1.000
19708.888,39217.781,480823.662,376891.693,51055.667,13408.108,-36446.743,1522.642,0.088,1.004,-0.195,-21.637,7.629,10.132,73.333,25.000,1.000
20575.860,34694.635,475518.880,371683.224,51755.857,9166.883,-30354.612,5801.690,0.094,0.992,-0.194,-22.064,8.179,9.796,73.333,26.000,1.000
18113.864,30423.617,471970.817,370363.647,49470.966,6709.492,-33696.955,6631.480,0.101,0.984,-0.195,-22.522,8.942,9.460,73.333,27.000,1.000
16135.826,25812.104,469236.279,369889.726,47288.545,5240.313,-36366.936,5644.810,0.098,0.977,-0.185,-22.614,9.735,9.094,73.333,28.000,1.000
16521.045,20751.085,466071.900,367761.264,47936.495,3057.027,-32396.406,6329.206,0.098,0.972,-0.179,-21.973,9.827,8.881,73.333,29.000,1.000
17173.156,16451.945,462485.309,364565.020,50122.882,-51.239,-25442.370,9108.074,0.102,0.974,-0.176,-21.118,9.918,8.667,73.333,30.000,1.000
15595.379,13932.098,459287.466,362233.905,50638.970,-2773.671,-21940.440,11232.201,0.106,0.977,-0.178,-20.599,10.010,8.545,73.333,31.000,1.000
12463.035,12590.164,456673.927,361024.375,48704.982,-4209.012,-22408.374,10843.819,0.108,0.976,-0.177,-20.294,10.223,8.148,73.333,32.000,1.000
10500.421,10924.042,453907.089,359302.921,46643.593,-4981.300,-21962.727,9330.107,0.112,0.973,-0.175,-19.958,10.345,7.996,73.333,33.000,1.000
10782.410,8295.027,450377.260,355994.717,46546.586,-6284.807,-17715.395,9192.651,0.111,0.970,-0.173,-19.531,10.712,7.507,73.333,34.000,1.000
11594.668,5392.085,446436.757,352096.672,47757.731,-8389.071,-12413.453,10815.875,0.109,0.966,-0.171,-19.012,11.017,7.172,73.333,35.000,1.000
10933.239,3070.181,442900.905,349318.536,48182.784,-10503.301,-10219.271,12366.573,0.105,0.960,-0.168,-18.585,11.230,6.775,73.333,36.000,1.000
8944.752,1327.838,440003.759,347889.661,47115.378,-11891.327,-11221.212,12413.050,0.106,0.954,-0.168,-18.127,11.414,6.317,73.333,37.000,1.000
7312.934,-385.650,437210.973,346435.102,45803.540,-12683.509,-11842.425,11550.176,0.101,0.948,-0.168,-17.487,11.383,5.737,73.333,38.000,1.000
6930.807,-2299.202,434003.390,343851.898,45521.885,-13540.799,-9717.384,11260.336,0.099,0.944,-0.165,-16.541,11.383,4.974,73.333,39.000,1.000
7032.141,-4147.005,430497.689,340595.231,46037.131,-14824.888,-6266.648,11975.535,0.098,0.937,-0.162,-15.686,11.230,4.333,73.333,40.000,1.000
6495.130,-5691.753,427164.635,337865.431,46234.460,-16291.363,-4255.241,12830.100,0.094,0.932,-0.162,-14.557,11.078,3.571,73.333,41.000,1.000
5243.719,-7030.400,424169.536,336012.821,45631.394,-17481.577,-4263.836,12978.587,0.090,0.928,-0.159,-13.489,10.803,2.777,73.333,42.000,1.000
4069.072,-8346.597,421231.118,334246.769,44760.781,-18234.049,-4499.898,12541.484,0.086,0.927,-0.157,-12.329,10.559,1.984,73.333,43.000,1.000
3510.286,-9648.867,418065.500,331795.870,44297.465,-18800.990,-3406.529,12215.041,0.082,0.930,-0.158,-11.108,10.406,1.251,73.333,44.000,1.000
3342.393,-10879.610,414736.734,328856.342,44303.106,-19554.928,-1363.470,12385.911,0.073,0.935,-0.157,-10.040,9.979,0.458,73.333,45.000,1.000
3036.745,-12082.565,411501.653,326203.522,44369.769,-20609.104,221.041,12845.665,0.065,0.941,-0.152,-9.003,9.430,-0.061,73.333,46.000,1.000
2363.080,-13289.109,408459.630,324164.159,44161.172,-21700.091,697.116,13159.894,0.061,0.947,-0.154,-8.118,8.728,-0.671,73.333,47.000,1.000
1493.600,-14367.440,405480.627,322298.004,43660.356,-22462.201,657.677,13097.413,0.056,0.953,-0.155,-7.324,7.935,-1.404,73.333,48.000,1.000
750.873,-15192.441,402418.693,320042.686,43082.824,-22847.568,1035.251,12778.462,0.049,0.959,-0.156,-6.470,7.172,-2.014,73.333,49.000,1.000
344.010,-15913.352,399273.009,317387.115,42702.328,-23218.751,2144.232,12559.608,0.045,0.966,-0.157,-5.859,6.348,-2.563,73.333,50.000,1.000
202.886,-16825.595,396132.778,314787.240,42641.149,-23936.671,3525.574,12724.451,0.042,0.974,-0.157,-5.280,5.646,-2.960,73.333,51.000,1.000
-7.986,-17939.919,393055.499,312567.822,42693.818,-24893.368,4460.553,13160.960,0.039,0.988,-0.161,-4.669,4.913,-3.479,73.333,52.000,1.000
-581.903,-18898.902,390037.728,310583.351,42462.312,-25606.592,4649.946,13403.049,0.032,0.999,-0.164,-4.395,4.028,-3.906,73.333,53.000,1.000
-1387.551,-19454.779,387048.405,308459.095,41825.491,-25829.404,4547.555,13150.863,0.030,1.003,-0.165,-4.242,3.143,-4.089,73.333,54.000,1.000
-1933.983,-19858.278,384045.325,306036.840,41185.890,-25906.451,4960.437,12708.870,0.028,1.005,-0.165,-4.242,2.350,-4.059,73.333,55.000,1.000
-1964.169,-20548.429,380993.693,303514.678,41027.952,-26358.754,6142.178,12683.247,0.026,1.004,-0.166,-4.089,1.465,-3.937,73.333,56.000,1.000
-1859.708,-21527.003,377914.051,301188.921,41248.848,-27192.900,7377.259,13194.343,0.024,0.998,-0.167,-3.998,0.702,-3.723,73.333,57.000,1.000
-2213.983,-22318.377,374887.871,299123.207,41205.342,-27863.123,7758.176,13642.285,0.022,0.990,-0.166,-3.784,0.031,-3.510,73.333,58.000,1.000
-3029.780,-22624.586,371964.568,297094.207,40546.610,-27985.176,7371.997,13455.349,0.018,0.983,-0.164,-3.510,-0.641,-3.418,73.333,59.000,1.000
-3643.113,-22768.642,369075.487,294851.655,39743.893,-27865.128,7319.888,12888.618,0.015,0.978,-0.161,-3.174,-1.221,-3.357,73.333,60.000,1.000
-3584.462,-23270.125,366101.832,292405.070,39510.862,-28107.765,8337.098,12741.942,0.014,0.973,-0.161,-2.838,-1.892,-3.265,73.333,61.000,1.000
-3253.405,-24118.908,363017.801,289996.566,39803.771,-28804.765,9747.969,13290.132,0.015,0.970,-0.169,-2.319,-2.594,-3.143,73.333,62.000,1.000
-3428.640,-24773.160,359858.214,287731.849,39740.442,-29402.064,10267.381,13868.683,0.018,0.974,-0.175,-1.740,-3.143,-2.899,73.333,63.000,1.000
-4211.396,-24909.294,356511.872,285291.654,38612.561,-29445.286,9720.840,13743.054,0.020,0.981,-0.179,-1.038,-3.601,-2.747,73.333,64.000,1.000
-4851.884,-24882.403,352663.202,282141.902,36681.052,-29199.827,9358.575,13119.518,0.024,0.988,-0.180,-0.519,-3.967,-2.350,73.333,65.000,1.000
-4751.632,-25242.660,348039.492,278056.426,34680.301,-29296.273,10218.816,12894.533,0.035,0.991,-0.185,-0.336,-4.242,-1.892,73.333,66.000,1.000
-4294.558,-25973.502,342712.601,273353.381,32738.726,-29877.359,11694.950,13442.570,0.042,0.998,-0.188,0.092,-4.150,-1.282,73.333,67.000,1.000
-4343.882,-26514.801,337104.696,268582.530,30273.124,-30407.868,12306.531,14092.602,0.051,1.006,-0.195,0.458,-4.181,-0.702,73.333,68.000,1.000
-5064.809,-26539.599,331660.823,264036.112,27021.176,-30403.998,11701.828,14033.024,0.056,1.015,-0.202,0.854,-3.998,-0.153,73.333,69.000,1.000
-5688.528,-26403.023,326534.374,259635.226,23706.545,-30084.981,11166.982,13420.219,0.063,1.022,-0.202,1.160,-3.754,0.488,73.333,70.000,1.000
-5558.699,-26645.858,321617.328,255260.863,21301.238,-30065.666,11897.926,13166.465,0.068,1.022,-0.206,1.160,-3.326,1.221,73.333,71.000,1.000
-5030.183,-27250.823,316819.616,251043.989,19827.508,-30521.722,13367.754,13692.708,0.071,1.019,-0.210,1.526,-2.838,1.923,73.333,72.000,1.000
-4983.744,-27680.090,312209.726,247216.193,18344.485,-30965.983,14033.927,14356.990,0.075,1.013,-0.213,1.587,-2.380,2.502,73.333,73.000,1.000
-5623.803,-27626.108,307858.964,243743.918,16176.900,-30923.292,13435.842,14338.132,0.074,1.006,-0.210,2.014,-2.045,3.052,73.333,74.000,1.000
-6209.298,-27428.003,303658.865,240288.007,13749.306,-30569.388,12816.819,13754.084,0.070,0.996,-0.207,2.411,-1.556,3.418,73.333,75.000,1.000
-6075.683,-27592.248,299408.925,236594.565,11931.773,-30474.414,13423.924,13486.125,0.069,0.982,-0.205,3.021,-1.221,3.815,73.333,76.000,1.000
-5534.707,-28099.709,295069.930,232813.425,10828.196,-30825.534,14819.475,13970.601,0.068,0.969,-0.204,3.571,-0.885,4.150,73.333,77.000,1.000
-5429.370,-28451.395,290823.425,229304.393,9659.973,-31192.081,15502.129,14621.257,0.062,0.958,-0.201,4.425,-0.916,4.272,73.333,78.000,1.000
-5979.482,-28363.673,286837.330,226170.129,7859.517,-31127.883,14957.724,14649.597,0.058,0.954,-0.202,5.341,-0.977,4.303,73.333,79.000,1.000
-6503.633,-28142.708,283048.576,223131.314,5842.498,-30768.850,14329.367,14132.630,0.051,0.954,-0.202,6.317,-1.190,4.181,73.333,80.000,1.000
-6368.875,-28243.921,279256.307,219907.667,4416.886,-30625.589,14830.754,13876.938,0.044,0.953,-0.204,7.324,-1.556,4.150,73.333,81.000,1.000
-5842.692,-28650.413,275393.910,216589.571,3675.345,-30885.700,16109.428,14305.419,0.038,0.951,-0.203,8.118,-1.953,4.089,73.333,82.000,1.000
-5699.850,-28920.841,271606.770,213501.969,2889.459,-31182.433,16772.912,14904.791,0.030,0.951,-0.201,8.850,-2.625,3.906,73.333,83.000,1.000
-6161.724,-28807.981,268037.420,210753.361,1512.254,-31114.003,16297.290,14955.446,0.024,0.948,-0.207,9.735,-3.418,3.448,73.333,84.000,1.000
-6624.091,-28581.579,264622.662,208085.705,-105.321,-30779.647,15697.080,14506.229,0.017,0.948,-0.209,10.406,-4.272,3.052,73.333,85.000,1.000
-6505.210,-28636.371,261180.862,205223.602,-1232.989,-30617.583,16102.448,14272.511,0.011,0.951,-0.207,11.108,-5.188,2.441,73.333,86.000,1.000
-6022.559,-28954.884,257660.566,202241.648,-1759.318,-30802.304,17242.422,14646.248,0.007,0.955,-0.209,11.749,-6.226,1.923,73.333,87.000,1.000
-5860.275,-29156.754,254204.407,199453.572,-2308.266,-31030.068,17873.609,15189.533,0.004,0.958,-0.214,12.299,-7.416,1.343,73.333,88.000,1.000
-6230.803,-29031.611,250946.559,196983.421,-3366.947,-30952.801,17488.414,15263.962,0.003,0.958,-0.215,12.817,-8.484,0.732,73.333,89.000,1.000
-6619.612,-28809.419,247828.725,194603.353,-4647.490,-30642.060,16952.793,14891.531,0.004,0.959,-0.220,13.306,-9.491,0.244,73.333,90.000,1.000
-6514.911,-28824.021,244683.785,192047.100,-5521.343,-30466.292,17276.932,14684.569,0.008,0.960,-0.227,13.763,-10.590,-0.244,73.333,91.000,1.000
-6088.409,-29061.718,241462.681,189363.013,-5880.106,-30584.330,18263.113,14995.418,0.014,0.964,-0.232,14.038,-11.505,-0.641,73.333,92.000,1.000
-5922.639,-29206.131,238291.335,186833.132,-6248.290,-30751.919,18841.610,15467.058,0.020,0.966,-0.232,14.343,-12.360,-0.854,73.333,93.000,1.000
-6209.837,-29082.711,235289.171,184584.357,-7047.327,-30673.365,18546.200,15555.263,0.029,0.961,-0.243,14.801,-13.245,-0.977,73.333,94.000,1.000
-6523.808,-28879.653,232406.455,182424.454,-8047.201,-30393.181,18094.242,15261.961,0.036,0.959,-0.247,15.106,-13.519,-0.946,73.333,95.000,1.000
-6428.782,-28868.826,229498.417,180111.090,-8720.525,-30209.656,18357.403,15091.848,0.042,0.955,-0.252,15.503,-13.794,-0.702,73.333,96.000,1.000
-6057.235,-29038.458,226522.757,177673.992,-8963.804,-30263.327,19197.143,15347.165,0.046,0.953,-0.256,15.991,-13.763,-0.580,73.333,97.000,1.000
-5893.000,-29132.862,223587.699,175358.568,-9203.181,-30367.797,19718.915,15744.131,0.049,0.950,-0.261,16.571,-13.672,-0.153,73.333,98.000,1.000
-6106.542,-29011.457,220795.370,173286.317,-9792.704,-30283.170,19507.743,15833.409,0.052,0.945,-0.265,17.120,-13.397,0.214,73.333,99.000,1.000
-6356.286,-28823.722,218103.503,171299.001,-10556.702,-30034.741,19138.532,15604.936,0.052,0.944,-0.267,17.578,-13.062,0.427,73.333,100.000,1.000
-6281.070,-28786.156,215389.412,169182.653,-11067.883,-29856.560,19341.724,15464.055,0.049,0.943,-0.271,18.097,-12.726,0.763,73.333,101.000,1.000
-5976.174,-28892.569,212617.079,166951.720,-11231.970,-29868.155,20030.706,15664.183,0.046,0.942,-0.281,18.677,-12.451,1.099,73.333,102.000,1.000
-5827.530,-28945.394,209877.109,164813.554,-11382.778,-29930.749,20483.933,15989.334,0.045,0.944,-0.284,19.226,-12.207,1.221,73.333,103.000,1.000
-5978.966,-28834.432,207255.585,162880.990,-11807.024,-29852.080,20346.221,16080.739,0.044,0.943,-0.287,19.745,-11.993,1.495,73.333,104.000,1.000
-6165.919,-28671.187,204719.178,161029.374,-12375.272,-29639.039,20062.777,15919.384,0.042,0.940,-0.290,20.264,-11.688,1.587,73.333,105.000,1.000
-6100.078,-28618.188,202167.754,159076.283,-12752.553,-29466.883,20225.581,15817.527,0.041,0.939,-0.291,20.844,-11.322,1.678,73.333,106.000,1.000
-5848.200,-28670.620,199571.011,157023.860,-12856.487,-29435.576,20786.888,15978.774,0.042,0.935,-0.293,21.210,-11.047,1.801,73.333,107.000,1.000
-5710.496,-28682.112,197000.851,155040.216,-12939.935,-29451.013,21181.203,16243.911,0.041,0.931,-0.297,21.667,-10.651,2.014,73.333,108.000,1.000
-5807.515,-28572.894,194525.622,153224.408,-13229.273,-29369.323,21110.091,16334.511,0.041,0.928,-0.299,22.369,-10.315,2.197,73.333,109.000,1.000
-5943.542,-28426.328,192118.606,151480.789,-13635.950,-29187.279,20902.223,16225.601,0.043,0.926,-0.307,22.949,-9.857,2.136,73.333,110.000,1.000
-5894.566,-28361.318,189700.636,149658.732,-13907.585,-29029.106,21023.098,16149.874,0.044,0.927,-0.311,23.529,-9.338,2.258,73.333,111.000,1.000
-5700.282,-28374.587,187248.111,147752.726,-13973.204,-28972.035,21459.274,16268.849,0.044,0.925,-0.312,24.170,-8.850,2.228,73.333,112.000,1.000
-5581.974,-28361.521,184817.627,145895.967,-14013.755,-28953.794,21788.662,16473.594,0.044,0.926,-0.314,24.719,-8.362,2.075,73.333,113.000,1.000
-5635.838,-28264.288,182462.975,144173.991,-14199.830,-28868.775,21770.655,16556.872,0.042,0.925,-0.316,25.177,-7.812,1.923,73.333,114.000,1.000
-5724.379,-28138.074,180164.435,142517.432,-14475.308,-28705.854,21634.706,16489.876,0.043,0.928,-0.316,25.696,-7.416,1.862,73.333,115.000,1.000
-5681.912,-28062.767,177861.713,140805.884,-14659.094,-28549.177,21730.064,16435.159,0.045,0.933,-0.315,26.306,-6.836,1.740,73.333,116.000,1.000
-5529.826,-28037.029,175536.197,139027.776,-14692.933,-28460.545,22064.359,16514.777,0.046,0.939,-0.316,26.611,-6.470,1.587,73.333,117.000,1.000
-5424.434,-27993.249,173229.495,137283.542,-14699.071,-28407.237,22337.266,16662.641,0.046,0.944,-0.320,26.886,-6.226,1.617,73.333,118.000,1.000
-5440.517,-27894.935,170981.257,135643.709,-14801.071,-28317.669,22363.002,16736.264,0.051,0.951,-0.324,27.069,-5.768,1.495,73.333,119.000,1.000
-5489.389,-27778.531,168776.841,134060.211,-14969.421,-28175.671,22291.097,16707.961,0.054,0.956,-0.329,26.764,-5.066,1.343,73.333,120.000,1.000
-5455.642,-27695.932,166571.794,132439.612,-15083.195,-28031.466,22371.380,16681.605,0.054,0.959,-0.328,26.489,-4.517,1.221,73.333,121.000,1.000
-5345.984,-27648.000,164352.004,130766.641,-15096.153,-27930.037,22624.767,16741.573,0.055,0.965,-0.332,26.459,-3.876,1.282,73.333,122.000,1.000
-5261.120,-27594.168,162147.199,129114.175,-15082.104,-27857.879,22849.713,16850.649,0.059,0.969,-0.334,26.245,-3.296,1.282,73.333,123.000,1.000
-5255.127,-27510.650,159986.448,127539.873,-15123.672,-27768.694,22906.413,16916.033,0.060,0.975,-0.338,25.970,-2.716,1.282,73.333,124.000,1.000
-5276.970,-27414.562,157860.774,126014.529,-15210.233,-27643.007,22879.898,16912.135,0.060,0.985,-0.340,25.665,-2.167,1.495,73.333,125.000,1.000
-5251.978,-27332.538,155739.878,124469.357,-15268.786,-27505.755,22938.497,16898.654,0.064,0.994,-0.342,25.085,-1.434,1.648,73.333,126.000,1.000
-5176.779,-27266.873,153613.366,122887.224,-15264.162,-27390.573,23113.941,16932.290,0.067,1.001,-0.343,24.353,-0.763,2.014,73.333,127.000,1.000
-5109.952,-27201.726,151499.762,121316.615,-15233.508,-27302.465,23286.736,16999.974,0.072,1.006,-0.342,23.529,-0.122,2.319,73.333,128.000,1.000
-5090.744,-27128.955,149417.226,119801.192,-15228.137,-27219.234,23357.388,17048.965,0.077,1.005,-0.344,22.522,0.580,2.625,73.333,129.000,1.000
-5097.517,-27054.200,147360.087,118325.301,-15252.226,-27120.260,23361.388,17056.675,0.078,1.000,-0.343,21.362,1.495,3.082,73.333,130.000,1.000
-5085.520,-26983.129,145310.075,116841.438,-15269.730,-27006.889,23401.726,17049.703,0.078,0.992,-0.337,20.294,2.258,3.510,73.333,131.000,1.000
-5040.714,-26913.830,143261.657,115333.627,-15253.508,-26895.953,23517.278,17064.091,0.077,0.985,-0.336,19.409,2.960,3.906,73.333,132.000,1.000
-4985.587,-26842.738,141226.656,113832.704,-15211.087,-26798.201,23654.024,17106.156,0.076,0.980,-0.334,18.616,3.601,4.120,73.333,133.000,1.000
-4945.624,-26769.066,139216.046,112371.605,-15167.864,-26705.850,23746.709,17153.938,0.077,0.977,-0.328,17.853,4.089,4.333,73.333,134.000,1.000
-4924.100,-26691.102,137226.194,110944.528,-15138.846,-26601.325,23791.728,17184.558,0.074,0.974,-0.327,17.029,4.669,4.486,73.333,135.000,1.000
-4906.076,-26605.579,135245.890,109519.242,-15118.157,-26477.504,23835.285,17194.402,0.074,0.969,-0.323,16.327,5.096,4.547,73.333,136.000,1.000
-4876.510,-26515.159,133270.820,108079.089,-15088.163,-26347.774,23913.524,17198.743,0.074,0.965,-0.325,15.625,5.280,4.547,73.333,137.000,1.000
-4834.009,-26430.750,131306.015,106639.501,-15036.519,-26233.247,24017.701,17215.900,0.072,0.962,-0.323,15.045,5.554,4.395,73.333,138.000,1.000
-4791.788,-26358.930,129356.964,105224.249,-14968.689,-26138.687,24110.181,17249.093,0.071,0.959,-0.322,14.526,5.646,4.211,73.333,139.000,1.000
-4765.254,-26290.411,127423.580,103836.562,-14904.382,-26045.338,24164.939,17281.904,0.069,0.953,-0.320,14.099,5.615,4.059,73.333,140.000,1.000
-4755.124,-26210.444,125502.691,102458.995,-14856.786,-25932.871,24193.307,17295.102,0.069,0.951,-0.321,13.855,5.676,3.967,73.333,141.000,1.000
-4743.672,-26120.475,123592.200,101076.366,-14814.961,-25805.635,24232.826,17290.105,0.068,0.946,-0.322,13.428,5.554,3.754,73.333,142.000,1.000
-4714.262,-26039.707,121691.197,99691.583,-14754.382,-25689.293,24307.293,17289.478,0.064,0.945,-0.315,12.970,5.341,3.387,73.333,143.000,1.000
-4674.366,-25980.353,119798.954,98318.720,-14668.386,-25599.289,24397.053,17309.039,0.065,0.943,-0.314,12.604,5.096,3.052,73.333,144.000,1.000
-4649.865,-25929.217,117916.174,96965.580,-14580.606,-25520.299,24457.583,17335.478,0.065,0.941,-0.315,12.329,4.913,2.777,73.333,145.000,1.000
-4652.107,-25863.533,116045.360,95625.982,-14516.986,-25425.009,24472.890,17341.780,0.064,0.936,-0.313,12.024,4.608,2.563,73.333,146.000,1.000
-4659.142,-25781.368,114187.576,94288.058,-14470.368,-25309.363,24480.057,17324.236,0.062,0.933,-0.310,11.780,4.456,2.289,73.333,147.000,1.000
-4640.740,-25704.278,112339.954,92947.805,-14406.756,-25197.663,24526.664,17310.875,0.063,0.931,-0.306,11.383,4.150,2.045,73.333,148.000,1.000
-4598.392,-25647.313,110498.980,91613.181,-14309.609,-25109.786,24608.749,17325.653,0.062,0.933,-0.304,11.261,3.723,1.862,73.333,149.000,1.000
-4565.971,-25597.590,108665.825,90294.742,-14203.901,-25033.908,24671.761,17354.252,0.059,0.927,-0.304,10.986,3.265,1.648,73.333,150.000,1.000
-4565.866,-25531.619,106845.468,88993.237,-14124.507,-24941.496,24681.201,17360.401,0.057,0.926,-0.303,10.803,2.869,1.404,73.333,151.000,1.000
-4577.078,-25447.181,105039.826,87698.507,-14068.798,-24824.207,24673.187,17335.325,0.053,0.924,-0.303,10.498,2.502,1.404,73.333,152.000,1.000
-4561.092,-25365.509,103244.500,86401.620,-13998.483,-24703.542,24712.295,17313.179,0.053,0.924,-0.303,10.437,2.350,1.343,73.333,153.000,1.000
-4513.537,-25301.095,101454.522,85106.091,-13890.778,-24601.208,24806.537,17327.869,0.055,0.925,-0.306,10.284,1.953,1.251,73.333,154.000,1.000
-4471.769,-25241.737,99671.408,83823.833,-13770.237,-24511.021,24892.859,17367.036,0.054,0.925,-0.311,10.315,1.495,1.251,73.333,155.000,1.000
-4467.101,-25167.608,97900.907,82559.627,-13676.864,-24411.118,24915.835,17385.307,0.056,0.924,-0.309,10.193,1.038,1.343,73.333,156.000,1.000
-4484.967,-25082.142,96143.919,81303.538,-13612.820,-24298.418,24897.423,17361.407,0.055,0.925,-0.305,10.223,0.702,1.312,73.333,157.000,1.000
-4485.888,-25009.430,94393.873,80042.386,-13540.036,-24195.365,24905.435,17324.286,0.055,0.921,-0.302,10.101,0.244,1.465,73.333,158.000,1.000
-4457.794,-24960.333,92645.537,78776.968,-13431.883,-24118.438,24962.311,17313.623,0.053,0.918,-0.300,9.918,-0.214,1.617,73.333,159.000,1.000
-4429.234,-24915.215,90903.156,77522.185,-13308.608,-24052.390,25017.158,17327.769,0.053,0.917,-0.298,9.888,-0.641,1.801,73.333,160.000,1.000
-4427.582,-24848.843,89175.577,76288.335,-13208.830,-23967.006,25018.978,17329.021,0.051,0.920,-0.299,9.918,-1.007,2.014,73.333,161.000,1.000
-4440.402,-24763.383,87464.359,75067.591,-13136.675,-23854.732,24989.639,17297.690,0.051,0.926,-0.296,9.918,-1.373,2.045,73.333,162.000,1.000
-4433.392,-24684.685,85761.224,73843.898,-13056.924,-23739.380,24995.410,17259.490,0.052,0.934,-0.292,9.949,-1.770,2.136,73.333,163.000,1.000
-4399.686,-24628.150,84058.571,72613.542,-12944.186,-23645.276,25056.410,17249.479,0.052,0.939,-0.290,9.613,-2.106,2.228,73.333,164.000,1.000
-4371.602,-24580.422,82358.965,71389.265,-12817.957,-23567.992,25118.427,17263.684,0.052,0.945,-0.293,9.308,-2.472,2.441,73.333,165.000,1.000
-4377.659,-24519.459,80671.182,70182.865,-12715.557,-23483.638,25125.833,17265.200,0.053,0.949,-0.299,8.881,-2.716,2.625,73.333,166.000,1.000
-4403.492,-24443.989,78998.464,68989.736,-12640.886,-23381.962,25095.893,17235.465,0.053,0.951,-0.303,8.362,-3.021,2.838,73.333,167.000,1.000
-4411.382,-24373.769,77334.548,67795.486,-12559.738,-23279.393,25093.021,17198.626,0.056,0.956,-0.304,7.904,-3.265,3.052,73.333,168.000,1.000
-4390.896,-24321.895,75672.502,66595.410,-12446.957,-23195.805,25140.295,17186.882,0.060,0.960,-0.304,7.202,-3.448,3.387,73.333,169.000,1.000
-4370.626,-24276.906,74014.283,65400.778,-12319.846,-23127.037,25190.097,17196.482,0.062,0.964,-0.308,6.653,-3.601,3.784,73.333,170.000,1.000
-4377.597,-24219.090,72367.659,64223.323,-12213.494,-23051.045,25190.617,17193.169,0.066,0.968,-0.309,5.890,-3.632,4.242,73.333,171.000,1.000
-4401.093,-24147.228,70735.006,63059.051,-12133.472,-22957.846,25155.218,17158.024,0.069,0.971,-0.313,5.310,-3.662,4.486,73.333,172.000,1.000
-4408.612,-24078.188,69109.996,61893.676,-12049.930,-22860.968,25142.141,17111.545,0.074,0.973,-0.309,4.456,-3.510,4.883,73.333,173.000,1.000
-4390.212,-24021.908,67486.589,60722.106,-11939.045,-22776.626,25175.014,17084.678,0.080,0.979,-0.310,3.784,-3.540,5.035,73.333,174.000,1.000
-4371.143,-23968.012,65867.370,59555.178,-11814.330,-22701.385,25212.621,17077.417,0.085,0.982,-0.308,2.808,-3.326,5.249,73.333,175.000,1.000
-4377.473,-23901.772,64259.694,58404.697,-11706.614,-22618.301,25206.590,17060.714,0.089,0.982,-0.312,1.953,-3.021,5.554,73.333,176.000,1.000
-4402.005,-23825.421,62665.351,57267.460,-11622.186,-22520.931,25166.509,17017.630,0.090,0.980,-0.317,1.038,-2.686,5.707,73.333,177.000,1.000
-4415.829,-23755.224,61078.113,56129.793,-11536.101,-22421.883,25144.807,16966.379,0.095,0.977,-0.318,0.366,-2.380,5.798,73.333,178.000,1.000
-4407.648,-23699.612,59492.314,54985.989,-11427.366,-22335.448,25165.087,16934.920,0.097,0.970,-0.315,-0.366,-1.953,5.981,73.333,179.000,1.000
-4396.900,-23648.811,57910.406,53845.536,-11306.579,-22258.688,25192.681,16923.795,0.101,0.969,-0.314,-0.977,-1.434,6.134,73.333,180.000,1.000
-4405.326,-23589.183,56339.182,52719.771,-11199.859,-22176.139,25184.133,16907.168,0.104,0.968,-0.314,-1.648,-0.885,6.256,73.333,181.000,1.000
-4427.715,-23521.501,54780.323,51606.637,-11113.281,-22080.268,25144.662,16868.059,0.104,0.969,-0.314,-2.136,-0.397,6.134,73.333,182.000,1.000
-4440.776,-23458.434,53228.333,50493.970,-11026.299,-21979.344,25117.538,16819.159,0.105,0.971,-0.310,-2.686,0.092,6.042,73.333,183.000,1.000
-4434.929,-23405.679,51678.377,49376.215,-10920.712,-21883.217,25124.971,16783.988,0.104,0.972,-0.306,-3.113,0.488,5.951,73.333,184.000,1.000
-4424.952,-23352.968,50133.126,48261.876,-10804.068,-21788.027,25141.800,16766.500,0.106,0.974,-0.307,-3.784,1.038,5.646,73.333,185.000,1.000
-4427.768,-23287.073,48599.331,47162.104,-10697.146,-21681.397,25133.610,16749.054,0.107,0.972,-0.302,-4.456,1.404,5.493,73.333,186.000,1.000
-4440.016,-23209.155,47078.833,46076.074,-10605.324,-21561.019,25103.365,16718.210,0.108,0.969,-0.301,-5.005,1.892,5.280,73.333,187.000,1.000
-4445.588,-23133.857,45566.054,44992.417,-10513.150,-21441.559,25083.733,16681.296,0.105,0.964,-0.301,-5.402,2.258,5.035,73.333,188.000,1.000
-4439.827,-23071.985,44055.113,43904.077,-10407.146,-21340.176,25089.796,16653.155,0.106,0.958,-0.301,-5.768,2.655,4.791,73.333,189.000,1.000
-4436.173,-23019.502,42546.765,42816.478,-10294.107,-21258.774,25098.475,16633.905,0.104,0.954,-0.299,-6.012,3.052,4.486,73.333,190.000,1.000
-4447.428,-22965.424,41046.340,41738.997,-10190.906,-21184.030,25080.792,16608.621,0.106,0.946,-0.297,-6.226,3.510,4.150,73.333,191.000,1.000
-4467.482,-22905.401,39556.455,40672.473,-10101.350,-21102.263,25041.165,16568.596,0.106,0.943,-0.294,-6.195,3.723,3.937,73.333,192.000,1.000
-4478.647,-22843.725,38074.395,39609.284,-10011.805,-21010.251,25010.645,16523.528,0.106,0.943,-0.294,-6.165,4.181,3.571,73.333,193.000,1.000
-4474.266,-22784.477,36596.687,38544.483,-9910.111,-20912.037,25005.493,16488.262,0.106,0.943,-0.291,-6.104,4.333,3.113,73.333,194.000,1.000
-4465.877,-22725.162,35123.912,37482.243,-9801.096,-20809.938,25007.901,16463.539,0.103,0.945,-0.294,-5.951,4.669,2.625,73.333,195.000,1.000
-4466.923,-22660.689,33659.466,36429.617,-9698.685,-20703.336,24992.155,16436.458,0.100,0.947,-0.292,-5.676,4.639,2.197,73.333,196.000,1.000
-4476.032,-22591.059,32204.595,35386.895,-9607.107,-20595.586,24958.217,16398.550,0.098,0.950,-0.288,-5.737,5.005,1.862,73.333,197.000,1.000
-4481.655,-22522.126,30756.644,34347.501,-9516.754,-20497.359,24928.271,16355.946,0.093,0.952,-0.285,-5.615,5.066,1.648,73.333,198.000,1.000
-4479.460,-22458.913,29312.617,33306.857,-9418.375,-20419.527,24914.304,16319.090,0.088,0.957,-0.289,-5.615,5.127,1.373,73.333,199.000,1.000
-4477.908,-22400.304,27873.098,32268.149,-9314.974,-20362.626,24902.615,16288.139,0.083,0.958,-0.288,-5.585,5.066,1.190,73.333,200.000,1.000
-4485.875,-22341.364,26441.366,31237.741,-9216.262,-20315.238,24874.490,16253.858,0.080,0.957,-0.287,-5.585,4.974,0.824,73.333,201.000,1.000
-4500.409,-22279.362,25019.079,30216.848,-9125.143,-20263.454,24832.076,16211.083,0.074,0.958,-0.282,-5.493,4.639,0.641,73.333,202.000,1.000
-4510.822,-22215.379,23604.374,29200.525,-9034.703,-20200.699,24794.694,16165.649,0.072,0.958,-0.280,-5.554,4.395,0.336,73.333,203.000,1.000
-4511.673,-22149.986,22194.784,28184.758,-8938.122,-20127.932,24773.722,16127.083,0.069,0.958,-0.281,-5.646,4.028,0.092,73.333,204.000,1.000
-4507.581,-22080.367,20790.542,27171.591,-8837.268,-20047.585,24760.073,16097.692,0.069,0.963,-0.283,-5.615,3.662,-0.153,73.333,205.000,1.000
-4506.140,-22003.812,19393.689,26165.623,-8739.407,-19960.850,24737.771,16071.105,0.066,0.965,-0.283,-5.737,3.326,-0.305,73.333,206.000,1.000
-4508.971,-21921.812,18004.892,25167.513,-8647.597,-19869.628,24703.849,16041.079,0.068,0.965,-0.283,-5.707,2.991,-0.549,73.333,207.000,1.000
-4511.745,-21838.837,16622.800,24173.599,-8557.413,-19777.907,24669.510,16008.341,0.065,0.962,-0.281,-5.798,2.441,-0.549,73.333,208.000,1.000
-4511.779,-21758.628,15246.341,23181.358,-8463.301,-19690.405,24643.614,15977.114,0.065,0.955,-0.284,-5.707,2.075,-0.641,73.333,209.000,1.000
-4512.877,-21683.407,13876.127,22192.565,-8365.610,-19610.754,24621.245,15947.087,0.063,0.952,-0.281,-5.768,1.617,-0.671,73.333,210.000,1.000
-4521.735,-21615.677,12513.159,21210.287,-8269.503,-19540.972,24590.737,15911.632,0.063,0.948,-0.281,-5.676,1.190,-0.488,73.333,211.000,1.000
-4540.604,-21558.160,11157.100,20234.476,-8178.168,-19481.259,24548.304,15864.776,0.057,0.948,-0.278,-5.585,0.763,-0.305,73.333,212.000,1.000
-4565.463,-21511.178,9806.517,19262.041,-8089.551,-19429.596,24501.727,15807.732,0.057,0.948,-0.281,-5.219,0.244,-0.183,73.333,213.000,1.000
-4590.941,-21471.296,8460.654,18290.912,-7999.889,-19382.246,24460.141,15747.099,0.053,0.946,-0.278,-5.005,-0.275,-0.122,73.333,214.000,1.000
-4615.214,-21433.655,7120.299,17322.511,-7908.473,-19335.993,24423.713,15687.756,0.052,0.946,-0.276,-4.517,-0.824,-0.031,73.333,215.000,1.000
-4640.136,-21396.010,5786.578,16359.528,-7817.885,-19291.314,24385.189,15628.868,0.050,0.946,-0.276,-4.333,-1.312,0.000,73.333,216.000,1.000
-4668.106,-21360.523,4459.325,15402.242,-7730.510,-19253.665,24339.278,15566.616,0.049,0.944,-0.280,-3.937,-1.923,0.153,73.333,217.000,1.000
-4700.153,-21331.533,3137.212,14448.215,-7646.104,-19230.425,24287.529,15498.994,0.050,0.944,-0.283,-3.845,-2.380,0.641,73.333,218.000,1.000
-4735.679,-21311.086,1819.503,13495.614,-7562.654,-19224.009,24235.098,15427.917,0.050,0.942,-0.286,-3.571,-2.930,1.251,73.333,219.000,1.000
-4773.047,-21296.911,507.109,12545.648,-7478.672,-19226.870,24185.231,15357.393,0.052,0.936,-0.289,-3.296,-3.296,1.526,73.333,220.000,1.000
-4811.362,-21285.390,-798.504,11600.994,-7394.396,-19224.794,24136.937,15289.329,0.056,0.937,-0.287,-2.808,-3.754,1.709,73.333,221.000,1.000
-4851.161,-21274.891,-2096.997,10662.564,-7311.057,-19205.693,24087.078,15221.754,0.060,0.940,-0.288,-2.258,-4.028,1.923,73.333,222.000,1.000
-4892.754,-21265.080,-3389.210,9728.830,-7229.334,-19165.489,24034.153,15151.434,0.061,0.937,-0.293,-1.709,-4.364,2.197,73.333,223.000,1.000
-4934.708,-21254.803,-4675.857,8798.078,-7148.647,-19108.359,23979.659,15077.482,0.065,0.932,-0.290,-1.282,-4.578,2.319,73.333,224.000,1.000
-4974.737,-21242.273,-5956.777,7870.384,-7067.899,-19043.677,23926.141,15001.992,0.067,0.929,-0.294,-0.610,-4.761,2.625,73.333,225.000,1.000
-5011.723,-21226.643,-7231.354,6947.192,-6986.655,-18981.175,23874.795,14927.868,0.070,0.926,-0.296,-0.092,-4.791,2.716,73.333,226.000,1.000
-5046.088,-21208.347,-8499.193,6029.548,-6905.465,-18925.954,23825.140,14856.915,0.071,0.928,-0.297,0.732,-4.852,2.716,73.333,227.000,1.000
-5078.856,-21188.585,-9760.341,5117.122,-6825.137,-18876.946,23776.352,14789.379,0.072,0.937,-0.302,1.404,-5.066,2.686,73.333,228.000,1.000
-5110.698,-21169.157,-11015.142,4208.799,-6745.785,-18830.345,23728.386,14724.666,0.070,0.947,-0.306,2.045,-5.219,2.655,73.333,229.000,1.000
-5141.810,-21151.959,-12263.942,3303.954,-6666.679,-18784.130,23681.819,14662.327,0.071,0.953,-0.307,2.411,-5.371,2.533,73.333,230.000,1.000
-5172.255,-21137.311,-13506.756,2403.063,-6587.074,-18738.680,23637.104,14602.277,0.076,0.955,-0.306,2.625,-5.524,2.533,73.333,231.000,1.000
-5201.948,-21122.939,-14743.254,1507.053,-6507.185,-18694.398,23593.527,14543.980,0.077,0.952,-0.308,3.082,-5.493,2.472,73.333,232.000,1.000
-5231.290,-21106.115,-15973.285,616.034,-6428.188,-18651.281,23548.423,14484.957,0.079,0.948,-0.309,3.113,-5.615,2.594,73.333,233.000,1.000
-5261.470,-21086.707,-17197.287,-271.017,-6350.953,-18610.209,23498.865,14421.505,0.080,0.945,-0.306,3.662,-5.524,2.472,73.333,234.000,1.000
-5293.613,-21067.196,-18416.020,-1155.211,-6275.041,-18572.692,23444.327,14351.813,0.080,0.940,-0.305,3.967,-5.646,2.441,73.333,235.000,1.000
-5328.380,-21050.060,-19629.933,-2036.647,-6199.465,-18539.259,23386.469,14277.168,0.081,0.940,-0.308,4.578,-5.554,2.167,73.333,236.000,1.000
-5365.799,-21035.365,-20838.687,-2914.375,-6124.135,-18508.491,23327.107,14200.277,0.083,0.940,-0.311,4.761,-5.310,1.953,73.333,237.000,1.000
-5404.863,-21021.070,-22041.358,-3787.344,-6049.859,-18478.094,23267.741,14123.296,0.085,0.945,-0.313,5.280,-5.096,1.740,73.333,238.000,1.000
-5443.165,-21005.448,-23237.190,-4655.284,-5976.816,-18447.052,23210.776,14047.944,0.087,0.947,-0.315,5.493,-4.944,1.770,73.333,239.000,1.000
-5477.677,-20988.275,-24426.068,-5518.554,-5903.662,-18416.071,23159.286,13976.531,0.088,0.952,-0.313,5.768,-4.730,1.648,73.333,240.000,1.000
-5507.282,-20969.758,-25608.324,-6377.393,-5828.878,-18385.990,23113.889,13910.706,0.090,0.952,-0.310,5.920,-4.608,1.648,73.333,241.000,1.000
-5534.106,-20949.254,-26784.286,-7231.634,-5752.825,-18356.442,23070.679,13849.048,0.089,0.952,-0.310,6.042,-4.425,1.373,73.333,242.000,1.000
-5561.841,-20925.995,-27954.206,-8081.279,-5677.707,-18326.664,23023.816,13786.955,0.087,0.947,-0.309,6.195,-4.333,1.282,73.333,243.000,1.000
-5592.806,-20900.999,-29118.506,-8927.034,-5605.175,-18297.683,22970.366,13719.847,0.089,0.946,-0.312,6.348,-4.120,1.190,73.333,244.000,1.000
-5626.561,-20876.868,-30277.659,-9769.802,-5534.473,-18272.624,22912.119,13646.914,0.086,0.945,-0.310,6.561,-3.845,0.977,73.333,245.000,1.000
-5661.384,-20855.288,-31431.710,-10609.629,-5463.538,-18254.129,22852.626,13571.225,0.084,0.943,-0.312,6.683,-3.693,0.946,73.333,246.000,1.000
-5696.266,-20835.386,-32580.071,-11445.501,-5391.632,-18241.508,22793.307,13496.351,0.082,0.944,-0.310,6.958,-3.601,0.793,73.333,247.000,1.000
-5730.772,-20814.528,-33721.937,-12276.311,-5319.968,-18230.383,22733.459,13423.734,0.080,0.948,-0.315,7.080,-3.571,0.610,73.333,248.000,1.000
-5763.230,-20790.279,-34856.935,-13101.890,-5249.624,-18215.018,22673.432,13353.571,0.078,0.948,-0.314,7.233,-3.510,0.397,73.333,249.000,1.000
-5790.753,-20761.610,-35985.448,-13923.028,-5179.900,-18191.341,22615.597,13286.695,0.078,0.949,-0.311,7.324,-3.571,0.275,73.333,250.000,1.000
-5811.988,-20728.357,-37108.194,-14740.499,-5109.365,-18158.083,22561.423,13224.140,0.076,0.950,-0.311,7.324,-3.540,0.122,73.333,251.000,1.000
-5828.592,-20689.846,-38225.369,-15554.111,-5037.865,-18115.305,22509.354,13165.718,0.075,0.946,-0.310,7.385,-3.540,0.000,73.333,252.000,1.000
-5843.794,-20645.236,-39336.460,-16363.014,-4966.713,-18063.243,22456.577,13109.629,0.073,0.946,-0.310,7.385,-3.540,-0.214,73.333,253.000,1.000
-5859.961,-20595.538,-40441.048,-17166.932,-4896.931,-18003.536,22402.162,13053.675,0.072,0.943,-0.312,7.416,-3.693,-0.397,73.333,254.000,1.000
-5877.589,-20544.103,-41539.492,-17966.680,-4827.984,-17940.199,22347.595,12997.098,0.070,0.940,-0.316,7.355,-3.937,-0.641,73.333,255.000,1.000
-5896.626,-20494.607,-42632.678,-18763.348,-4758.792,-17878.050,22294.070,12940.543,0.067,0.936,-0.317,7.355,-3.906,-0.916,73.333,256.000,1.000
-5917.939,-20448.957,-43721.229,-19557.282,-4689.620,-17820.059,22240.021,12884.268,0.067,0.930,-0.315,7.538,-4.181,-1.251,73.333,257.000,1.000
-5942.835,-20407.051,-44804.999,-20347.970,-4622.010,-17766.244,22182.478,12827.210,0.067,0.925,-0.317,7.751,-4.181,-1.495,73.333,258.000,1.000
-5970.937,-20367.637,-45883.248,-21134.696,-4556.622,-17714.653,22120.997,12768.573,0.069,0.917,-0.320,8.026,-4.211,-1.678,73.333,259.000,1.000
-5999.472,-20329.045,-46955.301,-21917.108,-4492.020,-17663.091,22058.990,12709.717,0.067,0.917,-0.319,8.423,-4.395,-1.923,73.333,260.000,1.000
-6025.571,-20289.550,-48020.936,-22695.103,-4426.155,-17610.053,22000.525,12653.432,0.066,0.917,-0.320,8.942,-4.486,-2.045,73.333,261.000,1.000
-6048.552,-20247.487,-49080.159,-23468.374,-4358.600,-17554.474,21946.645,12601.548,0.067,0.922,-0.326,9.308,-4.486,-2.197,73.333,262.000,1.000
-6070.003,-20202.051,-50133.004,-24236.601,-4290.820,-17495.830,21895.154,12553.134,0.064,0.928,-0.327,9.644,-4.486,-2.289,73.333,263.000,1.000
-6091.694,-20154.275,-51179.699,-25000.100,-4224.283,-17434.921,21843.541,12505.344,0.062,0.935,-0.324,9.705,-4.517,-2.258,73.333,264.000,1.000
-6113.942,-20106.662,-52220.825,-25759.893,-4158.931,-17374.093,21790.890,12455.755,0.060,0.941,-0.323,9.857,-4.669,-2.197,73.333,265.000,1.000
-6137.002,-20062.054,-53257.194,-26517.047,-4093.980,-17316.558,21736.251,12402.722,0.061,0.945,-0.323,9.766,-4.883,-2.106,73.333,266.000,1.000
-6162.490,-20022.264,-54289.345,-27271.871,-4029.572,-17264.586,21677.116,12344.681,0.063,0.949,-0.329,9.613,-5.096,-1.923,73.333,267.000,1.000
-6192.368,-19987.276,-55317.114,-28023.820,-3966.808,-17217.970,21611.202,12280.389,0.066,0.953,-0.336,9.491,-5.188,-1.801,73.333,268.000,1.000
-6226.876,-19955.808,-56339.943,-28772.269,-3906.267,-17174.753,21539.276,12210.036,0.069,0.952,-0.342,9.033,-5.066,-1.740,73.333,269.000,1.000
-6263.535,-19925.891,-57357.336,-29516.991,-3846.945,-17132.583,21465.577,12136.429,0.067,0.947,-0.343,8.453,-4.852,-1.648,73.333,270.000,1.000
-6298.650,-19894.960,-58368.832,-30257.726,-3786.996,-17089.000,21395.061,12064.342,0.069,0.945,-0.338,8.087,-4.669,-1.495,73.333,271.000,1.000
-6330.024,-19860.639,-59373.928,-30993.855,-3725.530,-17041.750,21329.850,11997.593,0.071,0.942,-0.343,7.874,-4.608,-1.526,73.333,272.000,1.000
-6358.119,-19822.067,-60372.356,-31724.862,-3663.308,-16989.622,21268.652,11936.527,0.070,0.939,-0.346,7.690,-4.425,-1.465,73.333,273.000,1.000
-6384.417,-19780.256,-61364.293,-32450.911,-3601.470,-16932.744,21209.610,11878.967,0.069,0.938,-0.346,7.477,-4.364,-1.526,73.333,274.000,1.000
-6409.907,-19737.612,-62350.353,-33172.844,-3540.237,-16872.628,21152.030,11822.684,0.070,0.937,-0.345,7.416,-4.089,-1.465,73.333,275.000,1.000
-6435.842,-19697.278,-63331.407,-33891.666,-3479.325,-16812.098,21094.935,11766.022,0.071,0.934,-0.347,7.111,-3.998,-1.526,73.333,276.000,1.000
-6464.083,-19661.648,-64308.120,-34607.870,-3419.019,-16753.911,21035.957,11707.557,0.070,0.936,-0.349,6.989,-3.693,-1.495,73.333,277.000,1.000
-6496.270,-19631.412,-65280.680,-35321.359,-3360.305,-16699.525,20972.303,11645.585,0.069,0.934,-0.348,6.866,-3.571,-1.526,73.333,278.000,1.000
-6532.465,-19605.819,-66248.945,-36031.947,-3303.855,-16649.101,20903.053,11578.691,0.072,0.934,-0.348,6.683,-3.265,-1.404,73.333,279.000,1.000
-6570.044,-19582.515,-67212.454,-36739.429,-3248.994,-16601.292,20830.960,11507.947,0.072,0.937,-0.346,6.561,-3.021,-1.556,73.333,280.000,1.000
-6605.069,-19557.766,-68170.343,-37443.181,-3193.997,-16553.487,20760.907,11437.157,0.070,0.936,-0.347,6.470,-2.777,-1.801,73.333,281.000,1.000
-6635.218,-19528.314,-69121.647,-38142.190,-3137.584,-16503.400,20696.268,11370.262,0.069,0.936,-0.349,6.165,-2.716,-1.953,73.333,282.000,1.000
-6661.185,-19493.329,-70065.901,-38835.764,-3079.865,-16450.535,20636.902,11308.750,0.068,0.937,-0.350,5.890,-2.441,-2.045,73.333,283.000,1.000
-6685.358,-19454.605,-71003.496,-39524.172,-3021.816,-16396.273,20579.715,11251.103,0.067,0.940,-0.345,5.585,-2.258,-2.197,73.333,284.000,1.000
-6710.007,-19415.357,-71935.465,-40208.530,-2964.241,-16342.865,20520.776,11193.988,0.066,0.942,-0.348,5.219,-2.075,-2.411,73.333,285.000,1.000
-6736.943,-19378.774,-72862.903,-40890.051,-2907.508,-16292.306,20457.503,11134.076,0.066,0.946,-0.347,4.944,-1.770,-2.472,73.333,286.000,1.000
-6767.072,-19346.360,-73786.370,-41569.265,-2851.888,-16245.409,20389.607,11069.807,0.065,0.945,-0.346,4.395,-1.617,-2.625,73.333,287.000,1.000
-6799.763,-19317.149,-74705.667,-42245.856,-2797.645,-16201.509,20318.792,11001.722,0.064,0.942,-0.343,4.089,-1.434,-2.838,73.333,288.000,1.000
-6833.059,-19288.798,-75620.107,-42919.121,-2744.638,-16158.957,20247.937,10931.614,0.063,0.940,-0.342,3.754,-1.282,-3.082,73.333,289.000,1.000
-6864.748,-19259.338,-76529.028,-43588.523,-2692.139,-16115.919,20179.523,10861.545,0.063,0.941,-0.341,3.418,-1.068,-3.235,73.333,290.000,1.000
-6893.934,-19228.204,-77432.167,-44253.901,-2639.365,-16071.349,20113.582,10792.593,0.063,0.937,-0.345,3.113,-0.854,-3.235,73.333,291.000,1.000
-6921.388,-19195.951,-78329.572,-44915.242,-2586.098,-16025.246,20047.670,10724.522,0.064,0.932,-0.348,3.052,-0.824,-3.418,73.333,292.000,1.000
-6948.512,-19163.233,-79221.305,-45572.455,-2532.692,-15977.832,19979.550,10656.777,0.063,0.933,-0.343,3.021,-0.641,-3.387,73.333,293.000,1.000
-6976.153,-19130.299,-80107.457,-46225.575,-2479.626,-15928.778,19909.888,10589.788,0.062,0.934,-0.344,2.930,-0.275,-3.571,73.333,294.000,1.000
-7004.454,-19097.364,-80988.381,-46875.046,-2427.207,-15877.419,19841.893,10525.127,0.062,0.936,-0.344,2.869,-0.061,-3.601,73.333,295.000,1.000
-7033.876,-19065.336,-81864.716,-47521.600,-2375.686,-15823.952,19777.850,10463.746,0.059,0.939,-0.348,2.808,0.305,-3.845,73.333,296.000,1.000
-7065.052,-19035.334,-82736.899,-48165.638,-2325.283,-15769.933,19716.659,10404.916,0.057,0.941,-0.345,2.502,0.427,-3.937,73.333,297.000,1.000
-7097.615,-19007.237,-83604.676,-48806.756,-2275.892,-15717.252,19655.046,10347.191,0.056,0.942,-0.344,2.319,0.824,-3.967,73.333,298.000,1.000
-7130.420,-18979.930,-84467.419,-49444.229,-2227.121,-15667.432,19590.047,10289.141,0.053,0.941,-0.345,2.228,1.007,-4.059,73.333,299.000,1.000
-7162.724,-18952.661,-85324.845,-50077.829,-2178.676,-15621.467,19520.440,10229.317,0.051,0.936,-0.343,2.045,1.312,-4.089,73.333,300.000,1.000
-7194.028,-18924.718,-86176.924,-50707.687,-2130.330,-15578.885,19447.396,10167.018,0.046,0.931,-0.339,1.923,1.526,-3.998,73.333,301.000,1.000
-7223.142,-18894.569,-87023.353,-51333.588,-2081.672,-15537.393,19373.788,10103.168,0.043,0.925,-0.338,1.923,1.678,-3.998,73.333,302.000,1.000
-7248.971,-18860.928,-87863.734,-51955.070,-2032.404,-15494.477,19302.103,10039.195,0.041,0.921,-0.332,1.953,1.770,-3.693,73.333,303.000,1.000
-7271.656,-18824.077,-88698.056,-52571.996,-1982.640,-15448.880,19233.321,9975.768,0.040,0.919,-0.337,2.319,1.862,-3.448,73.333,304.000,1.000
-7292.654,-18785.859,-89526.723,-53184.726,-1932.742,-15400.992,19166.967,9912.917,0.036,0.918,-0.331,2.533,2.075,-3.143,73.333,305.000,1.000
-7314.713,-18749.247,-90350.359,-53793.946,-1883.169,-15352.960,19100.916,9849.869,0.032,0.918,-0.333,2.991,1.923,-2.563,73.333,306.000,1.000
-7340.386,-18716.724,-91169.459,-54400.214,-1834.328,-15307.221,19032.474,9785.422,0.029,0.918,-0.332,3.204,1.923,-2.136,73.333,307.000,1.000
-7369.664,-18687.910,-91983.974,-55003.477,-1786.239,-15263.961,18961.146,9719.527,0.027,0.917,-0.330,3.784,1.770,-1.465,73.333,308.000,1.000
-7400.058,-18659.889,-92793.486,-55603.295,-1738.617,-15221.091,18889.380,9653.680,0.024,0.914,-0.330,4.089,1.648,-1.007,73.333,309.000,1.000
-7429.349,-18630.291,-93597.961,-56199.646,-1691.477,-15177.179,18819.527,9588.966,0.019,0.914,-0.330,4.761,1.495,-0.427,73.333,310.000,1.000
-7457.603,-18599.173,-94397.995,-56793.139,-1645.340,-15133.340,18751.098,9524.415,0.019,0.918,-0.329,5.127,1.221,0.000,73.333,311.000,1.000
-7486.173,-18567.797,-95194.152,-57384.298,-1600.627,-15091.546,18681.838,9458.287,0.014,0.918,-0.322,5.615,0.946,0.366,73.333,312.000,1.000
-7515.870,-18536.595,-95986.256,-57972.864,-1557.048,-15051.811,18610.526,9390.386,0.010,0.923,-0.323,5.981,0.580,0.610,73.333,313.000,1.000
-7546.279,-18504.581,-96773.377,-58557.854,-1513.660,-15011.646,18538.088,9322.751,0.009,0.929,-0.322,6.348,0.092,0.824,73.333,314.000,1.000
-7576.261,-18470.383,-97554.503,-59138.264,-1469.519,-14968.128,18466.444,9258.258,0.007,0.933,-0.317,6.622,-0.366,0.946,73.333,315.000,1.000
-7605.169,-18433.815,-98329.292,-59713.803,-1424.350,-14920.297,18396.803,9198.203,0.008,0.941,-0.317,6.744,-0.885,0.977,73.333,316.000,1.000
-7633.209,-18396.394,-99098.304,-60285.090,-1378.715,-14869.651,18328.957,9141.333,0.010,0.949,-0.318,6.714,-1.404,1.099,73.333,317.000,1.000
-7661.128,-18360.521,-99862.636,-60853.248,-1333.674,-14819.003,18261.452,9084.771,0.014,0.955,-0.319,6.561,-1.801,1.221,73.333,318.000,1.000
-7689.555,-18327.983,-100623.153,-61419.122,-1290.066,-14770.766,18192.518,9025.877,0.017,0.961,-0.321,6.378,-2.441,1.495,73.333,319.000,1.000
-7718.090,-18298.508,-101379.828,-61982.630,-1247.869,-14725.367,18121.642,8963.979,0.021,0.964,-0.319,5.981,-2.808,2.045,73.333,320.000,1.000
-7745.554,-18269.960,-102131.878,-62542.958,-1206.291,-14681.190,18050.025,8900.223,0.027,0.964,-0.323,5.524,-3.418,2.533,73.333,321.000,1.000
-7771.289,-18240.288,-102878.586,-63099.407,-1164.565,-14636.289,17979.166,8835.942,0.031,0.962,-0.323,5.188,-3.906,3.204,73.333,322.000,1.000
-7796.270,-18209.257,-103619.943,-63651.986,-1122.595,-14590.137,17909.209,8771.253,0.035,0.958,-0.323,4.791,-4.211,3.723,73.333,323.000,1.000
-7822.605,-18178.279,-104356.473,-64201.205,-1080.855,-14543.776,17838.954,8705.296,0.038,0.952,-0.331,4.486,-4.150,4.303,73.333,324.000,1.000
-7851.411,-18148.439,-105088.549,-64747.409,-1039.747,-14498.169,17767.471,8637.904,0.042,0.943,-0.333,4.150,-3.967,4.730,73.333,325.000,1.000
-7881.393,-18118.856,-105815.940,-65290.352,-999.095,-14452.530,17695.471,8570.531,0.041,0.931,-0.330,4.059,-3.754,5.341,73.333,326.000,1.000
-7909.705,-18087.358,-106538.064,-65829.451,-958.311,-14404.855,17624.642,8505.198,0.044,0.928,-0.327,4.364,-3.662,5.859,73.333,327.000,1.000
-7934.871,-18053.025,-107254.778,-66364.570,-917.195,-14354.441,17555.332,8442.167,0.048,0.926,-0.327,4.547,-3.662,6.317,73.333,328.000,1.000
-7958.411,-18017.487,-107966.682,-66896.310,-876.326,-14303.221,17485.657,8379.314,0.046,0.936,-0.331,4.761,-3.479,6.622,73.333,329.000,1.000
-7983.171,-17983.374,-108674.478,-67425.367,-836.463,-14254.190,17413.239,8314.246,0.044,0.950,-0.334,4.852,-3.418,7.141,73.333,330.000,1.000
-8010.864,-17952.110,-109378.337,-67951.902,-797.833,-14209.153,17337.307,8246.210,0.044,0.964,-0.337,4.639,-3.571,7.629,73.333,331.000,1.000
-8040.514,-17922.823,-110077.830,-68475.493,-759.972,-14167.562,17259.589,8176.784,0.039,0.971,-0.333,4.181,-3.601,8.026,73.333,332.000,1.000
-8068.863,-17892.824,-110772.201,-68995.383,-722.000,-14126.968,17183.378,8109.067,0.040,0.972,-0.334,3.693,-3.754,8.545,73.333,333.000,1.000
-8093.108,-17859.931,-111460.889,-69510.997,-683.255,-14085.408,17110.778,8045.058,0.038,0.969,-0.338,3.021,-3.998,8.881,73.333,334.000,1.000
-8113.372,-17824.507,-112143.990,-70022.421,-643.831,-14043.408,17040.874,7983.652,0.037,0.966,-0.340,2.441,-4.272,9.338,73.333,335.000,1.000
-8132.218,-17788.715,-112822.072,-70530.263,-604.370,-14002.857,16971.262,7921.907,0.038,0.964,-0.345,1.984,-4.578,9.552,73.333,336.000,1.000
-8151.972,-17754.048,-113495.612,-71035.052,-565.383,-13964.316,16900.664,7858.134,0.043,0.961,-0.345,1.678,-4.913,9.705,73.333,337.000,1.000
-8173.628,-17720.471,-114164.805,-71536.976,-527.005,-13926.491,16828.985,7792.571,0.048,0.960,-0.348,1.221,-5.249,9.888,73.333,338.000,1.000
-8197.425,-17687.491,-114829.684,-72035.978,-489.203,-13887.951,16755.957,7725.780,0.055,0.962,-0.352,1.007,-5.432,10.040,73.333,339.000,1.000
-8222.784,-17654.823,-115490.110,-72531.833,-451.870,-13848.182,16681.386,7658.091,0.061,0.967,-0.357,0.702,-5.737,10.254,73.333,340.000,1.000
-8248.314,-17622.379,-116145.829,-73024.289,-414.834,-13807.179,16606.118,7590.127,0.068,0.968,-0.351,0.305,-5.920,10.406,73.333,341.000,1.000
-8272.496,-17590.255,-116796.716,-73513.291,-377.968,-13764.851,16531.643,7523.075,0.075,0.964,-0.353,-0.122,-5.981,10.559,73.333,342.000,1.000
-8294.690,-17558.645,-117442.893,-73999.024,-341.283,-13721.022,16458.769,7458.060,0.083,0.958,-0.354,-0.519,-6.134,10.773,73.333,343.000,1.000
-8315.561,-17527.650,-118084.570,-74481.699,-304.886,-13675.782,16387.101,7395.335,0.089,0.952,-0.356,-0.793,-6.104,10.895,73.333,344.000,1.000
-8336.393,-17497.106,-118721.896,-74961.422,-268.930,-13629.224,16315.597,7334.290,0.094,0.952,-0.361,-1.038,-5.951,11.200,73.333,345.000,1.000
-8358.211,-17466.494,-119354.978,-75438.265,-233.592,-13580.365,16243.379,7273.954,0.101,0.950,-0.361,-1.343,-5.737,11.353,73.333,346.000,1.000
-8381.092,-17434.815,-119983.876,-75912.268,-198.956,-13526.205,16170.298,7213.803,0.108,0.948,-0.361,-1.617,-5.585,11.383,73.333,347.000,1.000
-8404.572,-17401.094,-120608.550,-76383.378,-164.913,-13462.671,16096.725,7153.874,0.115,0.945,-0.357,-1.709,-5.280,11.292,73.333,348.000,1.000
-8428.583,-17365.482,-121228.890,-76851.479,-131.262,-13387.299,16022.826,7094.026,0.121,0.945,-0.358,-1.709,-4.822,10.956,73.333,349.000,1.000
-8453.223,-17329.254,-121844.700,-77316.383,-97.797,-13301.343,15948.491,7033.773,0.124,0.943,-0.356,-1.862,-4.517,10.254,73.333,350.000,1.000
-8478.213,-17293.835,-122455.790,-77777.911,-64.373,-13210.668,15873.824,6972.730,0.125,0.940,-0.355,-1.984,-4.150,9.888,73.333,351.000,1.000
-8502.909,-17260.031,-123062.163,-78236.071,-31.015,-13125.012,15799.365,6911.262,0.126,0.938,-0.355,-2.197,-3.601,9.521,73.333,352.000,1.000
-8526.764,-17227.715,-123664.000,-78691.045,2.122,-13054.384,15725.740,6850.332,0.127,0.934,-0.357,-2.350,-3.296,9.125,73.333,353.000,1.000
-8549.477,-17195.890,-124261.399,-79142.932,34.953,-13004.000,15653.151,6790.545,0.129,0.935,-0.355,-2.563,-2.899,8.820,73.333,354.000,1.000
-8570.697,-17163.227,-124854.227,-79591.573,67.588,-12971.416,15581.174,6731.616,0.130,0.931,-0.354,-2.777,-2.686,8.423,73.333,355.000,1.000
-8590.170,-17128.965,-125442.251,-80036.694,100.246,-12948.069,15508.756,6672.435,0.128,0.926,-0.348,-2.960,-2.350,7.812,73.333,356.000,1.000
-8607.746,-17093.133,-126025.302,-80478.095,133.150,-12923.802,15434.872,6611.891,0.125,0.921,-0.346,-3.143,-2.136,7.416,73.333,357.000,1.000
-8623.410,-17055.896,-126603.331,-80915.733,166.458,-12891.233,15359.785,6549.887,0.121,0.917,-0.344,-3.296,-2.014,6.805,73.333,358.000,1.000
-8637.639,-17017.187,-127176.429,-81349.727,200.137,-12847.976,15285.427,6487.539,0.118,0.912,-0.344,-3.174,-1.892,6.165,73.333,359.000,1.000
-8651.487,-16977.011,-127744.811,-81780.311,233.935,-12796.533,15213.832,6426.399,0.114,0.907,-0.339,-3.113,-1.801,5.463,73.333,360.000,1.000
-8666.346,-16935.939,-128308.782,-82207.807,267.464,-12742.478,15145.224,6367.212,0.110,0.904,-0.343,-2.838,-1.953,4.608,73.333,361.000,1.000
-8683.018,-16894.918,-128868.675,-82632.566,300.373,-12691.546,15078.198,6309.776,0.107,0.904,-0.338,-2.655,-1.984,3.815,73.333,362.000,1.000
-8701.266,-16854.709,-129424.735,-83054.837,332.492,-12647.460,15011.030,6253.477,0.105,0.903,-0.334,-2.533,-2.228,3.113,73.333,363.000,1.000
-8720.681,-16816.089,-129977.068,-83474.703,363.799,-12612.154,14941.972,6197.141,0.099,0.901,-0.331,-2.350,-2.380,2.380,73.333,364.000,1.000
-8741.370,-16780.194,-130525.677,-83892.144,394.298,-12586.592,14869.364,6139.045,0.094,0.899,-0.333,-2.350,-2.655,1.648,73.333,365.000,1.000
-8763.664,-16748.046,-131070.450,-84307.048,424.059,-12570.205,14792.683,6077.941,0.090,0.898,-0.330,-2.197,-2.930,0.946,73.333,366.000,1.000
-8787.338,-16719.707,-131611.097,-84719.160,453.347,-12560.022,14713.385,6014.310,0.084,0.898,-0.327,-2.014,-3.357,0.397,73.333,367.000,1.000
-8811.608,-16693.939,-132147.239,-85128.117,482.559,-12551.345,14634.240,5949.984,0.081,0.896,-0.326,-1.984,-3.693,-0.275,73.333,368.000,1.000
-8835.845,-16668.878,-132678.647,-85533.654,511.944,-12539.875,14557.771,5886.425,0.078,0.900,-0.330,-1.892,-4.120,-0.977,73.333,369.000,1.000
-8859.960,-16643.170,-133205.432,-85935.808,541.411,-12523.587,14485.076,5823.696,0.075,0.906,-0.326,-1.923,-4.639,-1.526,73.333,370.000,1.000
-8884.411,-16616.651,-133727.952,-86334.888,570.619,-12503.380,14415.365,5760.713,0.074,0.912,-0.325,-1.862,-5.096,-2.136,73.333,371.000,1.000
-8909.622,-16590.154,-134246.511,-86731.191,599.310,-12482.388,14346.356,5696.364,0.071,0.920,-0.325,-2.045,-5.493,-2.686,73.333,372.000,1.000
-8935.534,-16564.943,-134761.215,-87124.863,627.424,-12464.437,14275.561,5630.262,0.068,0.927,-0.328,-2.258,-5.859,-3.082,73.333,373.000,1.000
-8961.701,-16542.122,-135272.066,-87515.960,654.963,-12452.637,14201.697,5562.759,0.066,0.933,-0.325,-2.594,-6.195,-3.418,73.333,374.000,1.000
-8987.487,-16521.977,-135778.991,-87904.436,681.970,-12448.486,14125.184,5494.783,0.064,0.938,-0.326,-3.082,-6.470,-3.418,73.333,375.000,1.000
-9012.450,-16503.642,-136281.810,-88290.088,708.614,-12450.980,14047.841,5427.427,0.065,0.940,-0.329,-3.723,-6.775,-3.510,73.333,376.000,1.000
-9036.346,-16485.321,-136780.242,-88672.602,735.208,-12456.167,13972.014,5361.730,0.063,0.939,-0.330,-4.150,-7.172,-3.296,73.333,377.000,1.000
-9059.182,-16465.265,-137273.970,-89051.626,762.138,-12458.529,13898.731,5298.164,0.061,0.940,-0.327,-4.761,-7.446,-3.204,73.333,378.000,1.000
-9081.330,-16442.730,-137762.728,-89426.858,789.730,-12453.215,13826.913,5236.036,0.063,0.938,-0.326,-5.157,-7.660,-2.930,73.333,379.000,1.000
-9103.102,-16417.710,-138246.478,-89798.233,818.037,-12437.135,13755.151,5174.097,0.065,0.937,-0.329,-5.676,-7.874,-2.625,73.333,380.000,1.000
-9124.736,-16390.493,-138725.599,-90166.129,846.651,-12409.738,13683.265,5111.555,0.065,0.935,-0.330,-5.859,-8.087,-2.258,73.333,381.000,1.000
-9146.626,-16361.922,-139200.772,-90531.255,874.860,-12373.573,13611.882,5048.533,0.065,0.937,-0.332,-6.165,-8.148,-2.045,73.333,382.000,1.000
-9169.436,-16333.585,-139672.658,-90894.322,901.994,-12333.360,13541.299,4985.598,0.066,0.937,-0.330,-6.409,-8.270,-1.587,73.333,383.000,1.000
-9193.744,-16307.131,-140141.604,-91255.748,927.697,-12293.818,13471.048,4923.078,0.066,0.940,-0.333,-6.653,-8.392,-1.251,73.333,384.000,1.000
-9219.151,-16282.996,-140607.388,-91615.353,952.163,-12257.609,13400.325,4861.169,0.066,0.942,-0.334,-6.775,-8.423,-0.763,73.333,385.000,1.000
-9244.515,-16260.312,-141069.293,-91972.387,976.099,-12225.144,13328.305,4799.947,0.067,0.940,-0.339,-7.050,-8.484,-0.366,73.333,386.000,1.000
-9269.224,-16238.296,-141526.679,-92326.113,1000.189,-12195.817,13254.427,4739.008,0.069,0.938,-0.339,-7.233,-8.484,0.000,73.333,387.000,1.000
-9293.749,-16217.004,-141979.452,-92676.344,1024.626,-12168.539,13179.119,4677.577,0.070,0.933,-0.337,-7.172,-8.545,0.580,73.333,388.000,1.000
-9318.581,-16196.387,-142427.865,-93023.284,1049.239,-12141.490,13103.970,4615.437,0.070,0.929,-0.332,-7.141,-8.484,0.916,73.333,389.000,1.000
-9343.063,-16175.295,-142872.151,-93367.164,1073.830,-12112.461,13030.514,4553.465,0.071,0.928,-0.332,-6.927,-8.453,1.312,73.333,390.000,1.000
-9366.230,-16152.319,-143312.535,-93708.252,1098.142,-12080.064,12958.850,4492.387,0.073,0.929,-0.337,-6.866,-8.392,1.678,73.333,391.000,1.000
-9387.818,-16127.020,-143749.241,-94046.863,1121.888,-12044.260,12888.025,4431.877,0.076,0.932,-0.337,-6.592,-8.270,2.106,73.333,392.000,1.000
-9407.905,-16099.716,-144182.248,-94383.055,1145.050,-12005.477,12817.483,4371.476,0.077,0.936,-0.335,-6.470,-8.240,2.319,73.333,393.000,1.000
-9426.300,-16070.730,-144611.212,-94716.493,1167.995,-11963.893,12747.411,4311.584,0.079,0.938,-0.331,-6.378,-8.179,2.625,73.333,394.000,1.000
-9442.656,-16040.197,-145035.718,-95046.712,1191.206,-11919.609,12678.082,4253.315,0.082,0.938,-0.332,-6.256,-8.087,3.021,73.333,395.000,1.000
-9457.271,-16008.452,-145455.556,-95373.442,1214.974,-11873.129,12609.537,4197.382,0.083,0.939,-0.330,-6.256,-8.118,3.265,73.333,396.000,1.000
-9471.169,-15976.219,-145870.802,-95696.725,1239.260,-11825.611,12541.823,4143.350,0.092,0.939,-0.336,-6.226,-7.996,3.235,73.333,397.000,1.000
-9485.495,-15944.253,-146281.801,-96016.870,1263.718,-11779.158,12474.786,4089.776,0.094,0.942,-0.341,-5.920,-7.538,3.235,73.333,398.000,1.000
-9500.932,-15912.887,-146689.040,-96334.333,1287.841,-11737.104,12407.433,4034.866,0.097,0.943,-0.346,-5.798,-6.897,3.479,73.333,399.000,1.000
-9517.337,-15881.911,-147092.903,-96649.504,1311.222,-11702.577,12338.225,3977.523,0.096,0.945,-0.341,-5.432,-6.378,3.815,73.333,400.000,1.000
-9534.118,-15850.912,-147493.519,-96962.573,1333.697,-11675.497,12266.235,3917.900,0.097,0.947,-0.338,-5.157,-5.890,4.028,73.333,401.000,1.000
-9550.521,-15819.433,-147890.760,-97273.484,1355.366,-11651.019,12191.949,3857.352,0.096,0.946,-0.330,-4.974,-5.524,4.333,73.333,402.000,1.000
-9565.639,-15786.834,-148284.324,-97581.946,1376.536,-11621.225,12117.190,3797.973,0.097,0.944,-0.328,-4.913,-5.127,4.517,73.333,403.000,1.000
-9578.758,-15752.623,-148673.834,-97887.530,1397.629,-11578.833,12044.353,3741.834,0.098,0.942,-0.328,-4.730,-4.669,4.669,73.333,404.000,1.000
-9589.736,-15716.816,-149058.926,-98189.795,1419.089,-11520.625,11975.267,3690.197,0.098,0.939,-0.327,-4.364,-4.425,4.852,73.333,405.000,1.000
-9599.255,-15679.758,-149439.379,-98488.466,1441.209,-11449.173,11910.148,3642.522,0.097,0.937,-0.328,-3.998,-4.028,4.852,73.333,406.000,1.000
-9608.613,-15641.900,-149815.297,-98783.637,1463.927,-11372.042,11847.400,3596.349,0.098,0.938,-0.330,-3.540,-3.784,4.791,73.333,407.000,1.000
-9619.233,-15603.763,-150187.067,-99075.727,1486.855,-11298.281,11784.596,3548.657,0.096,0.936,-0.329,-3.143,-3.326,4.761,73.333,408.000,1.000
-9631.894,-15565.652,-150555.042,-99365.154,1509.605,-11234.133,11719.809,3497.677,0.097,0.936,-0.329,-2.716,-3.082,4.608,73.333,409.000,1.000
-9646.111,-15527.452,-150919.343,-99652.107,1531.996,-11180.950,11652.218,3443.593,0.096,0.932,-0.331,-2.380,-2.747,4.486,73.333,410.000,1.000
-9660.920,-15489.314,-151280.038,-99936.660,1553.930,-11136.431,11581.899,3387.576,0.097,0.931,-0.330,-1.984,-2.502,4.303,73.333,411.000,1.000
-9675.886,-15452.327,-151637.297,-100218.926,1575.253,-11097.170,11509.415,3330.720,0.099,0.930,-0.323,-1.526,-2.258,4.211,73.333,412.000,1.000
-9691.185,-15417.911,-151991.300,-100499.025,1595.836,-11060.050,11435.557,3273.743,0.098,0.931,-0.327,-0.916,-1.953,4.059,73.333,413.000,1.000
-9706.812,-15386.462,-152342.075,-100776.966,1615.718,-11022.161,11361.498,3217.304,0.099,0.931,-0.330,-0.397,-1.648,3.815,73.333,414.000,1.000
-9721.946,-15356.715,-152689.496,-101052.638,1635.077,-10980.811,11288.876,3162.320,0.097,0.934,-0.331,0.092,-1.373,3.510,73.333,415.000,1.000
-9735.794,-15326.660,-153033.412,-101325.887,1654.099,-10934.983,11218.922,3109.208,0.097,0.936,-0.328,0.549,-1.038,3.113,73.333,416.000,1.000
-9748.471,-15294.919,-153373.602,-101596.458,1673.021,-10886.681,11151.502,3057.229,0.095,0.936,-0.326,0.854,-0.763,2.747,73.333,417.000,1.000
-9760.864,-15261.270,-153709.738,-101863.985,1692.162,-10840.170,11085.244,3005.011,0.097,0.937,-0.333,1.007,-0.549,2.289,73.333,418.000,1.000
-9774.077,-15226.398,-154041.578,-102128.225,1711.732,-10799.626,11018.562,2951.506,0.098,0.937,-0.332,1.190,-0.275,1.862,73.333,419.000,1.000
-9788.742,-15191.234,-154369.156,-102389.255,1731.663,-10766.967,10950.714,2896.653,0.099,0.935,-0.338,1.587,0.153,1.434,73.333,420.000,1.000
-9804.641,-15156.361,-154692.691,-102647.352,1751.718,-10741.349,10882.109,2841.232,0.099,0.933,-0.336,1.892,0.488,1.221,73.333,421.000,1.000
-9820.530,-15121.776,-155012.394,-102902.762,1771.698,-10720.178,10813.666,2786.236,0.099,0.933,-0.335,2.258,0.702,0.854,73.333,422.000,1.000
-9834.804,-15087.297,-155328.474,-103155.684,1791.440,-10700.611,10745.561,2731.943,0.099,0.933,-0.335,2.563,1.099,0.549,73.333,423.000,1.000
-9846.699,-15053.275,-155641.208,-103406.356,1810.727,-10680.690,10676.835,2677.522,0.104,0.934,-0.334,2.838,1.465,0.153,73.333,424.000,1.000
-9856.595,-15020.404,-155950.823,-103654.971,1829.388,-10659.505,10606.714,2622.028,0.105,0.935,-0.334,2.991,2.014,-0.153,73.333,425.000,1.000
-9865.678,-14988.914,-156257.306,-103901.498,1847.454,-10637.073,10535.560,2565.192,0.105,0.934,-0.336,3.143,2.472,-0.488,73.333,426.000,1.000
-9875.098,-14958.185,-156560.402,-104145.665,1865.167,-10614.300,10464.319,2507.375,0.106,0.932,-0.336,3.418,2.899,-0.732,73.333,427.000,1.000
-9885.168,-14926.941,-156859.784,-104387.124,1882.838,-10592.093,10394.045,2449.341,0.109,0.932,-0.335,3.510,3.479,-0.854,73.333,428.000,1.000
-9895.339,-14893.730,-157155.238,-104625.657,1900.666,-10570.162,10326.018,2392.202,0.108,0.934,-0.333,3.662,3.998,-1.038,73.333,429.000,1.000
-9904.804,-14857.548,-157446.714,-104861.234,1918.684,-10546.993,10261.251,2337.196,0.109,0.935,-0.336,3.754,4.578,-1.312,73.333,430.000,1.000
-9913.439,-14818.631,-157734.277,-105093.936,1936.834,-10521.301,10199.397,2284.767,0.109,0.938,-0.339,3.662,5.096,-1.434,73.333,431.000,1.000
-9921.912,-14778.698,-158018.074,-105323.913,1955.001,-10493.534,10138.374,2233.899,0.109,0.939,-0.337,3.601,5.615,-1.526,73.333,432.000,1.000
-9930.980,-14739.961,-158298.378,-105551.431,1972.945,-10465.831,10075.391,2182.608,0.107,0.938,-0.336,3.510,6.104,-1.709,73.333,433.000,1.000
-9940.839,-14703.662,-158575.529,-105776.842,1990.332,-10440.316,10008.833,2129.448,0.105,0.937,-0.340,3.510,6.592,-1.923,73.333,434.000,1.000
-9950.900,-14669.448,-158849.742,-106000.370,2006.955,-10417.444,9939.269,2074.776,0.102,0.939,-0.344,3.448,7.019,-2.106,73.333,435.000,1.000
-9960.447,-14636.018,-159120.944,-106221.931,2022.909,-10396.152,9868.466,2020.172,0.100,0.941,-0.345,3.265,7.446,-2.289,73.333,436.000,1.000
-9969.117,-14602.076,-159388.763,-106441.117,2038.596,-10375.162,9797.914,1966.978,0.098,0.941,-0.342,3.113,7.660,-2.502,73.333,437.000,1.000
-9977.041,-14566.900,-159652.765,-106657.463,2054.488,-10353.911,9728.284,1915.349,0.095,0.941,-0.344,2.899,8.057,-2.563,73.333,438.000,1.000
-9984.864,-14530.607,-159912.805,-106870.804,2070.772,-10332.741,9659.543,1864.317,0.090,0.946,-0.341,2.625,8.179,-2.716,73.333,439.000,1.000
-9993.272,-14494.044,-160169.114,-107081.354,2087.247,-10312.378,9591.354,1812.803,0.086,0.947,-0.343,2.380,8.423,-2.869,73.333,440.000,1.000
-10002.668,-14458.497,-160422.081,-107289.492,2103.529,-10293.262,9523.506,1760.350,0.086,0.947,-0.341,2.014,8.514,-2.869,73.333,441.000,1.000
-10012.865,-14425.123,-160671.937,-107495.473,2119.347,-10275.257,9456.037,1707.426,0.084,0.948,-0.341,1.709,8.575,-2.869,73.333,442.000,1.000
-10023.049,-14394.090,-160918.541,-107699.220,2134.769,-10257.671,9388.972,1655.218,0.083,0.948,-0.341,1.251,8.575,-2.930,73.333,443.000,1.000
-10032.367,-14364.169,-161161.522,-107900.427,2150.117,-10239.303,9322.229,1604.689,0.080,0.948,-0.340,0.977,8.606,-2.960,73.333,444.000,1.000
-10040.443,-14333.237,-161400.673,-108098.901,2165.630,-10218.657,9255.631,1555.750,0.077,0.946,-0.340,0.610,8.545,-3.021,73.333,445.000,1.000
-10047.659,-14299.667,-161636.172,-108294.770,2181.231,-10194.768,9188.699,1507.144,0.075,0.946,-0.343,0.305,8.392,-2.960,73.333,446.000,1.000
-10054.736,-14263.381,-161868.415,-108488.371,2196.615,-10167.851,9120.887,1457.388,0.073,0.944,-0.341,-0.092,8.240,-2.930,73.333,447.000,1.000
-10062.237,-14225.584,-162097.710,-108679.986,2211.506,-10139.017,9052.234,1405.891,0.071,0.947,-0.337,-0.336,8.026,-2.960,73.333,448.000,1.000
-10070.397,-14187.712,-162324.085,-108869.618,2225.869,-10109.466,8983.666,1353.422,0.070,0.946,-0.338,-0.671,7.721,-2.777,73.333,449.000,1.000
-10078.865,-14150.429,-162547.261,-109056.957,2239.961,-10079.604,8916.680,1302.069,0.068,0.946,-0.336,-0.977,7.416,-2.625,73.333,450.000,1.000
-10087.016,-14113.687,-162766.868,-109241.616,2254.147,-10048.934,8852.478,1254.126,0.065,0.947,-0.337,-1.343,7.202,-2.472,73.333,451.000,1.000
-10094.499,-14077.428,-162982.735,-109423.447,2268.598,-10016.876,8790.954,1210.415,0.065,0.945,-0.335,-1.770,6.805,-2.228,73.333,452.000,1.000
-10101.435,-14041.686,-163194.989,-109602.628,2283.193,-9983.425,8730.344,1169.423,0.063,0.943,-0.334,-2.075,6.439,-1.984,73.333,453.000,1.000
-10108.329,-14006.288,-163403.879,-109779.443,2297.687,-9948.959,8668.376,1128.327,0.063,0.942,-0.335,-2.289,6.012,-1.648,73.333,454.000,1.000
-10115.629,-13970.786,-163609.488,-109953.962,2311.994,-9913.455,8604.015,1085.122,0.064,0.937,-0.333,-2.472,5.615,-1.465,73.333,455.000,1.000
-10123.290,-13934.636,-163811.670,-110126.000,2326.243,-9876.122,8537.709,1039.323,0.063,0.936,-0.331,-2.716,5.157,-1.251,73.333,456.000,1.000
-10130.344,-13897.210,-164010.254,-110295.374,2340.594,-9835.731,8470.710,991.638,0.064,0.936,-0.328,-2.899,4.730,-0.946,73.333,457.000,1.000
-10135.491,-13858.007,-164205.301,-110462.160,2355.019,-9791.372,8404.650,943.742,0.063,0.938,-0.331,-3.113,4.364,-0.732,73.333,458.000,1.000
-10138.567,-13817.374,-164397.118,-110626.675,2369.291,-9743.517,8340.692,897.482,0.064,0.939,-0.329,-3.357,3.998,-0.336,73.333,459.000,1.000
-10140.894,-13776.634,-164586.032,-110789.228,2383.186,-9694.452,8278.482,853.631,0.064,0.943,-0.327,-3.632,3.632,-0.061,73.333,460.000,1.000
-10144.444,-13737.375,-164772.212,-110949.941,2396.590,-9647.394,8216.413,811.209,0.065,0.944,-0.326,-3.967,3.235,0.244,73.333,461.000,1.000
-10150.541,-13700.664,-164955.680,-111108.797,2409.459,-9604.760,8153.226,768.469,0.064,0.949,-0.325,-4.211,2.747,0.519,73.333,462.000,1.000
-10159.336,-13666.697,-165136.418,-111265.760,2421.747,-9566.824,8089.019,724.407,0.064,0.952,-0.323,-4.608,2.289,0.916,73.333,463.000,1.000
-10170.204,-13634.912,-165314.424,-111420.851,2433.395,-9531.884,8024.486,678.942,0.065,0.952,-0.325,-5.005,1.801,1.221,73.333,464.000,1.000
-10181.837,-13604.011,-165489.573,-111573.993,2444.502,-9497.416,7959.782,632.426,0.064,0.952,-0.324,-5.432,1.404,1.495,73.333,465.000,1.000
-10192.529,-13572.233,-165661.503,-111724.873,2455.438,-9461.405,7894.422,585.341,0.066,0.949,-0.321,-5.829,1.099,1.770,73.333,466.000,1.000
-10200.938,-13538.177,-165829.780,-111873.082,2466.684,-9423.262,7827.900,538.248,0.068,0.946,-0.323,-6.134,0.549,1.923,73.333,467.000,1.000
-10206.661,-13501.314,-165994.137,-112018.337,2478.572,-9383.577,7760.521,491.682,0.070,0.944,-0.320,-6.439,0.244,2.197,73.333,468.000,1.000
-10209.978,-13461.845,-166154.506,-112160.537,2491.207,-9343.069,7694.007,446.274,0.072,0.944,-0.321,-6.622,-0.031,2.472,73.333,469.000,1.000
-10211.358,-13420.572,-166310.995,-112299.773,2504.473,-9302.189,7630.530,402.736,0.072,0.945,-0.317,-6.836,-0.488,2.686,73.333,470.000,1.000
-10211.840,-13379.081,-166464.021,-112436.467,2517.931,-9261.651,7570.549,360.828,0.075,0.945,-0.314,-7.050,-0.763,2.808,73.333,471.000,1.000
-10212.817,-13339.165,-166614.223,-112571.255,2530.940,-9222.336,7512.387,319.154,0.078,0.947,-0.315,-7.202,-1.099,3.052,73.333,472.000,1.000
-10215.162,-13301.833,-166762.033,-112704.552,2543.079,-9184.543,7453.556,276.195,0.080,0.948,-0.314,-7.538,-1.373,3.357,73.333,473.000,1.000
-10219.213,-13267.299,-166907.476,-112836.354,2554.332,-9148.241,7391.781,230.741,0.081,0.947,-0.314,-7.874,-1.740,3.418,73.333,474.000,1.000
-10225.002,-13235.162,-167050.355,-112966.442,2564.921,-9113.579,7325.881,182.136,0.086,0.947,-0.313,-8.118,-1.862,3.571,73.333,475.000,1.000
-10232.156,-13203.998,-167190.415,-113094.541,2575.152,-9080.321,7256.813,131.020,0.088,0.944,-0.310,-8.240,-1.953,3.540,73.333,476.000,1.000
-10239.558,-13171.347,-167327.356,-113220.328,2585.382,-9046.977,7187.566,79.816,0.088,0.940,-0.310,-8.331,-2.075,3.601,73.333,477.000,1.000
-10245.895,-13135.109,-167460.926,-113343.550,2595.885,-9011.420,7120.993,31.409,0.092,0.936,-0.310,-8.484,-2.197,3.632,73.333,478.000,1.000
-10250.754,-13095.238,-167591.075,-113464.206,2606.675,-8972.405,7057.501,-13.290,0.095,0.934,-0.307,-8.514,-2.319,3.479,73.333,479.000,1.000
-10254.582,-13053.624,-167717.958,-113582.520,2617.538,-8929.755,6995.359,-55.861,0.095,0.931,-0.306,-8.545,-2.258,3.296,73.333,480.000,1.000
-10258.128,-13012.587,-167841.829,-113698.774,2628.191,-8883.691,6932.736,-98.647,0.098,0.932,-0.307,-8.392,-2.197,2.991,73.333,481.000,1.000
-10261.882,-12973.582,-167962.867,-113813.120,2638.486,-8834.891,6868.946,-142.826,0.100,0.932,-0.307,-8.270,-2.228,2.747,73.333,482.000,1.000
-10265.795,-12936.841,-168081.051,-113925.466,2648.520,-8785.077,6804.427,-188.027,0.100,0.935,-0.305,-8.301,-2.197,2.411,73.333,483.000,1.000
-10269.572,-12901.893,-168196.262,-114035.628,2658.473,-8737.241,6740.188,-233.346,0.099,0.937,-0.301,-8.148,-2.167,2.106,73.333,484.000,1.000
-10272.992,-12868.121,-168308.505,-114143.594,2668.347,-8694.846,6677.085,-278.197,0.101,0.942,-0.302,-8.148,-2.045,1.770,73.333,485.000,1.000
-10276.168,-12834.990,-168417.987,-114249.598,2677.903,-8660.201,6615.174,-322.544,0.102,0.943,-0.300,-8.057,-2.014,1.465,73.333,486.000,1.000
-10279.383,-12802.086,-168524.846,-114353.844,2686.980,-8633.088,6553.667,-366.562,0.105,0.944,-0.294,-8.179,-1.953,1.251,73.333,487.000,1.000
-10282.697,-12768.991,-168628.878,-114456.157,2695.820,-8610.609,6491.766,-410.227,0.105,0.946,-0.293,-8.270,-1.892,0.977,73.333,488.000,1.000
-10285.670,-12735.152,-168729.579,-114556.001,2704.995,-8588.550,6429.665,-453.153,0.106,0.945,-0.296,-8.453,-1.709,0.580,73.333,489.000,1.000
-10287.336,-12699.962,-168826.514,-114652.880,2714.993,-8563.457,6368.444,-494.770,0.107,0.946,-0.295,-8.514,-1.617,0.397,73.333,490.000,1.000
-10287.055,-12663.189,-168919.699,-114746.777,2725.790,-8534.031,6309.016,-535.076,0.107,0.948,-0.296,-8.484,-1.465,0.122,73.333,491.000,1.000
-10285.214,-12625.187,-169009.662,-114838.229,2736.816,-8500.965,6251.593,-574.718,0.108,0.950,-0.294,-8.514,-1.190,-0.031,73.333,492.000,1.000
-10283.166,-12586.719,-169097.140,-114928.001,2747.291,-8466.097,6195.571,-614.549,0.109,0.952,-0.295,-8.545,-0.977,-0.366,73.333,493.000,1.000
-10282.629,-12548.744,-169182.680,-115016.651,2756.650,-8431.871,6139.300,-655.597,0.109,0.953,-0.294,-8.636,-0.671,-0.580,73.333,494.000,1.000
-10284.589,-12512.142,-169266.345,-115104.252,2764.838,-8400.580,6080.668,-698.782,0.110,0.956,-0.289,-8.698,-0.427,-0.732,73.333,495.000,1.000
-10288.981,-12477.544,-169347.762,-115190.448,2772.265,-8373.368,6018.554,-744.340,0.110,0.956,-0.289,-8.850,-0.153,-0.885,73.333,496.000,1.000
-10294.992,-12445.075,-169426.384,-115274.711,2779.520,-8349.632,5953.691,-791.415,0.109,0.955,-0.290,-8.911,-0.031,-1.068,73.333,497.000,1.000
-10301.358,-12413.920,-169501.747,-115356.555,2787.107,-8327.173,5888.228,-838.308,0.109,0.956,-0.290,-8.942,0.336,-1.160,73.333,498.000,1.000
-10306.697,-12382.544,-169573.626,-115435.702,2795.276,-8303.265,5824.583,-883.129,0.107,0.955,-0.288,-8.972,0.580,-1.251,73.333,499.000,1.000
-10309.933,-12349.560,-169642.059,-115512.154,2803.982,-8276.074,5764.332,-924.475,0.107,0.955,-0.286,-8.881,0.763,-1.373,73.333,500.000,1.000
-10311.006,-12314.459,-169707.286,-115586.169,2812.974,-8245.456,5707.624,-962.526,0.104,0.955,-0.285,-8.820,1.068,-1.495,73.333,501.000,1.000
-10310.666,-12277.551,-169769.618,-115658.113,2821.943,-8212.679,5653.248,-999.260,0.102,0.956,-0.284,-8.820,1.282,-1.617,73.333,502.000,1.000
-10309.651,-12239.532,-169829.293,-115728.272,2830.674,-8179.687,5598.894,-1037.340,0.099,0.956,-0.283,-8.820,1.373,-1.678,73.333,503.000,1.000
-10308.508,-12201.413,-169886.395,-115796.703,2839.111,-8148.522,5541.739,-1078.818,0.096,0.954,-0.282,-8.850,1.495,-1.801,73.333,504.000,1.000
-10307.660,-12164.367,-169940.890,-115863.288,2847.300,-8120.514,5479.995,-1123.992,0.091,0.953,-0.280,-8.667,1.495,-1.923,73.333,505.000,1.000
-10307.576,-12129.321,-169992.760,-115927.946,2855.236,-8095.748,5414.259,-1171.155,0.087,0.951,-0.279,-8.606,1.465,-2.075,73.333,506.000,1.000
-10308.472,-12096.335,-170042.010,-115990.680,2862.877,-8073.259,5347.282,-1217.501,0.086,0.952,-0.278,-8.392,1.404,-2.258,73.333,507.000,1.000
-10309.975,-12064.331,-170088.586,-116051.479,2870.266,-8051.458,5282.468,-1260.701,0.083,0.952,-0.277,-8.179,1.404,-2.319,73.333,508.000,1.000
-10311.475,-12031.829,-170132.396,-116110.280,2877.545,-8028.753,5222.152,-1300.101,0.082,0.951,-0.277,-7.904,1.282,-2.380,73.333,509.000,1.000
-10312.453,-11997.786,-170173.316,-116166.959,2884.935,-8004.230,5166.593,-1336.457,0.081,0.952,-0.274,-7.629,1.007,-2.350,73.333,510.000,1.000
-10312.803,-11961.949,-170211.278,-116221.428,2892.592,-7978.116,5114.066,-1371.140,0.080,0.953,-0.274,-7.446,0.793,-2.228,73.333,511.000,1.000
-10312.801,-11924.930,-170246.427,-116273.828,2900.372,-7951.620,5061.917,-1405.516,0.080,0.951,-0.272,-7.172,0.580,-2.106,73.333,512.000,1.000
-10312.689,-11887.873,-170279.027,-116324.462,2907.926,-7925.964,5007.825,-1440.592,0.079,0.953,-0.269,-6.744,0.488,-1.953,73.333,513.000,1.000
-10312.493,-11851.884,-170309.206,-116373.500,2915.051,-7901.329,4950.679,-1476.892,0.081,0.949,-0.269,-6.470,0.244,-1.831,73.333,514.000,1.000
-10311.972,-11817.390,-170336.885,-116420.878,2921.816,-7876.600,4890.883,-1514.286,0.078,0.950,-0.271,-6.073,0.153,-1.740,73.333,515.000,1.000
-10310.952,-11784.002,-170361.936,-116466.439,2928.387,-7850.229,4829.889,-1552.369,0.077,0.948,-0.271,-5.646,-0.061,-1.678,73.333,516.000,1.000
-10309.522,-11750.941,-170384.316,-116510.082,2934.846,-7821.300,4769.272,-1590.900,0.080,0.947,-0.272,-5.341,-0.305,-1.434,73.333,517.000,1.000
-10307.944,-11717.464,-170404.117,-116551.843,2941.147,-7789.845,4709.974,-1629.695,0.080,0.947,-0.270,-5.035,-0.458,-1.282,73.333,518.000,1.000
-10306.347,-11682.891,-170421.514,-116591.861,2947.175,-7756.355,4652.302,-1668.244,0.082,0.946,-0.269,-4.547,-0.641,-1.099,73.333,519.000,1.000
-10304.174,-11646.391,-170436.611,-116630.239,2952.872,-7721.048,4596.419,-1705.554,0.080,0.948,-0.270,-4.059,-0.793,-0.885,73.333,520.000,1.000
-10300.637,-11607.358,-170449.319,-116666.900,2958.343,-7683.855,4542.215,-1740.968,0.079,0.948,-0.272,-3.693,-1.007,-0.641,73.333,521.000,1.000
-10295.436,-11565.937,-170459.286,-116701.512,2963.930,-7644.821,4489.113,-1774.698,0.078,0.947,-0.271,-3.265,-1.099,-0.580,73.333,522.000,1.000
-10289.015,-11523.004,-170466.045,-116733.635,2970.069,-7604.249,4436.403,-1807.512,0.078,0.948,-0.272,-2.899,-1.343,-0.549,73.333,523.000,1.000
-10282.583,-11480.061,-170469.469,-116763.183,2976.854,-7562.926,4383.435,-1840.446,0.077,0.947,-0.271,-2.380,-1.617,-0.458,73.333,524.000,1.000
-10277.371,-11438.765,-170470.043,-116790.672,2983.788,-7522.140,4329.636,-1874.323,0.078,0.945,-0.271,-1.923,-1.831,-0.458,73.333,525.000,1.000
-10273.814,-11400.130,-170468.553,-116816.882,2990.105,-7483.242,4274.651,-1909.391,0.076,0.946,-0.268,-1.526,-2.106,-0.397,73.333,526.000,1.000
-10271.299,-11364.149,-170465.452,-116842.208,2995.386,-7446.976,4218.565,-1945.172,0.078,0.947,-0.269,-1.221,-2.319,-0.275,73.333,527.000,1.000
-10268.735,-11329.979,-170460.594,-116866.435,2999.798,-7413.199,4161.816,-1980.826,0.077,0.947,-0.272,-0.854,-2.472,-0.244,73.333,528.000,1.000
-10265.395,-11296.261,-170453.527,-116889.075,3003.805,-7381.223,4104.936,-2015.903,0.077,0.946,-0.271,-0.488,-2.625,-0.183,73.333,529.000,1.000
-10260.949,-11261.434,-170443.776,-116909.672,3007.899,-7349.962,4048.487,-2050.379,0.077,0.946,-0.273,-0.092,-2.838,-0.214,73.333,530.000,1.000
-10255.495,-11224.562,-170430.982,-116927.895,3012.451,-7318.075,3992.768,-2084.408,0.079,0.946,-0.277,0.305,-2.930,-0.122,73.333,531.000,1.000
-10249.519,-11185.991,-170415.031,-116943.639,3017.592,-7284.573,3937.615,-2118.092,0.080,0.944,-0.274,0.641,-3.082,-0.092,73.333,532.000,1.000
-10243.747,-11146.998,-170396.091,-116957.052,3023.184,-7249.249,3882.806,-2151.385,0.081,0.943,-0.277,0.916,-3.204,-0.122,73.333,533.000,1.000
-10239.070,-11108.953,-170374.500,-116968.464,3028.903,-7212.687,3828.385,-2184.421,0.083,0.944,-0.275,1.343,-3.235,-0.122,73.333,534.000,1.000
-10235.995,-11072.460,-170350.625,-116978.277,3034.349,-7175.918,3774.347,-2217.617,0.084,0.945,-0.276,1.648,-3.204,-0.122,73.333,535.000,1.000
-10234.375,-11037.120,-170324.742,-116986.824,3039.204,-7139.960,3720.206,-2251.615,0.086,0.943,-0.279,2.045,-3.113,-0.153,73.333,536.000,1.000
-10233.555,-11002.115,-170296.920,-116994.166,3043.429,-7105.445,3665.228,-2286.977,0.088,0.946,-0.282,2.380,-3.174,-0.092,73.333,537.000,1.000
-10232.833,-10966.972,-170267.063,-117000.133,3047.229,-7072.504,3609.067,-2323.915,0.088,0.943,-0.280,2.716,-3.021,-0.092,73.333,538.000,1.000
-10231.846,-10931.814,-170235.095,-117004.581,3050.805,-7040.799,3552.180,-2362.152,0.090,0.944,-0.281,2.899,-2.930,-0.092,73.333,539.000,1.000
-10230.128,-10896.808,-170200.944,-117007.443,3054.257,-7009.508,3495.536,-2400.594,0.090,0.944,-0.285,3.235,-2.869,-0.092,73.333,540.000,1.000
-10227.001,-10861.716,-170164.409,-117008.592,3057.689,-6977.747,3439.671,-2437.975,0.093,0.945,-0.283,3.540,-2.655,-0.092,73.333,541.000,1.000
-10222.077,-10826.121,-170125.252,-117007.845,3061.226,-6945.176,3384.395,-2473.933,0.093,0.945,-0.282,3.784,-2.441,-0.183,73.333,542.000,1.000
-10215.647,-10789.841,-170083.402,-117005.123,3064.902,-6912.018,3329.332,-2509.106,0.092,0.944,-0.284,3.937,-2.167,-0.183,73.333,543.000,1.000
-10208.415,-10752.956,-170038.921,-117000.423,3068.698,-6878.598,3274.355,-2544.291,0.092,0.945,-0.290,4.181,-1.953,-0.183,73.333,544.000,1.000
-10200.550,-10715.213,-169991.717,-116993.598,3072.757,-6844.705,3219.907,-2579.341,0.092,0.945,-0.288,4.395,-1.709,-0.153,73.333,545.000,1.000
-10191.863,-10676.045,-169941.578,-116984.427,3077.318,-6809.659,3166.843,-2613.347,0.092,0.945,-0.288,4.425,-1.465,-0.275,73.333,546.000,1.000
-10182.893,-10635.641,-169888.601,-116973.046,3082.294,-6773.321,3115.516,-2645.756,0.092,0.946,-0.291,4.486,-1.282,-0.275,73.333,547.000,1.000
-10174.973,-10595.268,-169833.367,-116960.081,3087.097,-6736.609,3065.253,-2676.785,0.090,0.946,-0.291,4.608,-1.099,-0.336,73.333,548.000,1.000
-10169.079,-10556.248,-169776.512,-116946.183,3091.077,-6700.709,3015.083,-2706.878,0.092,0.947,-0.292,4.669,-0.916,-0.397,73.333,549.000,1.000
-10165.031,-10519.149,-169718.237,-116931.512,3094.041,-6666.123,2964.592,-2736.266,0.092,0.948,-0.296,4.700,-0.610,-0.458,73.333,550.000,1.000
-10162.231,-10484.010,-169658.289,-116915.784,3096.268,-6632.707,2913.650,-2765.480,0.092,0.948,-0.295,4.730,-0.397,-0.458,73.333,551.000,1.000
-10160.068,-10450.347,-169596.213,-116898.552,3098.241,-6600.048,2862.069,-2795.434,0.092,0.949,-0.297,4.669,-0.122,-0.549,73.333,552.000,1.000
-10157.622,-10416.807,-169531.602,-116879.420,3100.407,-6567.586,2809.848,-2826.735,0.093,0.951,-0.297,4.669,0.122,-0.641,73.333,553.000,1.000
-10154.070,-10381.859,-169464.295,-116858.221,3102.971,-6535.015,2757.214,-2859.440,0.092,0.951,-0.296,4.608,0.366,-0.641,73.333,554.000,1.000
-10149.136,-10344.869,-169394.384,-116835.021,3105.859,-6502.443,2704.467,-2893.094,0.092,0.951,-0.298,4.486,0.549,-0.610,73.333,555.000,1.000
-10143.240,-10306.346,-169322.047,-116809.995,3108.860,-6470.182,2651.826,-2927.058,0.093,0.948,-0.300,4.456,0.824,-0.763,73.333,556.000,1.000
-10137.102,-10267.407,-169247.397,-116783.280,3111.790,-6438.523,2599.282,-2960.815,0.090,0.950,-0.302,4.333,0.916,-0.732,73.333,557.000,1.000
-10131.120,-10229.030,-169170.446,-116754.921,3114.601,-6407.459,2546.729,-2994.034,0.091,0.948,-0.301,4.242,1.221,-0.793,73.333,558.000,1.000
-10125.268,-10191.697,-169091.167,-116724.892,3117.353,-6376.771,2494.162,-3026.756,0.090,0.950,-0.303,4.059,1.465,-0.671,73.333,559.000,1.000
-10119.346,-10155.429,-169009.548,-116693.147,3120.137,-6346.558,2441.524,-3059.532,0.090,0.952,-0.304,3.998,1.526,-0.702,73.333,560.000,1.000
-10113.426,-10120.030,-168925.656,-116659.709,3122.961,-6317.366,2388.596,-3093.239,0.091,0.954,-0.301,3.815,1.740,-0.671,73.333,561.000,1.000
-10107.483,-10084.965,-168839.582,-116624.649,3125.768,-6289.350,2335.692,-3127.934,0.090,0.956,-0.300,3.662,1.923,-0.702,73.333,562.000,1.000
-10100.979,-10049.294,-168751.364,-116588.039,3128.486,-6261.652,2283.990,-3162.262,0.090,0.958,-0.302,3.479,2.045,-0.671,73.333,563.000,1.000
-10093.846,-10012.752,-168661.124,-116550.081,3130.912,-6233.397,2234.096,-3195.073,0.092,0.960,-0.304,3.174,2.228,-0.610,73.333,564.000,1.000
-10086.939,-9976.271,-168569.049,-116511.015,3132.792,-6204.571,2184.973,-3226.660,0.092,0.960,-0.304,2.930,2.380,-0.549,73.333,565.000,1.000
-10080.864,-9940.607,-168475.060,-116470.734,3134.218,-6175.235,2135.174,-3257.909,0.091,0.960,-0.305,2.747,2.594,-0.488,73.333,566.000,1.000
-10074.953,-9905.177,-168378.699,-116428.681,3135.733,-6144.783,2084.392,-3289.104,0.090,0.957,-0.306,2.502,2.747,-0.336,73.333,567.000,1.000
-10068.092,-9868.879,-168279.496,-116384.281,3137.914,-6112.710,2033.117,-3320.094,0.089,0.956,-0.304,2.197,2.716,-0.275,73.333,568.000,1.000
-10060.163,-9831.481,-168177.393,-116337.433,3140.880,-6079.686,1981.622,-3350.928,0.088,0.955,-0.303,1.984,2.808,-0.183,73.333,569.000,1.000
-10051.953,-9793.665,-168072.770,-116288.553,3144.258,-6047.193,1930.014,-3381.663,0.086,0.957,-0.306,1.770,2.899,-0.153,73.333,570.000,1.000
-10044.327,-9756.292,-167966.188,-116238.271,3147.467,-6016.465,1878.651,-3412.223,0.084,0.959,-0.304,1.587,2.808,-0.092,73.333,571.000,1.000
-10037.398,-9719.777,-167858.128,-116187.135,3149.988,-5987.997,1828.046,-3442.469,0.083,0.958,-0.305,1.404,2.594,-0.092,73.333,572.000,1.000
-10030.277,-9683.760,-167748.855,-116135.437,3151.524,-5961.534,1778.602,-3472.238,0.083,0.958,-0.301,1.282,2.502,0.000,73.333,573.000,1.000
-10021.955,-9647.582,-167638.316,-116083.099,3152.122,-5936.425,1730.453,-3501.549,0.082,0.959,-0.302,0.977,2.319,0.031,73.333,574.000,1.000
-10012.094,-9610.955,-167526.057,-116029.603,3152.279,-5912.101,1683.468,-3530.458,0.081,0.957,-0.302,0.702,2.258,-0.031,73.333,575.000,1.000
-10001.262,-9574.107,-167411.415,-115974.235,3152.691,-5888.438,1637.200,-3559.004,0.081,0.954,-0.300,0.610,2.167,-0.031,73.333,576.000,1.000
-9990.436,-9537.518,-167293.982,-115916.582,3153.765,-5865.728,1590.681,-3587.441,0.080,0.953,-0.304,0.427,2.014,-0.031,73.333,577.000,1.000
-9980.168,-9501.370,-167173.847,-115856.765,3155.396,-5843.998,1542.596,-3616.284,0.080,0.949,-0.307,0.336,1.831,-0.031,73.333,578.000,1.000
-9970.206,-9465.033,-167051.389,-115795.200,3157.212,-5822.176,1492.456,-3645.815,0.081,0.947,-0.306,0.366,1.587,0.000,73.333,579.000,1.000
-9959.631,-9427.287,-166926.889,-115732.182,3158.953,-5798.091,1441.431,-3675.503,0.081,0.947,-0.303,0.336,1.251,-0.092,73.333,580.000,1.000
-9947.799,-9387.469,-166800.427,-115667.789,3160.554,-5770.000,1390.952,-3704.756,0.082,0.947,-0.303,0.458,0.977,-0.153,73.333,581.000,1.000
-9934.690,-9346.035,-166672.008,-115602.020,3162.010,-5738.073,1341.049,-3733.671,0.082,0.944,-0.302,0.580,0.885,-0.122,73.333,582.000,1.000
-9920.442,-9303.829,-166541.567,-115534.817,3163.372,-5703.988,1290.942,-3762.546,0.084,0.944,-0.300,0.641,0.763,-0.122,73.333,583.000,1.000
-9905.400,-9261.563,-166408.934,-115466.010,3164.791,-5669.615,1240.535,-3791.364,0.086,0.941,-0.300,0.732,0.671,-0.092,73.333,584.000,1.000
-9890.357,-9220.010,-166274.052,-115395.509,3166.335,-5636.261,1190.651,-3819.865,0.088,0.938,-0.299,0.854,0.610,-0.031,73.333,585.000,1.000
-9876.546,-9180.135,-166137.237,-115323.578,3167.753,-5604.555,1142.193,-3847.910,0.088,0.940,-0.301,0.977,0.519,0.031,73.333,586.000,1.000
-9864.795,-9142.414,-165998.849,-115250.536,3168.781,-5574.142,1095.749,-3875.051,0.089,0.939,-0.303,1.160,0.275,0.153,73.333,587.000,1.000
-9854.727,-9105.964,-165858.746,-115176.249,3169.612,-5543.414,1051.686,-3900.076,0.090,0.939,-0.305,1.404,0.183,0.214,73.333,588.000,1.000
-9845.449,-9069.164,-165716.458,-115100.295,3170.670,-5510.679,1009.592,-3922.255,0.089,0.944,-0.304,1.587,0.061,0.244,73.333,589.000,1.000
-9836.545,-9031.216,-165571.789,-115022.529,3172.059,-5475.854,967.754,-3942.724,0.088,0.945,-0.304,1.648,-0.061,0.244,73.333,590.000,1.000
-9828.292,-8992.801,-165425.052,-114943.280,3173.405,-5440.735,923.906,-3964.187,0.089,0.947,-0.303,1.740,-0.275,0.092,73.333,591.000,1.000
-9820.974,-8955.236,-165276.789,-114863.069,3174.173,-5407.622,876.811,-3989.015,0.088,0.950,-0.300,1.770,-0.397,0.183,73.333,592.000,1.000
-9814.223,-8919.224,-165127.305,-114782.173,3174.113,-5377.672,826.982,-4017.643,0.087,0.951,-0.303,1.831,-0.580,0.183,73.333,593.000,1.000
-9807.201,-8884.558,-164976.507,-114700.493,3173.379,-5350.534,775.877,-4048.712,0.084,0.953,-0.306,2.014,-0.671,0.183,73.333,594.000,1.000
-9798.869,-8850.402,-164824.082,-114617.719,3172.327,-5324.894,724.983,-4080.031,0.082,0.954,-0.306,2.045,-0.946,0.031,73.333,595.000,1.000
-9788.387,-8815.568,-164669.706,-114533.513,3171.322,-5298.992,675.632,-4109.591,0.082,0.954,-0.305,1.984,-1.099,-0.061,73.333,596.000,1.000
-9775.654,-8779.139,-164513.167,-114447.621,3170.602,-5271.443,628.636,-4136.380,0.081,0.954,-0.301,1.831,-1.373,-0.122,73.333,597.000,1.000
-9761.652,-8741.205,-164354.420,-114359.978,3170.193,-5242.135,583.651,-4160.781,0.084,0.957,-0.303,1.740,-1.770,-0.275,73.333,598.000,1.000
-9747.844,-8702.533,-164193.448,-114270.578,3170.078,-5211.852,539.624,-4184.100,0.085,0.959,-0.307,1.587,-2.075,-0.397,73.333,599.000,1.000
-9734.821,-8663.388,-164030.102,-114179.299,3170.387,-5180.909,496.013,-4207.311,0.085,0.958,-0.305,1.434,-2.228,-0.519,73.333,600.000,1.000
-9722.365,-8623.543,-163864.382,-114086.149,3171.133,-5149.042,452.863,-4230.760,0.086,0.957,-0.308,1.221,-2.472,-0.549,73.333,601.000,1.000
-9710.469,-8583.396,-163696.701,-113991.527,3171.938,-5116.537,409.959,-4254.673,0.087,0.955,-0.306,1.038,-2.655,-0.702,73.333,602.000,1.000
-9699.625,-8544.302,-163527.642,-113896.009,3172.251,-5084.674,366.524,-4279.459,0.088,0.954,-0.306,1.007,-2.777,-0.671,73.333,603.000,1.000
-9690.233,-8507.631,-163357.563,-113799.968,3171.729,-5055.050,321.717,-4305.627,0.090,0.952,-0.305,0.977,-2.808,-0.732,73.333,604.000,1.000
-9681.663,-8473.505,-163186.423,-113703.397,3170.399,-5028.613,275.262,-4333.309,0.088,0.953,-0.303,0.824,-2.930,-0.793,73.333,605.000,1.000
-9672.518,-8440.650,-163013.880,-113605.968,3168.580,-5005.237,227.580,-4362.196,0.091,0.952,-0.303,0.671,-3.052,-0.916,73.333,606.000,1.000
-9661.595,-8407.225,-162839.446,-113507.168,3166.761,-4983.797,179.704,-4391.707,0.092,0.951,-0.303,0.610,-3.082,-0.916,73.333,607.000,1.000
-9648.387,-8371.627,-162662.653,-113406.495,3165.419,-4962.667,132.939,-4421.139,0.093,0.949,-0.305,0.427,-3.235,-1.099,73.333,608.000,1.000
-9633.197,-8333.091,-162483.282,-113303.698,3164.786,-4940.682,88.177,-4449.943,0.093,0.949,-0.304,0.458,-3.326,-1.190,73.333,609.000,1.000
-9616.770,-8291.883,-162301.442,-113198.868,3164.760,-4917.731,45.526,-4477.596,0.091,0.949,-0.304,0.305,-3.387,-1.312,73.333,610.000,1.000
-9600.111,-8249.113,-162117.499,-113092.365,3164.980,-4894.599,4.479,-4503.675,0.091,0.948,-0.302,0.153,-3.601,-1.526,73.333,611.000,1.000
-9584.190,-8206.292,-161931.929,-112984.661,3164.987,-4872.419,-35.755,-4528.149,0.089,0.950,-0.304,0.183,-3.662,-1.801,73.333,612.000,1.000
-9569.565,-8164.859,-161745.072,-112876.103,3164.473,-4852.268,-76.212,-4551.607,0.086,0.948,-0.304,0.000,-3.815,-1.801,73.333,613.000,1.000
-9556.564,-8126.033,-161557.012,-112766.808,3163.373,-4835.026,-118.089,-4575.406,0.085,0.949,-0.305,-0.122,-3.906,-1.953,73.333,614.000,1.000
-9545.280,-8090.396,-161367.691,-112656.767,3161.758,-4820.892,-161.970,-4600.911,0.086,0.950,-0.306,-0.336,-4.059,-2.075,73.333,615.000,1.000
-9535.344,-8057.373,-161176.962,-112545.849,3159.806,-4808.817,-207.101,-4628.396,0.083,0.948,-0.302,-0.488,-4.150,-2.289,73.333,616.000,1.000
-9525.745,-8025.424,-160984.495,-112433.696,3157.874,-4796.690,-251.646,-4656.705,0.084,0.949,-0.303,-0.671,-4.272,-2.502,73.333,617.000,1.000
-9515.180,-7992.841,-160789.917,-112319.887,3156.326,-4782.265,-293.884,-4684.099,0.085,0.953,-0.304,-0.763,-4.364,-2.747,73.333,618.000,1.000
-9502.803,-7958.364,-160593.085,-112204.246,3155.279,-4764.046,-333.370,-4709.411,0.085,0.951,-0.302,-0.916,-4.395,-2.899,73.333,619.000,1.000
-9488.242,-7921.155,-160394.032,-112086.797,3154.694,-4741.389,-371.055,-4732.202,0.086,0.951,-0.301,-1.038,-4.456,-3.082,73.333,620.000,1.000
-9471.673,-7880.891,-160192.820,-111967.611,3154.518,-4714.341,-408.599,-4752.774,0.085,0.952,-0.302,-1.282,-4.486,-3.113,73.333,621.000,1.000
-9454.010,-7838.189,-159989.610,-111846.880,3154.585,-4683.478,-447.405,-4772.085,0.084,0.949,-0.300,-1.343,-4.547,-3.174,73.333,622.000,1.000
-9436.726,-7794.722,-159784.802,-111725.034,3154.470,-4649.536,-488.026,-4791.141,0.083,0.948,-0.301,-1.526,-4.608,-3.418,73.333,623.000,1.000
-9421.403,-7752.644,-159578.983,-111602.665,3153.590,-4613.254,-530.311,-4810.636,0.080,0.948,-0.300,-1.556,-4.791,-3.540,73.333,624.000,1.000
-9408.689,-7713.277,-159372.517,-111480.107,3151.625,-4575.350,-573.693,-4830.683,0.081,0.946,-0.299,-1.648,-4.883,-3.723,73.333,625.000,1.000
-9397.959,-7676.425,-159165.174,-111357.095,3148.862,-4536.586,-617.437,-4850.899,0.081,0.945,-0.295,-1.617,-4.913,-4.028,73.333,626.000,1.000
-9387.969,-7641.057,-158956.263,-111232.930,3146.029,-4498.008,-660.936,-4870.818,0.080,0.943,-0.297,-1.556,-5.005,-4.211,73.333,627.000,1.000
-9377.606,-7606.207,-158745.193,-111107.023,3143.733,-4461.017,-704.057,-4890.306,0.080,0.946,-0.296,-1.526,-5.035,-4.242,73.333,628.000,1.000
-9366.259,-7571.310,-158531.878,-110979.293,3142.058,-4426.874,-747.151,-4909.710,0.079,0.944,-0.297,-1.526,-5.096,-4.333,73.333,629.000,1.000
-9353.492,-7535.931,-158316.653,-110850.059,3140.668,-4395.611,-790.377,-4929.243,0.079,0.943,-0.298,-1.556,-5.249,-4.395,73.333,630.000,1.000
-9339.170,-7499.782,-158099.933,-110719.727,3139.144,-4365.770,-833.376,-4948.830,0.078,0.942,-0.297,-1.526,-5.280,-4.517,73.333,631.000,1.000
-9323.763,-7463.140,-157881.951,-110588.540,3137.235,-4335.519,-875.634,-4968.419,0.076,0.941,-0.303,-1.434,-5.310,-4.608,73.333,632.000,1.000
-9308.084,-7426.777,-157662.682,-110456.505,3134.919,-4303.861,-916.913,-4987.982,0.076,0.942,-0.302,-1.221,-5.493,-4.669,73.333,633.000,1.000
-9292.805,-7391.325,-157441.930,-110323.452,3132.362,-4271.017,-957.632,-5007.595,0.075,0.943,-0.302,-1.068,-5.554,-4.700,73.333,634.000,1.000
-9277.737,-7356.363,-157219.371,-110189.033,3129.920,-4237.632,-998.549,-5027.246,0.071,0.943,-0.302,-0.916,-5.676,-4.852,73.333,635.000,1.000
-9262.031,-7320.365,-156994.732,-110052.937,3127.939,-4203.953,-1039.902,-5046.613,0.072,0.943,-0.302,-0.793,-5.798,-4.944,73.333,636.000,1.000
-9245.251,-7282.078,-156768.110,-109915.255,3126.383,-4170.126,-1081.352,-5065.384,0.071,0.943,-0.300,-0.763,-6.012,-5.035,73.333,637.000,1.000
-9227.784,-7241.626,-156539.915,-109776.410,3124.853,-4136.577,-1122.652,-5083.731,0.072,0.945,-0.301,-0.580,-6.165,-5.066,73.333,638.000,1.000
-9210.233,-7200.206,-156310.443,-109636.699,3123.045,-4103.622,-1163.792,-5102.236,0.072,0.945,-0.303,-0.519,-6.195,-5.127,73.333,639.000,1.000
-9192.550,-7159.076,-156079.682,-109496.097,3120.975,-4071.021,-1204.515,-5121.129,0.072,0.945,-0.301,-0.397,-6.287,-5.249,73.333,640.000,1.000
-9174.233,-7118.882,-155847.469,-109354.428,3118.817,-4038.118,-1244.213,-5139.948,0.072,0.943,-0.302,-0.305,-6.470,-5.493,73.333,641.000,1.000
-9154.989,-7079.432,-155613.618,-109211.495,3116.753,-4004.249,-1282.555,-5157.845,0.072,0.941,-0.302,-0.153,-6.653,-5.493,73.333,642.000,1.000
-9135.134,-7040.034,-155378.005,-109067.156,3114.907,-3969.138,-1320.020,-5174.370,0.072,0.937,-0.301,0.122,-6.836,-5.493,73.333,643.000,1.000
-9115.603,-7000.289,-155140.716,-108921.485,3113.199,-3933.093,-1357.432,-5190.034,0.071,0.935,-0.298,0.519,-7.019,-5.737,73.333,644.000,1.000
-9097.145,-6960.263,-154902.030,-108774.788,3111.337,-3896.721,-1395.032,-5205.624,0.071,0.935,-0.298,0.824,-7.172,-5.707,73.333,645.000,1.000
-9079.963,-6920.290,-154662.243,-108627.421,3108.985,-3860.642,-1432.565,-5221.601,0.069,0.933,-0.301,0.916,-7.233,-5.798,73.333,646.000,1.000
-9063.833,-6880.847,-154421.485,-108479.552,3106.001,-3825.332,-1469.860,-5238.092,0.068,0.934,-0.300,1.160,-7.385,-5.951,73.333,647.000,1.000
-9048.072,-6842.070,-154179.597,-108331.005,3102.585,-3790.893,-1506.886,-5254.928,0.068,0.936,-0.303,1.526,-7.538,-5.829,73.333,648.000,1.000
-9031.884,-6803.568,-153936.236,-108181.378,3099.150,-3757.210,-1543.645,-5271.812,0.066,0.939,-0.304,1.831,-7.599,-5.737,73.333,649.000,1.000
-9014.873,-6765.057,-153691.151,-108030.361,3096.000,-3724.475,-1580.396,-5288.457,0.065,0.944,-0.307,1.953,-7.751,-5.798,73.333,650.000,1.000
-8997.667,-6727.160,-153444.428,-107878.003,3093.075,-3693.520,-1618.046,-5305.132,0.064,0.949,-0.306,2.075,-7.812,-5.768,73.333,651.000,1.000
-8981.524,-6691.044,-153196.418,-107724.668,3090.015,-3665.220,-1657.699,-5322.745,0.063,0.955,-0.307,2.167,-7.904,-5.615,73.333,652.000,1.000
-8966.879,-6656.854,-152947.351,-107570.622,3086.583,-3639.195,-1699.303,-5341.687,0.063,0.957,-0.309,2.106,-7.996,-5.554,73.333,653.000,1.000
-8952.745,-6623.000,-152697.050,-107415.733,3082.959,-3613.566,-1741.216,-5361.085,0.062,0.960,-0.311,2.106,-8.118,-5.493,73.333,654.000,1.000
-8937.571,-6587.408,-152445.125,-107259.650,3079.511,-3586.456,-1781.574,-5379.563,0.062,0.961,-0.313,2.075,-8.087,-5.402,73.333,655.000,1.000
-8920.769,-6549.366,-152191.381,-107102.181,3076.383,-3557.505,-1819.787,-5396.690,0.061,0.963,-0.310,1.984,-8.148,-5.188,73.333,656.000,1.000
-8902.925,-6509.719,-151935.855,-106943.324,3073.510,-3527.499,-1856.265,-5413.033,0.061,0.964,-0.313,1.862,-8.179,-5.157,73.333,657.000,1.000
-8884.968,-6469.801,-151678.623,-106783.096,3070.834,-3497.120,-1891.487,-5429.225,0.060,0.965,-0.312,1.740,-8.209,-5.066,73.333,658.000,1.000
-8867.854,-6430.833,-151419.842,-106621.612,3068.238,-3466.772,-1926.095,-5445.734,0.057,0.966,-0.313,1.587,-8.392,-5.066,73.333,659.000,1.000
-8852.157,-6393.646,-151159.838,-106459.200,3065.444,-3436.933,-1961.155,-5462.874,0.057,0.968,-0.314,1.282,-8.362,-5.157,73.333,660.000,1.000
-8837.740,-6358.420,-150898.918,-106296.206,3062.203,-3408.056,-1997.687,-5480.867,0.057,0.968,-0.313,1.129,-8.423,-5.127,73.333,661.000,1.000
-8823.685,-6324.492,-150637.063,-106132.657,3058.586,-3380.116,-2035.830,-5499.619,0.056,0.967,-0.316,0.824,-8.392,-5.035,73.333,662.000,1.000
-8808.694,-6290.367,-150373.962,-105968.255,3054.898,-3352.440,-2074.528,-5518.394,0.055,0.964,-0.313,0.671,-8.514,-4.974,73.333,663.000,1.000
-8792.112,-6254.610,-150109.378,-105802.748,3051.320,-3324.333,-2112.272,-5536.218,0.056,0.961,-0.313,0.458,-8.514,-4.974,73.333,664.000,1.000
-8774.240,-6216.993,-149843.335,-105636.135,3047.791,-3295.792,-2148.325,-5552.508,0.057,0.959,-0.313,0.275,-8.453,-4.944,73.333,665.000,1.000
-8756.105,-6178.807,-149576.007,-105468.564,3044.148,-3267.591,-2183.312,-5567.589,0.060,0.958,-0.316,0.061,-8.392,-4.883,73.333,666.000,1.000
-8738.923,-6141.994,-149307.532,-105300.175,3040.287,-3240.691,-2218.528,-5582.573,0.059,0.957,-0.314,-0.153,-8.362,-4.913,73.333,667.000,1.000
-8723.407,-6107.790,-149037.937,-105131.002,3036.216,-3215.555,-2254.846,-5598.626,0.060,0.958,-0.313,-0.305,-8.270,-4.822,73.333,668.000,1.000
-8709.438,-6076.073,-148767.197,-104961.012,3031.982,-3191.955,-2292.145,-5616.341,0.060,0.958,-0.313,-0.397,-8.057,-4.639,73.333,669.000,1.000
-8696.052,-6045.560,-148495.244,-104790.122,3027.653,-3169.047,-2329.387,-5635.257,0.061,0.958,-0.310,-0.549,-7.935,-4.700,73.333,670.000,1.000
-8682.319,-6014.730,-148221.910,-104618.175,3023.378,-3145.824,-2365.562,-5654.407,0.062,0.958,-0.310,-0.671,-7.751,-4.608,73.333,671.000,1.000
-8668.101,-5982.844,-147946.992,-104444.975,3019.347,-3121.808,-2400.546,-5673.232,0.061,0.958,-0.310,-0.854,-7.568,-4.547,73.333,672.000,1.000
-8653.866,-5950.218,-147670.410,-104270.425,3015.661,-3097.346,-2434.962,-5691.692,0.061,0.958,-0.307,-1.068,-7.324,-4.547,73.333,673.000,1.000
-8640.339,-5917.841,-147392.297,-104094.628,3012.233,-3073.368,-2469.608,-5710.045,0.060,0.954,-0.309,-1.129,-7.172,-4.578,73.333,674.000,1.000
-8628.004,-5886.656,-147112.928,-103917.850,3008.831,-3050.740,-2505.085,-5728.575,0.060,0.952,-0.307,-1.343,-7.019,-4.333,73.333,675.000,1.000
-8616.847,-5856.972,-146832.599,-103740.388,3005.166,-3029.687,-2541.682,-5747.488,0.060,0.952,-0.302,-1.495,-6.805,-4.303,73.333,676.000,1.000
-8606.086,-5828.255,-146551.477,-103562.423,3001.034,-3009.609,-2579.102,-5766.666,0.059,0.953,-0.305,-1.495,-6.775,-4.242,73.333,677.000,1.000
-8594.352,-5799.484,-146269.495,-103383.907,2996.462,-2989.373,-2616.393,-5785.564,0.059,0.954,-0.303,-1.709,-6.531,-4.242,73.333,678.000,1.000
-8580.779,-5769.958,-145986.387,-103204.590,2991.712,-2968.068,-2652.619,-5803.779,0.058,0.955,-0.300,-2.045,-6.195,-4.181,73.333,679.000,1.000
-8565.362,-5739.497,-145701.824,-103024.153,2987.139,-2945.431,-2687.485,-5821.270,0.055,0.956,-0.302,-2.319,-6.012,-4.150,73.333,680.000,1.000
-8548.617,-5708.069,-145415.600,-102842.409,2982.969,-2921.691,-2721.257,-5838.205,0.055,0.955,-0.299,-2.563,-5.859,-4.181,73.333,681.000,1.000
-8531.142,-5675.607,-145127.812,-102659.460,2979.127,-2897.320,-2754.342,-5854.659,0.054,0.956,-0.299,-2.747,-5.798,-4.211,73.333,682.000,1.000
-8513.485,-5642.223,-144838.842,-102475.665,2975.259,-2872.895,-2787.181,-5870.472,0.053,0.955,-0.299,-2.960,-5.676,-4.120,73.333,683.000,1.000
-8496.149,-5608.333,-144549.073,-102291.357,2971.022,-2848.812,-2820.277,-5885.414,0.053,0.955,-0.301,-3.113,-5.524,-4.181,73.333,684.000,1.000
-8478.874,-5573.991,-144258.501,-102106.482,2966.423,-2824.554,-2853.633,-5898.935,0.053,0.954,-0.300,-3.326,-5.310,-4.242,73.333,685.000,1.000
-8460.767,-5538.673,-143966.844,-101920.739,2961.722,-2798.936,-2886.596,-5910.418,0.051,0.953,-0.298,-3.418,-5.219,-4.303,73.333,686.000,1.000
-8441.371,-5502.087,-143673.982,-101734.058,2957.011,-2771.603,-2918.672,-5920.049,0.051,0.952,-0.300,-3.601,-4.974,-4.242,73.333,687.000,1.000
-8421.022,-5464.598,-143380.040,-101546.644,2952.172,-2743.444,-2950.028,-5928.846,0.050,0.953,-0.302,-3.632,-4.761,-4.242,73.333,688.000,1.000
-8400.404,-5427.000,-143085.134,-101358.649,2947.103,-2715.516,-2981.016,-5937.880,0.050,0.952,-0.301,-3.784,-4.486,-4.150,73.333,689.000,1.000
-8379.806,-5390.032,-142789.250,-101170.021,2941.807,-2688.117,-3011.646,-5947.545,0.051,0.950,-0.301,-3.815,-4.181,-4.150,73.333,690.000,1.000
-8359.191,-5353.991,-142492.296,-100980.602,2936.357,-2660.948,-3041.934,-5957.883,0.052,0.949,-0.301,-3.845,-3.967,-4.181,73.333,691.000,1.000
-8338.667,-5318.759,-142194.186,-100790.273,2930.846,-2633.831,-3072.503,-5969.228,0.051,0.950,-0.302,-3.723,-3.784,-4.150,73.333,692.000,1.000
-8318.329,-5283.908,-141894.857,-100598.973,2925.377,-2606.846,-3104.249,-5981.925,0.051,0.950,-0.302,-3.662,-3.632,-4.150,73.333,693.000,1.000
-8297.752,-5248.594,-141594.139,-100406.566,2920.151,-2579.720,-3137.102,-5995.502,0.051,0.953,-0.305,-3.662,-3.326,-4.059,73.333,694.000,1.000
-8275.709,-5211.496,-141291.687,-100212.726,2915.521,-2551.401,-3169.378,-6008.251,0.051,0.956,-0.307,-3.540,-3.113,-3.998,73.333,695.000,1.000
-8251.113,-5171.374,-140987.225,-100017.160,2911.755,-2520.736,-3199.011,-6018.330,0.048,0.959,-0.305,-3.571,-2.838,-3.845,73.333,696.000,1.000
-8224.088,-5127.946,-140680.847,-99819.923,2908.780,-2487.476,-3225.415,-6025.108,0.045,0.956,-0.302,-3.540,-2.655,-3.723,73.333,697.000,1.000
-8196.034,-5082.334,-140373.001,-99621.444,2906.183,-2452.468,-3250.031,-6029.363,0.048,0.953,-0.302,-3.448,-2.533,-3.662,73.333,698.000,1.000
-8169.078,-5036.843,-140064.328,-99422.378,2903.343,-2417.249,-3275.449,-6032.898,0.048,0.950,-0.299,-3.632,-2.319,-3.540,73.333,699.000,1.000
-8144.623,-4993.399,-139755.414,-99223.344,2899.640,-2382.913,-3303.739,-6037.373,0.048,0.944,-0.302,-3.571,-2.014,-3.479,73.333,700.000,1.000
-8122.142,-4951.687,-139446.420,-99024.518,2894.876,-2348.840,-3334.981,-6042.952,0.048,0.938,-0.297,-3.479,-1.770,-3.326,73.333,701.000,1.000
-8099.457,-4909.188,-139136.875,-98825.444,2889.495,-2312.774,-3367.269,-6048.201,0.046,0.936,-0.293,-3.296,-1.404,-3.174,73.333,702.000,1.000
-8074.445,-4863.195,-138826.044,-98625.414,2884.224,-2272.529,-3398.465,-6051.732,0.043,0.934,-0.292,-3.082,-1.221,-3.082,73.333,703.000,1.000
-8046.671,-4812.759,-138513.473,-98424.006,2879.516,-2227.650,-3427.926,-6053.737,0.042,0.937,-0.288,-2.899,-1.129,-2.869,73.333,704.000,1.000
-8016.918,-4758.572,-138199.128,-98221.195,2875.432,-2179.333,-3456.265,-6055.230,0.039,0.940,-0.290,-2.625,-1.038,-2.808,73.333,705.000,1.000
-7986.094,-4701.841,-137883.261,-98017.195,2871.782,-2129.368,-3484.086,-6056.764,0.035,0.946,-0.291,-2.472,-0.946,-2.686,73.333,706.000,1.000
-7954.792,-4643.841,-137566.290,-97812.349,2868.212,-2079.412,-3511.510,-6058.322,0.039,0.951,-0.294,-2.411,-0.854,-2.441,73.333,707.000,1.000
-7923.284,-4585.884,-137248.618,-97606.987,2864.353,-2030.589,-3538.548,-6059.856,0.035,0.954,-0.296,-2.502,-0.885,-2.350,73.333,708.000,1.000
-7891.989,-4529.158,-136930.423,-97401.257,2860.023,-1983.492,-3565.627,-6061.833,0.035,0.955,-0.292,-2.625,-0.793,-2.319,73.333,709.000,1.000
-7861.639,-4474.422,-136611.582,-97195.046,2855.332,-1938.289,-3593.621,-6065.029,0.033,0.955,-0.289,-2.563,-0.732,-2.136,73.333,710.000,1.000
-7833.068,-4421.886,-136291.746,-96988.036,2850.614,-1894.697,-3623.224,-6069.889,0.032,0.956,-0.289,-2.686,-0.793,-2.045,73.333,711.000,1.000
-7806.455,-4371.071,-135970.520,-96779.880,2846.237,-1851.877,-3654.012,-6075.821,0.031,0.953,-0.285,-2.838,-0.854,-2.045,73.333,712.000,1.000
-7780.784,-4320.630,-135647.691,-96570.410,2842.382,-1808.539,-3684.308,-6081.057,0.032,0.952,-0.284,-2.899,-0.885,-2.075,73.333,713.000,1.000
-7754.811,-4269.147,-135323.408,-96359.793,2838.913,-1763.767,-3712.450,-6083.911,0.033,0.952,-0.290,-2.991,-0.793,-1.984,73.333,714.000,1.000
-7728.254,-4216.563,-134998.132,-96148.469,2835.432,-1717.937,-3738.187,-6084.195,0.031,0.954,-0.290,-3.052,-0.854,-1.862,73.333,715.000,1.000
-7702.065,-4164.599,-134672.295,-95936.835,2831.555,-1672.545,-3762.794,-6083.428,0.032,0.956,-0.288,-3.143,-0.916,-1.770,73.333,716.000,1.000
-7677.398,-4115.410,-134346.022,-95724.979,2827.161,-1628.970,-3787.913,-6083.512,0.031,0.960,-0.287,-3.174,-0.977,-1.678,73.333,717.000,1.000
-7654.442,-4069.927,-134019.212,-95512.771,2822.322,-1587.529,-3814.467,-6085.422,0.032,0.961,-0.286,-3.479,-0.977,-1.526,73.333,718.000,1.000
-7632.483,-4027.547,-133691.722,-95300.052,2817.184,-1547.687,-3842.535,-6089.300,0.031,0.961,-0.285,-3.754,-0.946,-1.343,73.333,719.000,1.000
-7610.187,-3986.585,-133363.288,-95086.566,2812.041,-1508.441,-3871.490,-6094.778,0.031,0.959,-0.283,-4.089,-1.038,-1.251,73.333,720.000,1.000
-7586.057,-3944.807,-133033.550,-94871.993,2807.296,-1468.516,-3900.350,-6101.282,0.033,0.956,-0.281,-4.333,-1.068,-1.099,73.333,721.000,1.000
-7558.998,-3900.001,-132702.309,-94656.186,2803.168,-1426.567,-3928.397,-6108.127,0.035,0.955,-0.278,-4.578,-1.038,-0.977,73.333,722.000,1.000
-7528.466,-3850.272,-132369.607,-94439.219,2799.584,-1381.183,-3955.443,-6114.098,0.035,0.955,-0.278,-4.761,-0.977,-0.854,73.333,723.000,1.000
-7494.515,-3794.280,-132035.543,-94221.185,2796.376,-1331.120,-3981.717,-6117.622,0.035,0.955,-0.277,-4.944,-0.977,-0.732,73.333,724.000,1.000
-7457.573,-3731.550,-131700.124,-94002.050,2793.471,-1275.830,-4007.706,-6117.492,0.037,0.955,-0.278,-5.188,-0.946,-0.671,73.333,725.000,1.000
-7418.677,-3663.025,-131363.389,-93781.820,2790.795,-1215.973,-4034.061,-6113.675,0.037,0.956,-0.276,-5.341,-0.946,-0.549,73.333,726.000,1.000
-7379.425,-3591.089,-131025.559,-93560.705,2788.150,-1153.211,-4061.143,-6107.300,0.037,0.955,-0.275,-5.524,-0.977,-0.366,73.333,727.000,1.000
-7340.985,-3518.320,-130686.849,-93338.942,2785.390,-1089.121,-4088.403,-6099.671,0.037,0.958,-0.272,-5.798,-1.068,-0.336,73.333,728.000,1.000
-7303.838,-3446.546,-130347.276,-93116.578,2782.572,-1024.783,-4114.686,-6091.871,0.037,0.964,-0.274,-5.951,-1.068,-0.183,73.333,729.000,1.000
-7268.441,-3377.403,-130006.783,-92893.572,2779.799,-961.613,-4139.412,-6085.165,0.037,0.966,-0.275,-6.073,-1.190,-0.092,73.333,730.000,1.000
-7236.012,-3313.409,-129665.572,-92670.089,2776.897,-902.199,-4163.439,-6081.472,0.038,0.967,-0.273,-6.287,-1.221,0.061,73.333,731.000,1.000
-7207.910,-3257.363,-129324.149,-92446.548,2773.391,-849.543,-4188.367,-6082.598,0.038,0.966,-0.269,-6.622,-1.282,0.153,73.333,732.000,1.000
-7184.000,-3210.018,-128982.858,-92223.222,2768.965,-804.883,-4214.821,-6088.583,0.038,0.960,-0.268,-6.866,-1.312,0.244,73.333,733.000,1.000
-7162.730,-3169.456,-128641.543,-91999.950,2763.788,-767.078,-4242.135,-6097.853,0.039,0.959,-0.267,-7.233,-1.190,0.397,73.333,734.000,1.000
-7142.653,-3133.094,-128299.810,-91776.403,2758.240,-734.357,-4269.736,-6108.941,0.036,0.957,-0.264,-7.416,-1.160,0.427,73.333,735.000,1.000
-7123.414,-3099.445,-127957.437,-91552.425,2752.523,-705.795,-4298.107,-6121.454,0.034,0.954,-0.260,-7.599,-1.282,0.366,73.333,736.000,1.000
-7105.156,-3067.891,-127614.380,-91327.982,2746.668,-680.945,-4328.164,-6135.346,0.031,0.954,-0.256,-7.843,-1.526,0.458,73.333,737.000,1.000
-7087.591,-3037.798,-127270.571,-91102.975,2740.741,-658.876,-4360.091,-6150.010,0.032,0.955,-0.257,-7.812,-1.709,0.488,73.333,738.000,1.000
-7070.349,-3008.696,-126925.974,-90877.341,2734.789,-638.411,-4393.041,-6164.753,0.034,0.958,-0.258,-7.751,-1.892,0.458,73.333,739.000,1.000
-7053.570,-2980.934,-126580.768,-90651.248,2728.640,-619.183,-4425.844,-6179.503,0.034,0.959,-0.253,-7.874,-2.167,0.519,73.333,740.000,1.000
-7037.847,-2955.511,-126235.268,-90425.000,2721.994,-601.912,-4457.670,-6194.644,0.034,0.958,-0.253,-7.904,-2.350,0.549,73.333,741.000,1.000
-7023.161,-2932.780,-125889.514,-90198.623,2714.829,-587.123,-4487.849,-6210.036,0.037,0.958,-0.249,-8.148,-2.441,0.580,73.333,742.000,1.000
-7008.171,-2911.491,-125543.058,-89971.664,2707.611,-573.865,-4515.722,-6224.591,0.039,0.955,-0.250,-8.362,-2.563,0.641,73.333,743.000,1.000
-6991.413,-2889.849,-125195.268,-89743.523,2700.966,-560.348,-4541.207,-6237.353,0.041,0.952,-0.251,-8.331,-2.563,0.488,73.333,744.000,1.000
-6972.828,-2867.415,-124845.872,-89513.980,2695.155,-545.798,-4565.252,-6248.608,0.038,0.950,-0.248,-8.270,-2.594,0.549,73.333,745.000,1.000
-6954.155,-2845.639,-124495.247,-89283.416,2689.834,-531.455,-4589.656,-6260.186,0.038,0.948,-0.248,-8.270,-2.686,0.549,73.333,746.000,1.000
-6937.577,-2826.428,-124144.119,-89052.504,2684.317,-519.487,-4616.033,-6274.266,0.040,0.947,-0.249,-7.965,-2.686,0.427,73.333,747.000,1.000
-6924.012,-2810.489,-123793.014,-88821.719,2678.060,-511.076,-4644.680,-6291.593,0.039,0.946,-0.249,-7.812,-2.777,0.336,73.333,748.000,1.000
-6913.149,-2797.393,-123442.087,-88591.216,2670.853,-505.998,-4674.681,-6311.292,0.036,0.950,-0.247,-7.477,-2.869,0.275,73.333,749.000,1.000
-6903.940,-2786.338,-123091.184,-88360.869,2662.822,-503.315,-4704.674,-6331.649,0.037,0.955,-0.247,-7.080,-2.899,0.214,73.333,750.000,1.000
-6895.006,-2776.518,-122739.898,-88130.285,2654.402,-501.992,-4733.464,-6350.976,0.036,0.959,-0.247,-6.989,-2.991,0.305,73.333,751.000,1.000
-6885.283,-2767.486,-122387.751,-87898.981,2646.137,-501.539,-4760.584,-6368.403,0.037,0.961,-0.250,-6.897,-2.960,0.244,73.333,752.000,1.000
-6874.576,-2759.337,-122034.506,-87666.707,2638.321,-502.302,-4786.676,-6384.247,0.041,0.960,-0.249,-6.744,-3.021,0.183,73.333,753.000,1.000
-6863.442,-2752.298,-121680.306,-87433.597,2630.836,-504.852,-4812.963,-6399.692,0.044,0.959,-0.248,-6.592,-2.899,0.153,73.333,754.000,1.000
-6852.013,-2745.872,-121325.444,-87199.939,2623.373,-508.826,-4840.010,-6415.595,0.044,0.953,-0.246,-6.439,-2.808,0.153,73.333,755.000,1.000
-6839.522,-2738.777,-120970.048,-86965.866,2615.764,-512.692,-4867.266,-6431.892,0.044,0.949,-0.247,-6.073,-2.563,0.214,73.333,756.000,1.000
-6825.090,-2729.851,-120613.998,-86731.281,2608.095,-514.818,-4893.782,-6448.055,0.044,0.948,-0.246,-5.707,-2.441,0.031,73.333,757.000,1.000
-6808.650,-2718.840,-120257.158,-86496.042,2600.503,-514.629,-4919.133,-6463.693,0.044,0.951,-0.249,-5.280,-2.319,-0.061,73.333,758.000,1.000
-6791.149,-2706.415,-119899.629,-86260.223,2592.916,-512.765,-4943.660,-6478.795,0.043,0.951,-0.251,-4.730,-2.167,-0.214,73.333,759.000,1.000
-6773.200,-2693.021,-119541.569,-86023.976,2585.213,-509.872,-4967.654,-6492.953,0.042,0.953,-0.249,-4.120,-2.136,-0.214,73.333,760.000,1.000
-6754.224,-2677.969,-119182.823,-85787.177,2577.535,-505.612,-4990.652,-6504.923,0.042,0.956,-0.249,-3.510,-2.167,-0.458,73.333,761.000,1.000
-6733.464,-2660.444,-118823.080,-85549.558,2570.149,-499.439,-5012.020,-6513.616,0.041,0.959,-0.253,-3.052,-2.228,-0.549,73.333,762.000,1.000
-6711.347,-2641.086,-118462.379,-85311.166,2562.988,-491.902,-5032.068,-6519.385,0.041,0.960,-0.258,-2.625,-2.045,-0.610,73.333,763.000,1.000
-6689.504,-2621.891,-118101.238,-85072.458,2555.564,-484.579,-5052.072,-6524.162,0.039,0.958,-0.259,-2.106,-2.045,-0.854,73.333,764.000,1.000
-6669.164,-2604.405,-117740.169,-84833.883,2547.422,-478.643,-5073.147,-6529.974,0.037,0.958,-0.256,-1.526,-1.953,-1.160,73.333,765.000,1.000
-6650.265,-2588.429,-117379.226,-84595.493,2538.550,-473.990,-5095.630,-6537.726,0.037,0.956,-0.254,-1.007,-2.014,-1.495,73.333,766.000,1.000
-6631.881,-2572.402,-117018.023,-84356.961,2529.331,-469.680,-5119.267,-6547.145,0.034,0.956,-0.255,-0.458,-1.892,-1.892,73.333,767.000,1.000
-6612.952,-2554.616,-116656.047,-84117.825,2520.244,-464.773,-5143.569,-6557.249,0.032,0.957,-0.259,0.000,-1.831,-2.228,73.333,768.000,1.000
-6593.078,-2534.288,-116292.930,-83877.731,2511.648,-458.823,-5168.078,-6567.121,0.032,0.958,-0.260,0.549,-1.801,-2.594,73.333,769.000,1.000
-6572.455,-2511.606,-115928.508,-83636.514,2503.713,-451.632,-5192.182,-6576.113,0.033,0.959,-0.263,1.068,-1.740,-2.899,73.333,770.000,1.000
-6551.603,-2487.423,-115562.887,-83394.276,2496.338,-443.009,-5215.136,-6583.916,0.032,0.957,-0.266,1.617,-1.740,-3.235,73.333,771.000,1.000
-6531.285,-2463.243,-115196.514,-83151.429,2489.098,-433.134,-5236.674,-6590.821,0.034,0.953,-0.264,2.167,-1.587,-3.418,73.333,772.000,1.000
-6512.076,-2440.715,-114829.974,-82908.492,2481.454,-422.635,-5257.164,-6597.557,0.036,0.951,-0.267,2.747,-1.282,-3.571,73.333,773.000,1.000
-6493.889,-2420.583,-114463.540,-82665.677,2473.171,-411.955,-5277.103,-6604.833,0.036,0.947,-0.270,3.479,-1.129,-3.784,73.333,774.000,1.000
-6475.689,-2402.001,-114096.906,-82422.672,2464.549,-400.769,-5296.709,-6612.782,0.036,0.949,-0.271,4.150,-0.824,-3.998,73.333,775.000,1.000
-6456.319,-2383.223,-113729.469,-82178.941,2456.139,-388.453,-5316.162,-6621.288,0.037,0.949,-0.272,4.822,-0.610,-4.059,73.333,776.000,1.000
-6435.569,-2362.978,-113360.829,-81934.157,2448.298,-375.113,-5335.890,-6630.606,0.036,0.948,-0.276,5.402,-0.244,-4.211,73.333,777.000,1.000
-6414.032,-2340.924,-112990.937,-81688.294,2441.074,-361.670,-5356.289,-6640.994,0.037,0.947,-0.278,5.951,0.183,-4.303,73.333,778.000,1.000
-6392.679,-2317.481,-112620.022,-81441.541,2434.280,-349.283,-5377.455,-6652.246,0.038,0.950,-0.279,6.531,0.397,-4.333,73.333,779.000,1.000
-6372.581,-2293.600,-112248.533,-81194.294,2427.520,-338.896,-5399.254,-6663.744,0.035,0.949,-0.277,7.233,0.793,-4.272,73.333,780.000,1.000
-6354.621,-2270.273,-111876.954,-80947.041,2420.310,-330.936,-5421.447,-6674.855,0.033,0.948,-0.277,7.751,1.190,-4.303,73.333,781.000,1.000
-6338.850,-2247.965,-111505.497,-80700.034,2412.406,-325.099,-5443.692,-6685.179,0.033,0.946,-0.284,8.209,1.556,-4.333,73.333,782.000,1.000
-6324.245,-2226.509,-111133.989,-80453.118,2403.969,-320.456,-5465.604,-6694.697,0.031,0.946,-0.287,8.606,1.953,-4.272,73.333,783.000,1.000
-6309.581,-2205.464,-110762.019,-80205.847,2395.452,-315.839,-5486.755,-6703.911,0.029,0.947,-0.282,9.033,2.106,-4.303,73.333,784.000,1.000
-6293.848,-2184.165,-110389.110,-79957.672,2387.399,-309.981,-5506.558,-6713.142,0.028,0.945,-0.284,9.369,2.350,-4.242,73.333,785.000,1.000
-6276.473,-2161.931,-110014.934,-79708.234,2380.169,-301.884,-5524.628,-6722.110,0.028,0.944,-0.283,9.705,2.686,-4.303,73.333,786.000,1.000
-6257.642,-2138.727,-109639.531,-79457.619,2373.691,-291.619,-5541.292,-6730.473,0.026,0.944,-0.287,10.101,2.960,-4.364,73.333,787.000,1.000
-6238.118,-2115.331,-109263.320,-79206.309,2367.505,-280.573,-5557.625,-6738.323,0.026,0.943,-0.285,10.406,3.174,-4.395,73.333,788.000,1.000
-6218.862,-2092.787,-108886.849,-78954.853,2361.073,-270.681,-5575.065,-6746.251,0.023,0.941,-0.286,10.620,3.265,-4.303,73.333,789.000,1.000
-6200.504,-2071.702,-108510.470,-78703.566,2354.068,-263.065,-5594.597,-6754.711,0.022,0.942,-0.289,10.895,3.479,-4.364,73.333,790.000,1.000
-6183.294,-2052.072,-108134.210,-78452.469,2346.461,-257.303,-5616.135,-6763.627,0.020,0.941,-0.291,11.047,3.662,-4.181,73.333,791.000,1.000
-6167.077,-2033.532,-107757.830,-78201.319,2338.498,-251.893,-5638.619,-6772.501,0.018,0.941,-0.290,11.353,3.723,-4.150,73.333,792.000,1.000
-6151.090,-2015.638,-107380.999,-77949.733,2330.570,-245.392,-5660.698,-6780.670,0.018,0.939,-0.288,11.536,3.967,-4.089,73.333,793.000,1.000
-6134.457,-1998.118,-107003.570,-77697.497,2322.908,-237.358,-5681.508,-6787.753,0.019,0.938,-0.290,11.627,4.059,-3.967,73.333,794.000,1.000
-6116.534,-1980.484,-106625.642,-77444.707,2315.432,-228.078,-5700.823,-6793.530,0.019,0.938,-0.292,11.841,4.242,-3.815,73.333,795.000,1.000
-6097.100,-1961.611,-106247.340,-77191.562,2307.939,-217.656,-5718.792,-6797.782,0.018,0.937,-0.297,11.932,4.272,-3.632,73.333,796.000,1.000
-6076.459,-1940.285,-105868.661,-76938.083,2300.359,-205.928,-5735.806,-6800.597,0.020,0.935,-0.302,11.963,4.333,-3.418,73.333,797.000,1.000
-6055.287,-1916.259,-105489.578,-76684.114,2292.798,-193.240,-5752.650,-6802.619,0.022,0.934,-0.301,12.085,4.425,-3.174,73.333,798.000,1.000
-6034.669,-1890.875,-105110.257,-76429.607,2285.293,-180.876,-5770.369,-6804.863,0.021,0.934,-0.301,12.421,4.608,-2.869,73.333,799.000,1.000
-6015.473,-1866.310,-104730.957,-76174.807,2277.650,-170.053,-5789.289,-6807.750,0.020,0.934,-0.300,12.512,4.730,-2.625,73.333,800.000,1.000
-5997.524,-1843.961,-104351.701,-75920.012,2269.641,-160.480,-5808.446,-6810.584,0.021,0.933,-0.302,12.695,4.822,-2.258,73.333,801.000,1.000
-5979.502,-1823.487,-103972.487,-75665.196,2261.343,-150.295,-5826.321,-6812.100,0.022,0.933,-0.306,12.939,5.005,-1.923,73.333,802.000,1.000
-5959.797,-1803.308,-103594.717,-75410.076,2253.063,-137.533,-5841.959,-6811.432,0.022,0.933,-0.312,13.031,5.127,-1.587,73.333,803.000,1.000
-5937.884,-1781.968,-103221.422,-75154.470,2244.998,-121.718,-5855.677,-6808.962,0.025,0.931,-0.310,13.245,5.127,-1.251,73.333,804.000,1.000
-5914.430,-1758.697,-102853.344,-74898.343,2237.161,-104.009,-5868.971,-6806.122,0.023,0.929,-0.312,13.458,5.096,-1.007,73.333,805.000,1.000
-5890.620,-1733.259,-102487.048,-74641.787,2229.418,-86.249,-5883.730,-6804.639,0.023,0.929,-0.309,13.611,5.157,-0.458,73.333,806.000,1.000
-5867.545,-1705.990,-102126.500,-74385.243,2221.456,-69.961,-5901.108,-6805.733,0.024,0.929,-0.312,13.824,5.127,-0.183,73.333,807.000,1.000
-5845.707,-1677.802,-101801.168,-74129.540,2212.977,-55.662,-5920.874,-6809.483,0.023,0.928,-0.314,13.947,5.035,0.214,73.333,808.000,1.000
-5825.147,-1649.890,-101555.740,-73875.366,2203.957,-42.850,-5941.804,-6815.027,0.024,0.928,-0.320,14.221,5.005,0.610,73.333,809.000,1.000
-5805.436,-1622.993,-101401.562,-73622.489,2194.736,-30.314,-5962.387,-6820.886,0.024,0.930,-0.320,14.374,4.791,0.854,73.333,810.000,1.000
-5785.790,-1596.950,-101290.403,-73369.665,2185.817,-16.580,-5981.317,-6825.441,0.023,0.930,-0.321,14.679,4.761,1.160,73.333,811.000,1.000
-5765.340,-1570.827,-101158.731,-73115.363,2177.596,-0.385,-5997.603,-6827.528,0.023,0.932,-0.321,14.893,4.578,1.373,73.333,812.000,1.000
-5743.337,-1543.287,-100992.446,-72858.516,2170.233,19.023,-6010.623,-6826.699,0.024,0.932,-0.322,14.954,4.425,1.648,73.333,813.000,1.000
-5719.965,-1513.626,-100830.490,-72598.975,2163.581,41.383,-6020.702,-6823.607,0.025,0.932,-0.321,15.015,4.333,1.831,73.333,814.000,1.000
-5696.505,-1482.475,-100705.788,-72337.573,2157.183,65.276,-6029.336,-6819.640,0.026,0.931,-0.323,15.076,4.211,2.014,73.333,815.000,1.000
-5674.454,-1451.316,-100603.806,-72075.659,2150.481,88.848,-6038.474,-6816.002,0.027,0.930,-0.324,15.198,4.059,2.258,73.333,816.000,1.000
-5654.476,-1421.562,-100488.593,-71814.296,2143.153,110.758,-6049.617,-6813.273,0.027,0.928,-0.328,15.289,3.876,2.533,73.333,817.000,1.000
-5635.872,-1393.808,-100351.835,-71553.732,2135.261,130.668,-6063.392,-6811.464,0.026,0.929,-0.331,15.320,3.784,2.716,73.333,818.000,1.000
-5617.128,-1367.504,-100218.258,-71293.512,2127.102,149.109,-6079.523,-6810.249,0.030,0.929,-0.331,15.442,3.662,2.899,73.333,819.000,1.000
-5596.571,-1341.040,-100106.007,-71032.907,2119.086,167.347,-6096.842,-6808.739,0.031,0.932,-0.330,15.656,3.448,3.082,73.333,820.000,1.000
-5573.049,-1312.523,-100000.163,-70771.390,2111.558,187.045,-6113.775,-6805.741,0.033,0.933,-0.331,15.747,3.265,3.265,73.333,821.000,1.000
-5546.425,-1280.782,-99871.917,-70508.930,2104.550,209.392,-6129.230,-6800.657,0.035,0.937,-0.336,15.656,3.174,3.448,73.333,822.000,1.000
-5517.381,-1245.611,-99711.378,-70245.836,2097.777,234.565,-6142.916,-6793.845,0.035,0.940,-0.337,15.533,3.021,3.723,73.333,823.000,1.000
-5487.321,-1207.740,-99533.482,-69982.418,2090.911,261.710,-6155.232,-6786.489,0.036,0.942,-0.339,15.503,2.930,3.845,73.333,824.000,1.000
-5458.050,-1168.760,-99356.875,-69718.854,2083.809,289.275,-6167.118,-6780.058,0.038,0.943,-0.342,15.350,2.808,4.028,73.333,825.000,1.000
-5431.062,-1130.616,-99186.321,-69455.242,2076.520,315.645,-6179.716,-6775.711,0.040,0.943,-0.344,15.167,2.747,4.181,73.333,826.000,1.000
-5406.601,-1094.663,-99014.977,-69191.561,2069.200,339.895,-6193.767,-6773.744,0.042,0.943,-0.344,15.106,2.747,4.456,73.333,827.000,1.000
-5383.275,-1060.914,-98834.750,-68927.614,2062.030,362.303,-6209.114,-6773.305,0.044,0.942,-0.344,15.015,2.747,4.639,73.333,828.000,1.000
-5359.263,-1028.351,-98642.708,-68663.135,2055.110,384.050,-6224.763,-6772.981,0.045,0.944,-0.347,14.771,2.716,4.608,73.333,829.000,1.000
-5333.621,-995.737,-98441.647,-68398.040,2048.406,406.398,-6239.521,-6771.648,0.044,0.947,-0.348,14.557,2.686,4.547,73.333,830.000,1.000
-5306.711,-962.242,-98237.741,-68132.602,2041.705,429.916,-6252.974,-6769.169,0.042,0.948,-0.347,14.374,2.594,4.578,73.333,831.000,1.000
-5279.618,-927.691,-98035.454,-67867.290,2034.699,454.378,-6265.785,-6766.279,0.046,0.949,-0.349,14.099,2.563,4.700,73.333,832.000,1.000
-5253.170,-892.390,-97831.466,-67602.314,2027.231,479.333,-6278.986,-6763.540,0.046,0.951,-0.351,13.794,2.441,4.608,73.333,833.000,1.000
-5227.762,-856.960,-97617.311,-67337.419,2019.441,504.409,-6293.191,-6760.869,0.051,0.950,-0.352,13.641,2.411,4.486,73.333,834.000,1.000
