EEG 1,EEG 2,EEG 3,EEG 4,EEG 5,EEG 6,EEG 7,EEG 8,Accelerometer X,Accelerometer Y,Accelerometer Z,Gyroscope X,Gyroscope Y,Gyroscope Z,Battery Level,Counter,Validation Indicator
-3990.931,-9624.224,-22231.811,-5768.635,7363.819,2265.442,-144.797,-6994.078,-0.031,0.952,-0.268,0.000,0.000,0.000,73.333,1.000,1.000
-16630.082,-43445.678,-40914.841,-35507.660,51619.108,28935.180,2731.849,-51300.203,-0.033,0.953,-0.274,0.000,0.000,0.000,73.333,2.000,1.000
-71944.846,-143367.308,-96378.493,-123559.118,171501.266,103776.108,28065.165,-172282.860,-0.037,0.949,-0.277,0.000,0.000,0.000,73.333,3.000,1.000
-203885.860,-322779.331,-196563.404,-287614.360,375858.207,233874.762,103920.961,-375876.668,-0.038,0.948,-0.281,0.000,0.000,0.000,73.333,4.000,1.000
-410424.179,-537824.116,-319689.087,-509380.862,632023.427,393657.329,231577.545,-617479.548,-0.040,0.945,-0.283,-0.397,0.183,0.244,73.333,5.000,1.000
-644294.406,-702291.640,-423862.228,-737544.259,890367.667,539668.130,363650.161,-831323.938,-0.044,0.941,-0.284,-5.035,0.061,0.366,73.333,6.000,1.000
-840819.398,-740133.607,-466696.638,-898212.007,1105707.682,631635.800,428676.612,-965121.544,-0.045,0.938,-0.285,-4.272,-0.854,-1.617,73.333,7.000,1.000
-940323.024,-630197.401,-421638.224,-918540.842,1249786.293,647234.117,372818.886,-998589.949,-0.050,0.935,-0.284,-3.662,-1.099,-2.808,73.333,8.000,1.000
-893973.120,-411231.424,-292331.978,-768271.155,1322680.597,591005.132,179062.321,-945550.916,-0.057,0.936,-0.279,-3.082,-1.007,-3.571,73.333,9.000,1.000
-678628.400,-154020.125,-115254.361,-486174.225,1350565.677,490964.355,-126188.744,-840039.081,-0.061,0.935,-0.279,-2.716,-1.221,-3.876,73.333,10.000,1.000
-323774.702,73850.392,58733.688,-161423.034,1363873.182,381003.755,-467045.208,-714812.328,-0.060,0.940,-0.281,-2.411,-1.373,-4.761,73.333,11.000,1.000
86531.172,234988.488,191217.479,115381.356,1376315.200,282755.823,-742343.890,-586619.485,-0.063,0.940,-0.279,-2.106,-1.343,-5.493,73.333,12.000,1.000
451634.751,333143.104,269594.426,292135.020,1384866.803,201494.066,-878759.459,-458943.280,-0.066,0.942,-0.283,-1.740,-1.282,-6.165,73.333,13.000,1.000
695415.578,398851.983,301649.822,364889.722,1384544.678,135134.822,-863804.539,-337357.368,-0.068,0.945,-0.283,-1.526,-1.129,-6.775,73.333,14.000,1.000
783587.297,456960.191,303219.319,364028.431,1377839.093,83239.867,-736723.411,-237454.009,-0.072,0.947,-0.283,-1.221,-1.160,-7.416,73.333,15.000,1.000
727710.159,509025.673,289824.013,331897.311,1370515.014,46890.483,-558882.538,-174110.262,-0.075,0.949,-0.279,-0.916,-1.038,-8.087,73.333,16.000,1.000
581504.521,546806.029,273800.506,302275.365,1363651.895,23466.130,-389138.131,-145782.859,-0.076,0.952,-0.281,-0.641,-1.007,-8.636,73.333,17.000,1.000
418405.893,570558.615,263336.837,289466.814,1353805.159,5991.068,-268849.730,-134741.945,-0.078,0.954,-0.280,-0.519,-1.068,-9.003,73.333,18.000,1.000
295038.717,586690.755,261192.335,290895.811,1339846.567,-11009.115,-211866.672,-123775.008,-0.081,0.954,-0.277,-0.458,-1.007,-9.430,73.333,19.000,1.000
227770.779,595444.025,264638.440,297990.321,1325963.324,-26817.124,-203187.648,-109438.675,-0.085,0.954,-0.274,-0.244,-0.916,-9.766,73.333,20.000,1.000
200754.334,591096.038,268442.527,304844.487,1316701.604,-37151.714,-212427.852,-97870.939,-0.088,0.956,-0.276,-0.183,-0.946,-9.918,73.333,21.000,1.000
192494.160,574144.077,269166.520,309317.465,1311279.760,-40444.803,-215317.528,-91775.862,-0.088,0.957,-0.277,-0.214,-1.007,-10.071,73.333,22.000,1.000
192426.634,556116.953,267015.585,310259.431,1304899.813,-39857.787,-205893.365,-86154.052,-0.089,0.957,-0.275,-0.275,-0.732,-10.284,73.333,23.000,1.000
196717.619,548728.275,264055.551,306805.537,1294897.483,-39411.065,-190846.080,-76137.231,-0.094,0.957,-0.276,-0.153,-0.793,-10.040,73.333,24.000,1.000
198621.770,551583.188,261499.769,300179.936,1283474.739,-39977.522,-176225.562,-64144.909,-0.098,0.953,-0.273,0.031,-0.824,-9.979,73.333,25.000,1.000
190228.998,554495.612,259090.080,293944.674,1274057.679,-39953.792,-162060.198,-56436.000,-0.102,0.951,-0.268,0.366,-1.099,-9.796,73.333,26.000,1.000
171811.962,550471.818,256451.460,291041.452,1266792.626,-38704.672,-147308.092,-54601.679,-0.102,0.953,-0.267,0.458,-1.526,-9.735,73.333,27.000,1.000
153168.251,542044.879,254045.136,291022.974,1258977.031,-37769.510,-134630.437,-53748.755,-0.104,0.953,-0.273,0.488,-1.709,-9.644,73.333,28.000,1.000
143243.301,534349.405,252518.618,291041.047,1249058.615,-38642.463,-127630.856,-49111.000,-0.109,0.957,-0.272,0.580,-1.892,-9.491,73.333,29.000,1.000
141011.663,526340.018,251671.518,289303.724,1238503.021,-40652.963,-125403.739,-41711.437,-0.114,0.960,-0.272,0.580,-2.045,-9.369,73.333,30.000,1.000
138709.769,512103.533,250590.733,286669.421,1229472.808,-41846.775,-122835.064,-36074.484,-0.116,0.961,-0.270,0.519,-2.319,-9.308,73.333,31.000,1.000
132055.550,489298.145,248717.392,284792.593,1221961.650,-41435.050,-116448.379,-34015.957,-0.120,0.960,-0.273,0.427,-2.747,-9.125,73.333,32.000,1.000
124102.632,462897.535,246398.477,283729.363,1214131.512,-40522.186,-107936.993,-32871.999,-0.125,0.959,-0.271,0.305,-3.204,-8.972,73.333,33.000,1.000
119307.182,439801.179,244322.026,282145.469,1204892.207,-40461.794,-101145.666,-29616.843,-0.125,0.957,-0.271,0.183,-3.571,-8.759,73.333,34.000,1.000
117167.645,421878.692,242700.952,279424.961,1195090.395,-41243.136,-97109.485,-24695.512,-0.126,0.955,-0.265,0.092,-3.998,-8.484,73.333,35.000,1.000
113652.639,405887.032,241195.664,276566.491,1186092.514,-41838.639,-93551.273,-20835.561,-0.128,0.952,-0.266,0.000,-4.578,-8.270,73.333,36.000,1.000
107175.547,388958.702,239468.322,274766.112,1178036.210,-41671.995,-88576.600,-19233.808,-0.129,0.951,-0.265,0.061,-5.188,-7.935,73.333,37.000,1.000
100504.252,371927.494,237559.651,273822.328,1169957.671,-41195.161,-83055.174,-18337.672,-0.131,0.951,-0.266,0.031,-5.585,-7.660,73.333,38.000,1.000
96692.473,357091.900,235720.422,272516.502,1161199.540,-41099.758,-78900.257,-16215.531,-0.130,0.950,-0.265,0.061,-6.012,-7.294,73.333,39.000,1.000
95210.741,344623.126,234066.927,270269.487,1152088.264,-41440.658,-76284.429,-12901.055,-0.135,0.950,-0.264,0.183,-6.439,-6.989,73.333,40.000,1.000
93194.450,332516.328,232497.718,267772.506,1143280.890,-41725.434,-73641.769,-9907.407,-0.138,0.948,-0.261,0.092,-6.775,-6.683,73.333,41.000,1.000
89337.000,319385.981,230857.674,265909.863,1134941.569,-41601.121,-69942.638,-8147.391,-0.138,0.949,-0.264,0.153,-7.080,-6.439,73.333,42.000,1.000
85060.254,305970.303,229088.595,264601.443,1126739.889,-41193.928,-65855.324,-7068.979,-0.139,0.948,-0.261,0.275,-7.568,-6.195,73.333,43.000,1.000
82103.292,293780.274,227251.659,263068.449,1118361.550,-40850.638,-62524.825,-5645.402,-0.144,0.947,-0.260,0.458,-8.179,-5.920,73.333,44.000,1.000
80337.736,283217.360,225470.740,260957.961,1109773.969,-40756.882,-60052.949,-3574.072,-0.145,0.948,-0.260,0.519,-8.698,-5.768,73.333,45.000,1.000
78433.515,273478.125,223835.054,258733.010,1101124.763,-40828.196,-57677.723,-1354.296,-0.147,0.946,-0.260,0.793,-9.155,-5.676,73.333,46.000,1.000
75786.024,263753.244,222299.529,256940.509,1092600.608,-40837.424,-54965.372,424.488,-0.151,0.948,-0.260,0.977,-9.857,-5.676,73.333,47.000,1.000
72979.268,253938.735,220698.304,255492.111,1084334.984,-40609.309,-52197.640,1626.027,-0.153,0.948,-0.261,1.007,-10.376,-5.829,73.333,48.000,1.000
70690.656,244377.678,218923.397,253888.007,1076266.795,-40182.169,-49714.495,2590.207,-0.153,0.947,-0.260,1.129,-10.834,-5.981,73.333,49.000,1.000
68912.853,235418.680,217083.480,251928.303,1068106.988,-39809.329,-47448.859,3813.851,-0.156,0.949,-0.259,1.404,-11.353,-6.226,73.333,50.000,1.000
67292.681,227229.287,215400.368,249904.927,1059631.886,-39711.376,-45232.083,5504.892,-0.158,0.952,-0.257,1.495,-11.871,-6.409,73.333,51.000,1.000
65648.510,219655.323,213921.307,248128.807,1051030.422,-39788.052,-43126.943,7312.534,-0.164,0.961,-0.263,1.190,-12.482,-6.104,73.333,52.000,1.000
63926.009,212193.724,212426.130,246536.649,1042754.763,-39683.608,-41201.329,8619.186,-0.168,0.963,-0.261,0.549,-13.123,-4.852,73.333,53.000,1.000
62058.576,204440.442,210694.146,244857.696,1034921.896,-39223.092,-39260.598,9270.117,-0.167,0.963,-0.257,0.366,-13.611,-3.235,73.333,54.000,1.000
60180.116,196683.550,208764.686,242957.428,1027028.506,-38682.175,-37131.691,9884.840,-0.163,0.962,-0.254,0.214,-14.221,-2.197,73.333,55.000,1.000
58687.379,189706.828,206764.797,240812.516,1018430.268,-38465.330,-35052.814,11170.930,-0.156,0.960,-0.259,0.092,-15.045,-1.923,73.333,56.000,1.000
57726.277,183765.200,204511.528,238253.944,1009017.446,-38552.703,-33407.408,12972.922,-0.156,0.961,-0.264,-0.061,-15.625,-1.831,73.333,57.000,1.000
56792.965,178068.494,201499.989,234976.524,999184.949,-38477.750,-32092.529,14368.161,-0.151,0.959,-0.261,0.031,-15.839,-1.312,73.333,58.000,1.000
55280.778,171704.888,197395.661,230836.420,989123.638,-37935.836,-30542.516,14853.566,-0.148,0.962,-0.258,0.000,-16.113,-0.854,73.333,59.000,1.000
53390.118,164917.564,192462.879,226028.545,978482.878,-37226.216,-28523.023,15087.682,-0.146,0.965,-0.257,-0.214,-16.235,-0.580,73.333,60.000,1.000
52006.043,158897.011,187396.251,220951.639,966996.355,-36886.114,-26554.569,16080.801,-0.143,0.971,-0.259,-0.244,-16.266,-0.427,73.333,61.000,1.000
51494.366,154179.046,182719.203,215968.047,955205.724,-36968.435,-25233.606,17821.764,-0.141,0.973,-0.260,-0.427,-16.296,-0.031,73.333,62.000,1.000
51070.766,149806.865,178434.898,211301.185,944124.364,-36951.388,-24345.579,19228.544,-0.139,0.972,-0.262,-0.793,-16.266,0.366,73.333,63.000,1.000
49792.576,144541.958,174291.552,207050.442,934130.967,-36436.595,-23090.762,19587.991,-0.137,0.967,-0.264,-0.977,-16.296,0.824,73.333,64.000,1.000
47906.425,138564.917,170247.060,203183.081,924552.348,-35697.228,-21196.486,19559.302,-0.134,0.966,-0.260,-1.099,-16.022,1.343,73.333,65.000,1.000
46601.767,133282.915,166510.030,199526.142,914554.611,-35313.664,-19348.029,20318.972,-0.132,0.965,-0.258,-1.129,-15.869,1.801,73.333,66.000,1.000
46383.662,129409.638,163160.850,195883.369,904195.879,-35379.885,-18260.110,21961.226,-0.132,0.966,-0.260,-1.160,-15.717,2.197,73.333,67.000,1.000
46309.853,125938.511,159942.463,192218.361,894252.847,-35369.786,-17655.288,23347.720,-0.130,0.966,-0.260,-1.221,-15.503,2.625,73.333,68.000,1.000
45242.785,121481.312,156551.370,188671.308,885093.767,-34854.785,-16615.128,23649.542,-0.130,0.964,-0.258,-1.343,-15.289,3.143,73.333,69.000,1.000
43438.084,116172.274,153034.774,185353.686,876157.788,-34090.114,-14855.150,23484.286,-0.130,0.961,-0.256,-1.312,-15.106,3.540,73.333,70.000,1.000
42230.588,111499.171,149733.108,182185.201,866740.198,-33664.645,-13138.227,24079.265,-0.132,0.954,-0.256,-1.373,-14.893,3.845,73.333,71.000,1.000
42197.479,108263.816,146831.364,179008.096,856974.964,-33697.128,-12221.250,25599.045,-0.131,0.951,-0.256,-1.251,-14.648,4.211,73.333,72.000,1.000
42338.095,105474.651,144123.839,175825.922,847651.375,-33682.098,-11795.376,26928.369,-0.130,0.948,-0.257,-1.312,-14.374,4.517,73.333,73.000,1.000
41438.728,101702.860,141303.567,172817.180,839128.705,-33187.304,-10907.900,27200.750,-0.126,0.948,-0.255,-1.038,-14.099,4.547,73.333,74.000,1.000
39747.406,97031.287,138371.686,170083.075,830849.637,-32438.205,-9283.733,26970.316,-0.123,0.949,-0.256,-0.916,-13.763,4.700,73.333,75.000,1.000
38631.458,92914.765,135612.094,167481.758,822106.229,-31997.249,-7703.766,27435.178,-0.122,0.954,-0.255,-0.824,-13.458,4.669,73.333,76.000,1.000
38691.060,90167.749,133184.521,164801.266,812988.518,-31994.743,-6917.771,28803.154,-0.121,0.955,-0.255,-0.732,-13.153,4.822,73.333,77.000,1.000
38941.016,87860.761,130904.045,162045.965,804226.141,-31966.278,-6611.109,30037.665,-0.119,0.955,-0.253,-0.793,-12.817,5.066,73.333,78.000,1.000
38180.663,84616.259,128499.221,159433.401,796175.464,-31497.727,-5852.107,30294.602,-0.121,0.956,-0.250,-0.702,-12.451,5.432,73.333,79.000,1.000
36639.598,80483.691,125978.922,157093.044,788352.130,-30779.629,-4378.685,30056.139,-0.123,0.957,-0.248,-0.763,-12.146,6.104,73.333,80.000,1.000
35633.844,76826.145,123605.591,154881.195,780116.502,-30327.469,-2938.494,30436.332,-0.117,0.957,-0.242,-0.732,-11.871,6.927,73.333,81.000,1.000
35745.335,74431.438,121527.547,152573.704,771536.922,-30277.201,-2239.109,31659.151,-0.113,0.952,-0.244,-0.671,-11.444,7.629,73.333,82.000,1.000
36048.659,72466.458,119581.725,150172.278,763259.690,-30221.546,-1984.381,32793.190,-0.109,0.943,-0.242,-0.732,-11.139,7.965,73.333,83.000,1.000
35412.786,69660.893,117524.125,147898.411,755609.019,-29781.554,-1311.064,33050.849,-0.106,0.942,-0.243,-0.580,-10.742,8.057,73.333,84.000,1.000
34041.153,66033.696,115356.336,145882.677,748165.817,-29110.653,18.555,32837.583,-0.104,0.946,-0.243,-0.275,-10.315,7.996,73.333,85.000,1.000
33145.995,62807.532,113305.032,143981.065,740365.238,-28659.804,1320.975,33152.895,-0.105,0.950,-0.244,-0.427,-9.918,8.179,73.333,86.000,1.000
33268.763,60707.280,111502.120,141971.859,732255.533,-28558.342,1958.258,34225.840,-0.103,0.952,-0.244,-0.427,-9.491,8.240,73.333,87.000,1.000
33576.048,59008.595,109811.525,139857.400,724393.091,-28461.331,2199.119,35251.091,-0.102,0.952,-0.245,-0.458,-9.186,8.392,73.333,88.000,1.000
33043.262,56578.988,108024.832,137853.690,717066.293,-28039.630,2811.258,35519.710,-0.102,0.948,-0.249,-0.519,-8.820,8.484,73.333,89.000,1.000
31841.426,53410.093,106140.429,136087.634,709926.516,-27418.647,3999.196,35355.879,-0.099,0.956,-0.247,-0.610,-8.575,8.667,73.333,90.000,1.000
31044.674,50558.853,104348.103,134423.139,702491.392,-26983.992,5158.114,35621.206,-0.101,0.965,-0.240,-0.793,-8.087,8.728,73.333,91.000,1.000
31138.968,48668.459,102760.255,132650.717,694791.008,-26853.368,5732.482,36535.213,-0.098,0.968,-0.241,-1.099,-7.843,8.667,73.333,92.000,1.000
31402.072,47132.190,101265.875,130771.533,687287.884,-26739.328,5960.037,37426.214,-0.097,0.973,-0.242,-1.404,-7.416,8.698,73.333,93.000,1.000
30940.273,44978.049,99692.306,128985.952,680229.979,-26357.962,6506.388,37683.286,-0.095,0.975,-0.240,-1.617,-7.080,8.545,73.333,94.000,1.000
29893.869,42183.058,98036.335,127412.453,673337.410,-25802.988,7548.337,37562.592,-0.094,0.972,-0.242,-2.014,-6.805,8.484,73.333,95.000,1.000
29184.166,39636.687,96452.836,125928.997,666212.145,-25392.511,8571.416,37788.135,-0.092,0.971,-0.242,-2.380,-6.622,8.453,73.333,96.000,1.000
29234.151,37896.655,95035.736,124346.851,658870.846,-25231.092,9106.129,38563.266,-0.089,0.972,-0.241,-2.502,-6.226,8.453,73.333,97.000,1.000
29439.200,36476.067,93697.846,122666.422,651686.122,-25089.081,9352.265,39344.098,-0.086,0.971,-0.243,-2.747,-5.829,8.362,73.333,98.000,1.000
29044.042,34568.274,92299.525,121065.227,644863.620,-24732.177,9864.210,39615.286,-0.082,0.973,-0.245,-3.082,-5.493,8.453,73.333,99.000,1.000
28157.342,32137.408,90834.549,119647.608,638184.667,-24229.116,10786.236,39564.456,-0.080,0.979,-0.247,-3.174,-5.157,8.484,73.333,100.000,1.000
27540.925,29900.084,89423.467,118306.246,631329.623,-23835.172,11692.144,39775.013,-0.078,0.981,-0.245,-3.510,-4.761,8.453,73.333,101.000,1.000
27548.204,28314.418,88141.668,116876.219,624303.827,-23641.344,12196.679,40425.887,-0.075,0.980,-0.247,-3.967,-4.486,8.453,73.333,102.000,1.000
27687.806,26995.030,86923.883,115357.825,617397.461,-23471.129,12462.547,41092.705,-0.073,0.977,-0.241,-4.242,-3.998,8.331,73.333,103.000,1.000
27341.767,25289.604,85662.393,113904.610,610777.111,-23137.190,12936.994,41357.122,-0.071,0.974,-0.241,-4.486,-3.510,8.209,73.333,104.000,1.000
26591.719,23156.006,84350.426,112606.984,604280.120,-22687.301,13733.916,41351.713,-0.064,0.973,-0.242,-4.608,-3.082,8.026,73.333,105.000,1.000
26049.263,21158.748,83078.570,111374.275,597659.317,-22319.530,14512.834,41533.680,-0.061,0.971,-0.242,-4.486,-2.472,7.874,73.333,106.000,1.000
26002.548,19672.129,81904.858,110066.494,590911.332,-22110.519,14970.527,42058.046,-0.059,0.969,-0.241,-4.517,-2.045,7.874,73.333,107.000,1.000
26066.505,18410.557,80781.958,108682.755,584252.200,-21929.832,15238.674,42608.286,-0.059,0.969,-0.243,-4.517,-1.617,7.782,73.333,108.000,1.000
25753.136,16869.072,79629.797,107351.169,577811.880,-21630.347,15671.242,42858.708,-0.060,0.966,-0.240,-4.395,-1.129,7.538,73.333,109.000,1.000
25123.841,15004.977,78442.147,106148.247,571476.191,-21237.525,16360.192,42899.687,-0.058,0.965,-0.239,-4.211,-0.702,7.172,73.333,110.000,1.000
24655.367,13243.642,77284.700,105000.811,565062.788,-20894.564,17043.345,43076.132,-0.057,0.963,-0.240,-4.059,-0.305,6.836,73.333,111.000,1.000
24574.407,11874.197,76200.592,103794.137,558562.772,-20663.430,17485.399,43513.811,-0.055,0.962,-0.243,-3.876,0.244,6.592,73.333,112.000,1.000
24586.880,10688.369,75157.100,102526.005,552128.377,-20456.009,17781.871,43982.114,-0.057,0.962,-0.242,-3.784,0.702,6.256,73.333,113.000,1.000
24315.272,9304.035,74096.508,101298.573,545855.804,-20167.374,18195.743,44230.981,-0.058,0.962,-0.241,-3.387,1.160,5.829,73.333,114.000,1.000
23796.499,7674.880,73011.649,100172.929,539669.269,-19813.722,18793.686,44311.258,-0.057,0.966,-0.240,-3.052,1.587,5.493,73.333,115.000,1.000
23384.320,6105.618,71946.407,99091.198,533440.561,-19497.021,19382.189,44470.779,-0.059,0.967,-0.240,-2.838,1.892,4.974,73.333,116.000,1.000
23254.019,4816.394,70931.858,97963.087,527157.859,-19264.077,19791.763,44814.680,-0.060,0.967,-0.240,-2.594,2.197,4.639,73.333,117.000,1.000
23198.730,3673.384,69948.781,96787.073,520921.977,-19054.910,20094.778,45193.271,-0.063,0.968,-0.240,-2.319,2.472,4.211,73.333,118.000,1.000
22945.761,2408.669,68959.587,95643.165,514801.699,-18792.674,20481.257,45427.957,-0.063,0.967,-0.236,-2.014,2.655,3.754,73.333,119.000,1.000
22517.290,980.159,67957.707,94579.333,508753.088,-18480.597,20998.450,45540.376,-0.062,0.969,-0.237,-1.831,2.869,3.387,73.333,120.000,1.000
22161.812,-409.189,66969.346,93551.401,502692.733,-18184.648,21510.014,45694.795,-0.064,0.969,-0.239,-1.556,3.021,2.960,73.333,121.000,1.000
22004.114,-1605.974,66014.324,92489.766,496606.417,-17942.275,21897.207,45970.849,-0.065,0.969,-0.241,-1.373,3.113,2.563,73.333,122.000,1.000
21902.586,-2693.397,65082.496,91392.008,490552.245,-17723.168,22207.370,46277.901,-0.068,0.969,-0.238,-1.129,3.235,2.075,73.333,123.000,1.000
21667.661,-3851.164,64151.552,90317.534,484575.242,-17480.044,22566.610,46494.127,-0.070,0.970,-0.237,-0.946,3.296,1.770,73.333,124.000,1.000
21308.664,-5117.827,63215.617,89302.552,478655.923,-17209.221,23006.370,46619.770,-0.071,0.968,-0.238,-0.641,3.448,1.465,73.333,125.000,1.000
20988.943,-6370.054,62287.767,88315.569,472747.314,-16945.834,23440.601,46754.323,-0.072,0.969,-0.239,-0.458,3.510,1.068,73.333,126.000,1.000
20794.954,-7504.072,61379.994,87306.334,466835.434,-16713.320,23796.865,46959.394,-0.073,0.967,-0.239,-0.122,3.510,0.702,73.333,127.000,1.000
20641.995,-8557.404,60489.925,86272.775,460946.290,-16498.172,24105.964,47194.784,-0.074,0.967,-0.237,0.153,3.571,0.366,73.333,128.000,1.000
20411.312,-9634.298,59607.302,85256.793,455106.022,-16273.428,24443.504,47387.971,-0.074,0.966,-0.236,0.336,3.632,0.153,73.333,129.000,1.000
20103.961,-10767.236,58726.616,84283.905,449312.861,-16031.361,24826.779,47525.454,-0.075,0.966,-0.238,0.610,3.632,-0.092,73.333,130.000,1.000
19815.150,-11895.734,57850.326,83332.398,443547.150,-15786.882,25206.438,47655.042,-0.074,0.965,-0.237,0.763,3.601,-0.153,73.333,131.000,1.000
19599.527,-12957.708,56983.617,82367.597,437795.163,-15556.285,25542.366,47819.024,-0.072,0.966,-0.239,1.068,3.571,-0.488,73.333,132.000,1.000
19416.574,-13957.995,56129.501,81387.721,432058.830,-15340.712,25849.184,48010.270,-0.073,0.961,-0.240,1.282,3.632,-0.824,73.333,133.000,1.000
19203.731,-14943.233,55287.179,80420.732,426350.019,-15128.192,26162.811,48191.400,-0.073,0.963,-0.240,1.617,3.662,-1.038,73.333,134.000,1.000
18955.880,-15940.781,54452.143,79483.767,420679.818,-14906.674,26491.242,48338.353,-0.074,0.961,-0.240,1.892,3.723,-1.312,73.333,135.000,1.000
18714.031,-16938.538,53619.129,78562.977,415048.632,-14674.934,26815.522,48460.082,-0.075,0.961,-0.240,2.197,3.754,-1.404,73.333,136.000,1.000
18506.719,-17907.081,52787.871,77636.041,409443.331,-14442.789,27123.186,48585.524,-0.078,0.963,-0.244,2.380,3.754,-1.648,73.333,137.000,1.000
18326.464,-18827.155,51964.798,76701.194,403848.696,-14221.341,27419.603,48735.300,-0.080,0.961,-0.243,2.625,3.693,-1.770,73.333,138.000,1.000
18153.050,-19701.947,51155.898,75775.131,398266.040,-14010.250,27711.699,48901.816,-0.083,0.960,-0.244,3.082,3.632,-2.106,73.333,139.000,1.000
17977.507,-20553.217,50358.219,74868.743,392715.507,-13795.158,27999.422,49056.157,-0.085,0.960,-0.246,3.235,3.571,-2.167,73.333,140.000,1.000
17802.212,-21402.332,49562.283,73975.352,387212.574,-13562.424,28284.646,49179.463,-0.086,0.961,-0.246,3.540,3.479,-2.289,73.333,141.000,1.000
17636.612,-22244.330,48764.419,73082.984,381745.755,-13315.951,28573.044,49287.735,-0.089,0.959,-0.247,3.723,3.448,-2.380,73.333,142.000,1.000
17494.828,-23046.302,47972.665,72189.692,376288.184,-13074.398,28861.002,49416.218,-0.091,0.957,-0.248,3.937,3.387,-2.441,73.333,143.000,1.000
17382.631,-23784.996,47196.484,71302.558,370832.597,-12849.025,29133.127,49574.799,-0.092,0.952,-0.250,4.028,3.296,-2.625,73.333,144.000,1.000
17280.971,-24483.823,46432.962,70426.307,365402.989,-12629.894,29382.669,49729.404,-0.093,0.952,-0.250,4.303,3.143,-2.747,73.333,145.000,1.000
17155.604,-25195.024,45669.006,69558.373,360023.306,-12400.817,29625.531,49840.159,-0.093,0.951,-0.252,4.578,3.021,-2.655,73.333,146.000,1.000
16996.382,-25937.216,44898.193,68693.978,354683.312,-12163.865,29881.060,49913.152,-0.094,0.949,-0.258,4.761,3.082,-2.686,73.333,147.000,1.000
16834.105,-26669.817,44129.584,67831.359,349349.818,-11939.573,30142.966,49995.694,-0.094,0.951,-0.257,4.944,2.869,-2.777,73.333,148.000,1.000
16701.966,-27346.503,43375.467,66971.282,344010.889,-11740.274,30385.037,50115.266,-0.095,0.950,-0.260,5.188,2.869,-2.686,73.333,149.000,1.000
16587.690,-27981.183,42634.236,66115.034,338693.157,-11551.727,30599.158,50241.944,-0.093,0.952,-0.255,5.188,2.838,-2.502,73.333,150.000,1.000
16444.924,-28635.135,41892.260,65264.496,333426.653,-11349.919,30811.768,50328.052,-0.094,0.953,-0.260,5.341,2.838,-2.380,73.333,151.000,1.000
16256.260,-29336.516,41142.583,64421.430,328203.669,-11132.636,31049.634,50373.916,-0.095,0.955,-0.259,5.402,2.899,-2.319,73.333,152.000,1.000
16059.915,-30041.980,40394.526,63584.444,322988.258,-10924.075,31299.801,50428.954,-0.096,0.956,-0.257,5.463,2.777,-2.106,73.333,153.000,1.000
15898.339,-30696.144,39660.711,62748.825,317764.627,-10744.323,31523.328,50524.411,-0.096,0.954,-0.260,5.493,2.777,-1.862,73.333,154.000,1.000
15756.947,-31309.601,38939.354,61912.052,312558.511,-10583.782,31707.417,50628.595,-0.097,0.954,-0.260,5.615,2.533,-1.678,73.333,155.000,1.000
15579.401,-31947.643,38216.342,61078.024,307401.814,-10417.638,31883.400,50687.191,-0.096,0.954,-0.259,5.737,2.319,-1.373,73.333,156.000,1.000
15344.566,-32641.195,37484.355,60252.548,302288.805,-10240.120,32084.183,50696.335,-0.095,0.959,-0.267,5.707,2.411,-1.190,73.333,157.000,1.000
15097.955,-33342.932,36752.696,59434.883,297183.952,-10072.038,32299.369,50708.859,-0.094,0.964,-0.275,5.371,2.716,-1.007,73.333,158.000,1.000
14890.885,-33991.352,36034.368,58617.634,292070.448,-9931.361,32490.814,50764.012,-0.097,0.966,-0.272,5.096,3.021,-0.732,73.333,159.000,1.000
14709.454,-34596.291,35328.249,57796.545,286972.648,-9807.383,32647.438,50835.808,-0.095,0.967,-0.274,4.822,3.052,-0.488,73.333,160.000,1.000
14491.512,-35228.706,34620.796,56976.994,281922.154,-9674.300,32802.382,50869.984,-0.094,0.968,-0.279,4.486,3.174,-0.366,73.333,161.000,1.000
14211.737,-35926.520,33904.781,56167.344,276914.874,-9524.880,32987.701,50858.698,-0.094,0.970,-0.279,4.242,3.296,-0.153,73.333,162.000,1.000
13916.585,-36645.635,33189.129,55367.467,271917.607,-9378.980,33189.235,50850.470,-0.097,0.972,-0.282,3.937,3.296,-0.031,73.333,163.000,1.000
13660.692,-37321.980,32486.563,54568.494,266913.861,-9256.280,33364.840,50882.921,-0.094,0.973,-0.284,3.510,3.448,0.214,73.333,164.000,1.000
13433.079,-37957.875,31796.333,53764.869,261925.576,-9150.704,33501.524,50931.564,-0.093,0.974,-0.285,3.235,3.601,0.458,73.333,165.000,1.000
13173.558,-38615.910,31105.491,52962.119,256981.959,-9040.779,33632.798,50944.063,-0.091,0.975,-0.277,2.930,3.662,0.702,73.333,166.000,1.000
12857.110,-39330.508,30406.394,52169.130,252079.423,-8919.887,33792.397,50911.743,-0.090,0.977,-0.283,2.563,3.784,0.977,73.333,167.000,1.000
12528.826,-40060.129,29706.366,51385.426,247187.236,-8804.634,33968.577,50880.535,-0.092,0.976,-0.283,2.228,3.906,1.343,73.333,168.000,1.000
12243.070,-40743.808,29017.049,50601.439,242289.740,-8710.288,34121.767,50888.546,-0.090,0.976,-0.288,1.801,3.998,1.465,73.333,169.000,1.000
11991.981,-41382.409,28338.723,49811.744,237406.769,-8628.039,34239.926,50916.455,-0.091,0.976,-0.287,1.434,4.211,1.648,73.333,170.000,1.000
11719.547,-42034.482,27660.761,49022.859,232565.629,-8535.761,34354.926,50916.650,-0.091,0.976,-0.289,1.190,4.425,1.801,73.333,171.000,1.000
11401.009,-42733.961,26976.770,48244.682,227764.520,-8426.499,34498.603,50878.925,-0.090,0.976,-0.288,0.854,4.547,1.953,73.333,172.000,1.000
11076.376,-43444.272,26293.178,47477.159,222976.715,-8316.545,34659.686,50842.503,-0.090,0.977,-0.289,0.549,4.486,2.045,73.333,173.000,1.000
10794.280,-44109.347,25619.928,46710.434,218187.548,-8223.357,34800.072,50840.803,-0.088,0.975,-0.288,0.153,4.669,2.228,73.333,174.000,1.000
10546.226,-44728.404,24956.794,45938.251,213412.949,-8143.648,34906.544,50856.585,-0.085,0.974,-0.286,-0.214,4.822,2.350,73.333,175.000,1.000
10279.897,-45353.520,24294.057,45166.211,208676.017,-8060.188,35006.827,50847.078,-0.086,0.974,-0.286,-0.488,5.005,2.441,73.333,176.000,1.000
9971.310,-46016.874,23625.777,44403.650,203975.512,-7965.819,35130.125,50801.923,-0.083,0.972,-0.285,-0.702,5.219,2.533,73.333,177.000,1.000
9654.437,-46690.121,22957.143,43650.529,199288.754,-7872.201,35268.330,50754.831,-0.081,0.972,-0.282,-0.946,5.432,2.655,73.333,178.000,1.000
9371.872,-47327.252,22296.664,42897.553,194602.990,-7792.229,35390.319,50736.862,-0.080,0.970,-0.285,-1.129,5.585,2.594,73.333,179.000,1.000
9119.273,-47926.102,21644.706,42139.105,189931.656,-7720.714,35486.555,50737.217,-0.081,0.969,-0.285,-1.282,5.707,2.594,73.333,180.000,1.000
8858.880,-48523.844,20993.904,41381.031,185294.990,-7639.123,35581.775,50722.920,-0.080,0.969,-0.286,-1.434,5.859,2.594,73.333,181.000,1.000
8581.214,-49135.228,20340.076,40632.924,180693.324,-7536.269,35700.537,50687.111,-0.080,0.969,-0.285,-1.648,5.981,2.655,73.333,182.000,1.000
8323.271,-49725.254,19688.062,39895.583,176108.640,-7419.756,35833.658,50657.363,-0.080,0.968,-0.286,-1.831,6.073,2.594,73.333,183.000,1.000
8115.102,-50258.361,19044.828,39160.517,171529.879,-7307.067,35950.342,50654.150,-0.079,0.965,-0.285,-1.862,6.134,2.563,73.333,184.000,1.000
7933.125,-50752.580,18410.120,38421.809,166966.841,-7207.314,36038.749,50660.686,-0.077,0.962,-0.281,-1.953,6.195,2.594,73.333,185.000,1.000
7728.843,-51258.494,17777.379,37683.916,162435.453,-7113.547,36119.762,50646.051,-0.077,0.958,-0.278,-1.953,6.256,2.472,73.333,186.000,1.000
7494.749,-51790.052,17142.790,36955.058,157936.176,-7012.489,36217.091,50607.136,-0.077,0.955,-0.275,-1.892,6.439,2.502,73.333,187.000,1.000
7274.165,-52304.315,16509.746,36235.721,153454.450,-6899.364,36326.632,50571.305,-0.078,0.952,-0.273,-1.923,6.470,2.380,73.333,188.000,1.000
7101.835,-52758.429,15883.235,35517.989,148980.605,-6780.994,36425.343,50558.394,-0.078,0.949,-0.276,-1.770,6.439,2.289,73.333,189.000,1.000
6958.027,-53165.244,15262.608,34796.112,144521.464,-6665.688,36504.084,50555.213,-0.078,0.951,-0.275,-1.556,6.470,2.106,73.333,190.000,1.000
6795.384,-53575.154,14642.568,34073.620,140089.391,-6554.417,36578.813,50535.170,-0.079,0.951,-0.276,-1.312,6.500,1.984,73.333,191.000,1.000
6599.308,-54012.715,14020.404,33357.792,135685.436,-6443.279,36666.993,50493.487,-0.078,0.952,-0.278,-1.068,6.500,1.831,73.333,192.000,1.000
6401.229,-54452.263,13399.429,32649.767,131299.222,-6331.208,36763.626,50450.794,-0.078,0.952,-0.272,-0.977,6.409,1.709,73.333,193.000,1.000
6233.146,-54857.979,12784.416,31943.757,126923.906,-6221.263,36849.059,50423.720,-0.076,0.948,-0.270,-0.977,6.409,1.526,73.333,194.000,1.000
6087.850,-55229.781,12175.524,31235.519,122564.877,-6115.068,36915.351,50403.694,-0.078,0.944,-0.268,-0.885,6.409,1.404,73.333,195.000,1.000
5933.108,-55597.755,11568.540,30527.888,118231.344,-6010.162,36974.702,50370.170,-0.079,0.941,-0.267,-0.671,6.317,1.312,73.333,196.000,1.000
5755.757,-55979.395,10960.540,29826.289,113923.730,-5903.935,37041.214,50318.034,-0.080,0.938,-0.265,-0.458,6.256,1.160,73.333,197.000,1.000
5575.802,-56358.803,10353.269,29131.176,109633.901,-5797.548,37113.249,50263.143,-0.081,0.939,-0.268,-0.122,6.104,0.977,73.333,198.000,1.000
5416.787,-56711.241,9750.312,28437.823,105356.567,-5693.728,37179.039,50221.105,-0.081,0.940,-0.271,0.214,6.104,0.854,73.333,199.000,1.000
5276.023,-57035.778,9152.437,27743.137,101095.773,-5592.000,37234.732,50188.606,-0.084,0.943,-0.271,0.458,6.042,0.793,73.333,200.000,1.000
5131.235,-57354.352,8557.187,27049.756,96858.621,-5488.982,37289.170,50150.038,-0.083,0.945,-0.271,0.793,5.951,0.763,73.333,201.000,1.000
4970.736,-57683.062,7962.488,26362.080,92645.790,-5383.443,37350.417,50097.812,-0.088,0.947,-0.270,0.916,5.798,0.702,73.333,202.000,1.000
4805.488,-58015.165,7369.025,25680.087,88451.305,-5278.842,37414.286,50039.565,-0.090,0.949,-0.271,1.099,5.585,0.763,73.333,203.000,1.000
4651.036,-58334.114,6778.680,24999.472,84270.737,-5179.442,37470.386,49985.784,-0.089,0.951,-0.270,1.251,5.432,0.732,73.333,204.000,1.000
4506.671,-58635.590,6191.817,24317.563,80106.396,-5085.446,37515.694,49936.151,-0.090,0.954,-0.271,1.495,5.096,0.854,73.333,205.000,1.000
4357.224,-58931.090,5607.019,23636.657,75963.367,-4994.144,37556.720,49881.314,-0.091,0.958,-0.270,1.495,4.852,0.885,73.333,206.000,1.000
4193.122,-59231.607,5023.224,22960.639,71842.791,-4904.549,37599.379,49815.803,-0.091,0.958,-0.270,1.587,4.486,0.916,73.333,207.000,1.000
4021.156,-59534.454,4441.166,22289.932,67741.201,-4818.554,37641.689,49744.607,-0.096,0.957,-0.267,1.465,4.242,0.916,73.333,208.000,1.000
3854.475,-59828.426,3862.290,21621.419,63655.596,-4737.281,37677.958,49675.934,-0.097,0.958,-0.267,1.373,3.937,0.916,73.333,209.000,1.000
3697.639,-60107.833,3286.880,20952.869,59586.951,-4658.231,37707.364,49611.226,-0.098,0.958,-0.266,1.373,3.571,0.854,73.333,210.000,1.000
3543.802,-60378.360,2713.775,20285.562,55538.067,-4578.045,37734.986,49544.774,-0.099,0.958,-0.267,1.404,3.174,0.641,73.333,211.000,1.000
3385.392,-60649.390,2141.798,19621.954,51509.555,-4497.072,37764.662,49471.538,-0.100,0.959,-0.269,1.373,2.747,0.580,73.333,212.000,1.000
3223.137,-60923.368,1571.003,18962.196,47499.393,-4419.012,37794.396,49392.797,-0.101,0.954,-0.271,1.373,2.350,0.427,73.333,213.000,1.000
3063.865,-61193.914,1002.378,18304.258,43505.902,-4345.839,37820.289,49313.685,-0.103,0.955,-0.269,1.434,1.831,0.366,73.333,214.000,1.000
2912.305,-61452.869,436.714,17647.055,39529.809,-4274.869,37842.552,49237.016,-0.101,0.959,-0.268,1.526,1.495,0.244,73.333,215.000,1.000
2766.178,-61698.242,-125.955,16992.033,35573.096,-4202.193,37865.072,49160.788,-0.100,0.963,-0.269,1.587,1.007,0.214,73.333,216.000,1.000
2620.285,-61934.468,-685.975,16341.245,31636.657,-4127.455,37889.932,49081.458,-0.099,0.966,-0.271,1.526,0.641,0.214,73.333,217.000,1.000
2473.488,-62165.343,-1243.526,15694.781,27719.655,-4053.263,37915.156,48998.850,-0.099,0.968,-0.270,1.404,0.275,0.336,73.333,218.000,1.000
2330.647,-62388.077,-1798.415,15051.009,23820.883,-3980.437,37938.059,48916.989,-0.097,0.967,-0.269,1.221,-0.061,0.488,73.333,219.000,1.000
2198.023,-62595.377,-2350.236,14408.992,19940.119,-3906.024,37958.660,48839.980,-0.092,0.963,-0.270,0.916,-0.336,0.580,73.333,220.000,1.000
2076.014,-62784.054,-2898.873,13769.508,16077.953,-3827.261,37978.456,48767.387,-0.089,0.958,-0.266,0.793,-0.549,0.702,73.333,221.000,1.000
1957.813,-62960.249,-3444.918,13133.477,12234.681,-3746.070,37997.102,48694.253,-0.089,0.962,-0.264,0.885,-0.732,0.793,73.333,222.000,1.000
1835.357,-63134.535,-3989.324,12500.396,8409.802,-3667.671,38012.324,48615.929,-0.091,0.959,-0.264,0.824,-0.946,0.824,73.333,223.000,1.000
1706.593,-63311.651,-4532.497,11868.958,4602.489,-3594.780,38022.929,48532.346,-0.087,0.957,-0.264,0.824,-1.099,0.916,73.333,224.000,1.000
1576.138,-63486.906,-5073.932,11238.722,812.232,-3524.931,38030.234,48446.997,-0.084,0.958,-0.266,0.854,-1.221,1.007,73.333,225.000,1.000
1447.898,-63654.090,-5612.885,10610.485,-2960.820,-3454.200,38036.150,48362.117,-0.082,0.957,-0.267,0.885,-1.282,1.068,73.333,226.000,1.000
1320.943,-63813.349,-6149.125,9985.242,-6715.831,-3381.175,38041.348,48276.643,-0.082,0.956,-0.264,1.068,-1.343,1.068,73.333,227.000,1.000
1194.581,-63967.463,-6682.755,9363.404,-10451.675,-3305.473,38046.294,48190.074,-0.081,0.958,-0.265,1.129,-1.404,1.190,73.333,228.000,1.000
1076.052,-64111.251,-7213.487,8745.052,-14167.781,-3223.862,38052.790,48106.647,-0.079,0.961,-0.267,1.038,-1.343,1.190,73.333,229.000,1.000
979.921,-64228.923,-7740.475,8130.444,-17864.574,-3130.543,38063.141,48033.482,-0.079,0.964,-0.268,1.007,-1.343,1.312,73.333,230.000,1.000
917.078,-64305.093,-8262.962,7519.980,-21542.682,-3022.067,38077.745,47974.095,-0.078,0.966,-0.266,0.916,-1.251,1.343,73.333,231.000,1.000
886.099,-64337.351,-8781.027,6913.792,-25201.856,-2900.752,38093.980,47924.373,-0.079,0.966,-0.267,0.885,-1.160,1.434,73.333,232.000,1.000
875.567,-64336.508,-9295.585,6311.511,-28841.307,-2772.790,38107.958,47875.719,-0.079,0.968,-0.266,0.763,-1.068,1.495,73.333,233.000,1.000
873.954,-64315.299,-9807.552,5712.523,-32461.143,-2643.641,38116.973,47821.905,-0.078,0.969,-0.265,0.641,-1.129,1.526,73.333,234.000,1.000
875.790,-64279.645,-10317.171,5116.267,-36062.909,-2515.938,38119.812,47761.891,-0.077,0.968,-0.263,0.458,-1.007,1.495,73.333,235.000,1.000
876.935,-64232.942,-10824.471,4522.102,-39648.402,-2391.812,38115.599,47696.042,-0.076,0.964,-0.263,0.488,-0.946,1.434,73.333,236.000,1.000
868.249,-64185.040,-11330.195,3929.144,-43218.194,-2275.239,38104.045,47621.961,-0.077,0.963,-0.265,0.610,-0.854,1.343,73.333,237.000,1.000
837.755,-64151.442,-11835.640,3336.690,-46771.636,-2170.445,38086.977,47536.199,-0.076,0.961,-0.266,0.671,-0.824,1.282,73.333,238.000,1.000
779.627,-64142.321,-12341.421,2744.774,-50308.275,-2078.532,38067.791,47439.044,-0.077,0.960,-0.266,0.671,-0.702,1.129,73.333,239.000,1.000
698.473,-64155.462,-12846.810,2153.980,-53828.764,-1997.146,38048.343,47335.080,-0.077,0.960,-0.260,0.671,-0.580,0.916,73.333,240.000,1.000
601.668,-64183.182,-13350.585,1564.697,-57333.980,-1924.012,38027.229,47227.993,-0.077,0.961,-0.262,0.702,-0.488,0.946,73.333,241.000,1.000
489.526,-64224.774,-13852.472,976.697,-60823.731,-1859.995,38001.713,47116.046,-0.076,0.960,-0.262,0.732,-0.366,0.916,73.333,242.000,1.000
355.044,-64288.672,-14353.476,389.453,-64297.071,-1807.927,37970.929,46994.342,-0.076,0.958,-0.260,0.793,-0.244,0.854,73.333,243.000,1.000
193.552,-64381.443,-14854.534,-197.130,-67753.669,-1768.594,37936.636,46861.385,-0.076,0.956,-0.258,0.885,-0.275,0.793,73.333,244.000,1.000
9.458,-64498.743,-15355.172,-782.493,-71194.200,-1739.259,37901.010,46721.515,-0.075,0.955,-0.260,0.946,-0.153,0.763,73.333,245.000,1.000
-189.797,-64631.293,-15854.029,-1366.070,-74619.282,-1716.885,37864.627,46580.158,-0.074,0.956,-0.261,1.038,0.031,0.671,73.333,246.000,1.000
-402.409,-64776.656,-16350.404,-1947.754,-78028.318,-1701.044,37827.236,46438.603,-0.075,0.958,-0.262,1.129,0.244,0.519,73.333,247.000,1.000
-631.926,-64940.787,-16844.776,-2527.572,-81419.910,-1692.825,37789.407,46294.551,-0.074,0.961,-0.261,1.221,0.336,0.427,73.333,248.000,1.000
-879.469,-65128.707,-17337.978,-3105.435,-84793.643,-1692.351,37751.611,46146.176,-0.076,0.965,-0.262,1.282,0.366,0.366,73.333,249.000,1.000
-1139.250,-65337.288,-17830.193,-3681.382,-88150.836,-1698.262,37712.129,45994.199,-0.074,0.967,-0.264,1.190,0.488,0.397,73.333,250.000,1.000
-1404.084,-65559.329,-18320.874,-4255.721,-91492.960,-1709.143,37667.820,45840.169,-0.072,0.968,-0.261,1.129,0.580,0.580,73.333,251.000,1.000
-1672.108,-65791.799,-18809.509,-4828.651,-94819.736,-1724.159,37617.895,45684.301,-0.069,0.967,-0.262,0.977,0.671,0.580,73.333,252.000,1.000
-1945.890,-66036.521,-19296.091,-5399.778,-98129.414,-1741.895,37566.504,45526.715,-0.068,0.967,-0.264,0.946,0.854,0.519,73.333,253.000,1.000
-2225.416,-66292.880,-19780.685,-5968.199,-101420.817,-1759.516,37520.031,45370.279,-0.070,0.969,-0.264,0.824,0.885,0.519,73.333,254.000,1.000
-2504.719,-66553.462,-20262.869,-6533.227,-104694.496,-1774.209,37481.050,45219.789,-0.073,0.970,-0.262,0.671,0.977,0.549,73.333,255.000,1.000
-2778.017,-66810.030,-20742.075,-7095.063,-107951.729,-1785.822,37445.871,45077.049,-0.077,0.970,-0.260,0.641,1.068,0.519,73.333,256.000,1.000
-3046.041,-67061.805,-21218.440,-7654.595,-111192.906,-1797.082,37408.656,44938.129,-0.080,0.970,-0.258,0.549,1.068,0.549,73.333,257.000,1.000
-3314.276,-67314.918,-21692.859,-8212.464,-114417.362,-1810.665,37366.975,44796.923,-0.080,0.973,-0.257,0.458,1.129,0.580,73.333,258.000,1.000
-3585.330,-67573.685,-22166.011,-8768.490,-117624.593,-1826.439,37322.606,44650.980,-0.083,0.977,-0.259,0.305,1.068,0.397,73.333,259.000,1.000
-3854.714,-67834.493,-22637.539,-9322.063,-120815.011,-1841.744,37278.241,44503.252,-0.083,0.980,-0.263,0.061,0.824,0.244,73.333,260.000,1.000
-4115.955,-68089.977,-23106.354,-9872.801,-123989.148,-1854.040,37234.996,44358.421,-0.086,0.985,-0.260,-0.122,0.641,0.183,73.333,261.000,1.000
-4367.506,-68337.350,-23571.654,-10420.594,-127146.530,-1862.825,37192.687,44218.184,-0.088,0.985,-0.261,-0.488,0.580,-0.061,73.333,262.000,1.000
-4613.744,-68580.544,-24033.572,-10965.282,-130286.036,-1869.437,37151.023,44080.470,-0.092,0.982,-0.261,-0.824,0.458,-0.275,73.333,263.000,1.000
-4859.724,-68824.574,-24492.917,-11506.780,-133407.460,-1875.775,37109.440,43942.567,-0.091,0.976,-0.260,-1.129,0.183,-0.427,73.333,264.000,1.000
-5106.231,-69069.817,-24950.431,-12045.510,-136512.157,-1883.391,37066.203,43803.757,-0.092,0.966,-0.254,-1.312,-0.244,-0.580,73.333,265.000,1.000
-5351.545,-69313.320,-25406.335,-12582.319,-139601.695,-1893.384,37018.949,43664.509,-0.091,0.962,-0.254,-1.221,-0.519,-0.610,73.333,266.000,1.000
-5595.607,-69554.197,-25860.489,-13117.764,-142676.202,-1906.281,36966.564,43524.153,-0.091,0.957,-0.250,-1.221,-0.641,-0.580,73.333,267.000,1.000
-5840.930,-69795.697,-26312.810,-13651.642,-145734.539,-1921.658,36910.554,43380.945,-0.091,0.955,-0.250,-1.007,-1.038,-0.519,73.333,268.000,1.000
-6088.666,-70040.981,-26763.262,-14183.248,-148775.846,-1937.734,36854.497,43234.933,-0.090,0.954,-0.247,-0.671,-1.282,-0.549,73.333,269.000,1.000
-6335.201,-70288.386,-27211.533,-14711.997,-151800.378,-1952.004,36801.020,43088.817,-0.091,0.953,-0.248,-0.519,-1.587,-0.732,73.333,270.000,1.000
-6575.664,-70533.202,-27657.103,-15237.825,-154808.808,-1963.207,36749.067,42944.604,-0.093,0.952,-0.251,-0.488,-1.923,-0.885,73.333,271.000,1.000
-6808.735,-70772.399,-28099.670,-15760.923,-157801.102,-1971.922,36695.648,42801.227,-0.094,0.952,-0.249,-0.397,-2.228,-0.946,73.333,272.000,1.000
-7037.169,-71006.103,-28539.376,-16281.261,-160776.512,-1979.428,36639.782,42656.365,-0.095,0.951,-0.248,-0.244,-2.350,-1.099,73.333,273.000,1.000
-7264.228,-71235.058,-28976.657,-16798.677,-163734.707,-1986.917,36582.875,42509.232,-0.097,0.952,-0.250,-0.153,-2.411,-1.282,73.333,274.000,1.000
-7490.207,-71457.806,-29411.912,-17313.382,-166676.462,-1995.380,36526.079,42361.285,-0.097,0.955,-0.247,-0.061,-2.686,-1.434,73.333,275.000,1.000
-7713.785,-71671.976,-29845.366,-17826.080,-169602.969,-2005.453,36469.047,42214.668,-0.099,0.954,-0.247,0.153,-3.052,-1.465,73.333,276.000,1.000
-7934.764,-71877.744,-30277.113,-18337.364,-172514.602,-2016.934,36411.133,42070.217,-0.102,0.957,-0.248,0.336,-3.357,-1.556,73.333,277.000,1.000
-8154.804,-72078.934,-30707.136,-18847.083,-175410.672,-2028.951,36352.513,41926.876,-0.103,0.961,-0.245,0.397,-3.662,-1.648,73.333,278.000,1.000
-8375.138,-72280.124,-31135.182,-19354.435,-178290.312,-2040.638,36293.613,41782.947,-0.103,0.961,-0.246,0.610,-4.059,-1.892,73.333,279.000,1.000
-8593.969,-72482.832,-31560.681,-19858.622,-181153.233,-2051.356,36234.202,41637.879,-0.102,0.965,-0.248,0.427,-4.120,-2.045,73.333,280.000,1.000
-8808.590,-72685.991,-31983.138,-20359.510,-183999.717,-2061.078,36173.330,41492.225,-0.104,0.964,-0.249,0.275,-4.089,-2.136,73.333,281.000,1.000
-9018.552,-72888.877,-32402.644,-20857.624,-186830.132,-2070.433,36110.212,41346.273,-0.106,0.963,-0.242,0.305,-4.364,-2.075,73.333,282.000,1.000
-9225.650,-73091.517,-32819.725,-21353.434,-189644.549,-2079.697,36045.410,41199.972,-0.106,0.960,-0.237,0.702,-4.883,-1.892,73.333,283.000,1.000
-9430.975,-73292.115,-33234.704,-21846.833,-192442.816,-2088.011,35980.698,41054.116,-0.102,0.959,-0.243,1.068,-5.280,-1.801,73.333,284.000,1.000
-9632.775,-73485.492,-33647.385,-22337.411,-195224.884,-2093.998,35917.598,40910.652,-0.099,0.959,-0.250,1.282,-5.615,-1.587,73.333,285.000,1.000
-9828.603,-73665.778,-34057.363,-22825.024,-197990.867,-2097.164,35856.130,40770.947,-0.098,0.961,-0.251,1.434,-5.829,-1.404,73.333,286.000,1.000
-10017.808,-73830.260,-34464.463,-23309.836,-200740.788,-2098.215,35794.959,40633.912,-0.097,0.962,-0.249,1.556,-5.798,-1.282,73.333,287.000,1.000
-10201.916,-73980.742,-34868.884,-23791.994,-203474.550,-2098.160,35732.989,40496.712,-0.096,0.964,-0.251,1.709,-5.890,-1.221,73.333,288.000,1.000
-10382.949,-74121.910,-35271.046,-24271.582,-206192.293,-2097.503,35670.471,40357.367,-0.093,0.965,-0.249,1.862,-5.859,-1.099,73.333,289.000,1.000
-10561.427,-74258.450,-35671.360,-24748.856,-208894.609,-2096.339,35608.019,40216.050,-0.091,0.967,-0.252,1.892,-5.737,-0.946,73.333,290.000,1.000
-10736.845,-74393.310,-36070.053,-25224.269,-211582.160,-2094.846,35545.152,40074.054,-0.087,0.966,-0.253,1.892,-5.585,-0.824,73.333,291.000,1.000
-10908.419,-74527.072,-36467.035,-25698.032,-214255.031,-2093.186,35480.308,39932.153,-0.085,0.969,-0.253,1.892,-5.341,-0.763,73.333,292.000,1.000
-11075.901,-74658.561,-36861.932,-26169.775,-216912.618,-2091.300,35412.088,39789.990,-0.086,0.969,-0.256,1.923,-5.249,-0.671,73.333,293.000,1.000
-11239.755,-74785.810,-37254.223,-26638.713,-219554.138,-2088.704,35340.756,39647.055,-0.083,0.967,-0.257,1.831,-4.974,-0.458,73.333,294.000,1.000
-11400.114,-74906.325,-37643.470,-27104.225,-222179.203,-2084.345,35268.363,39503.915,-0.083,0.965,-0.255,1.923,-4.913,-0.336,73.333,295.000,1.000
-11557.046,-75017.992,-38029.643,-27566.366,-224788.025,-2077.337,35196.911,39361.731,-0.083,0.963,-0.255,2.136,-4.852,-0.275,73.333,296.000,1.000
-11710.585,-75119.884,-38413.074,-28025.651,-227381.050,-2067.482,35127.030,39221.081,-0.082,0.963,-0.258,2.258,-4.822,-0.092,73.333,297.000,1.000
-11860.914,-75212.470,-38794.045,-28482.386,-229958.472,-2055.149,35058.458,39081.654,-0.080,0.962,-0.262,2.319,-4.517,-0.214,73.333,298.000,1.000
-12009.159,-75297.839,-39172.725,-28936.593,-232520.381,-2041.593,34990.413,38942.327,-0.080,0.959,-0.264,2.319,-4.150,-0.214,73.333,299.000,1.000
-12157.185,-75379.258,-39549.464,-29388.524,-235067.232,-2029.176,34921.547,38801.663,-0.078,0.957,-0.261,2.258,-3.937,-0.244,73.333,300.000,1.000
-12306.461,-75459.559,-39924.721,-29838.728,-237599.691,-2019.975,34850.895,38659.198,-0.081,0.958,-0.259,2.350,-3.815,-0.458,73.333,301.000,1.000
-12456.234,-75539.256,-40298.585,-30287.459,-240117.959,-2013.727,34778.651,38515.997,-0.083,0.960,-0.256,2.319,-3.723,-0.488,73.333,302.000,1.000
-12604.600,-75617.199,-40670.654,-30734.366,-242621.579,-2008.325,34704.905,38373.013,-0.084,0.955,-0.260,2.655,-3.784,-0.519,73.333,303.000,1.000
-12750.921,-75692.583,-41040.406,-31178.839,-245109.916,-2002.212,34628.601,38229.635,-0.086,0.954,-0.258,2.899,-3.815,-0.702,73.333,304.000,1.000
-12895.333,-75764.962,-41407.443,-31620.386,-247582.544,-1995.037,34549.313,38085.097,-0.084,0.953,-0.260,3.143,-3.845,-0.824,73.333,305.000,1.000
-13037.633,-75833.525,-41771.539,-32058.787,-250039.317,-1986.852,34469.084,37940.325,-0.087,0.954,-0.266,3.204,-3.784,-0.977,73.333,306.000,1.000
-13176.797,-75897.000,-42132.790,-32494.193,-252480.424,-1977.949,34390.983,37797.126,-0.089,0.953,-0.266,3.326,-3.784,-1.068,73.333,307.000,1.000
-13312.182,-75954.517,-42491.703,-32927.110,-254906.430,-1969.393,34316.117,37655.918,-0.090,0.952,-0.269,3.448,-3.632,-1.221,73.333,308.000,1.000
-13444.996,-76006.772,-42848.996,-33358.186,-257318.076,-1962.818,34242.610,37514.893,-0.089,0.946,-0.264,3.448,-3.601,-1.221,73.333,309.000,1.000
-13577.691,-76056.030,-43205.204,-33787.911,-259715.923,-1959.316,34167.248,37371.506,-0.094,0.945,-0.265,3.540,-3.387,-1.343,73.333,310.000,1.000
-13712.282,-76104.606,-43560.304,-34216.320,-262100.007,-1958.468,34087.894,37224.646,-0.098,0.943,-0.262,3.662,-3.479,-1.312,73.333,311.000,1.000
-13848.151,-76152.679,-43913.607,-34642.833,-264469.715,-1958.119,34004.847,37075.601,-0.099,0.943,-0.262,3.906,-3.601,-1.343,73.333,312.000,1.000
-13982.729,-76198.374,-44264.175,-35066.559,-266824.163,-1955.704,33920.483,36927.007,-0.104,0.943,-0.262,4.181,-3.845,-1.282,73.333,313.000,1.000
-14114.549,-76240.272,-44611.486,-35486.917,-269162.817,-1950.303,33837.326,36780.591,-0.108,0.944,-0.263,4.639,-4.303,-1.221,73.333,314.000,1.000
-14244.601,-76279.038,-44955.744,-35904.017,-271485.829,-1943.416,33756.102,36635.803,-0.111,0.946,-0.268,5.035,-4.639,-1.099,73.333,315.000,1.000
-14375.281,-76316.602,-45297.607,-36318.458,-273793.834,-1937.642,33675.797,36490.778,-0.110,0.948,-0.270,5.219,-5.035,-1.007,73.333,316.000,1.000
-14507.338,-76353.663,-45637.707,-36730.878,-276087.532,-1934.362,33595.405,36344.567,-0.114,0.948,-0.275,5.341,-5.402,-0.763,73.333,317.000,1.000
-14639.705,-76389.417,-45976.607,-37141.873,-278367.625,-1933.548,33514.554,36197.543,-0.117,0.946,-0.276,5.554,-5.707,-0.641,73.333,318.000,1.000
-14771.981,-76423.423,-46314.762,-37551.911,-280634.677,-1935.127,33432.674,36049.992,-0.119,0.946,-0.275,5.646,-5.920,-0.488,73.333,319.000,1.000
-14904.520,-76455.586,-46652.005,-37960.825,-282888.532,-1938.678,33349.297,35901.952,-0.121,0.946,-0.275,5.707,-6.378,-0.305,73.333,320.000,1.000
-15037.527,-76485.398,-46987.536,-38367.835,-285128.351,-1942.895,33264.832,35753.767,-0.120,0.948,-0.275,5.951,-6.744,-0.183,73.333,321.000,1.000
-15170.370,-76512.047,-47320.624,-38772.267,-287353.430,-1946.344,33180.093,35605.844,-0.123,0.948,-0.277,6.104,-7.202,0.092,73.333,322.000,1.000
-15302.158,-76535.165,-47651.002,-39173.917,-289563.591,-1948.290,33095.656,35458.251,-0.122,0.948,-0.280,6.256,-7.660,0.244,73.333,323.000,1.000
-15432.897,-76555.559,-47978.715,-39572.848,-291758.922,-1948.817,33011.609,35310.598,-0.123,0.950,-0.280,6.409,-8.148,0.336,73.333,324.000,1.000
-15563.060,-76574.491,-48303.865,-39969.110,-293939.472,-1948.253,32927.669,35162.491,-0.119,0.951,-0.279,6.317,-8.545,0.549,73.333,325.000,1.000
-15693.207,-76592.731,-48626.609,-40362.776,-296105.349,-1947.055,32843.254,35013.775,-0.118,0.953,-0.281,6.287,-8.911,0.702,73.333,326.000,1.000
-15823.736,-76610.584,-48947.344,-40754.177,-298257.012,-1946.285,32757.239,34864.075,-0.117,0.953,-0.278,6.287,-9.186,0.885,73.333,327.000,1.000
-15955.098,-76628.347,-49266.575,-41143.809,-300395.112,-1947.375,32668.359,34712.897,-0.115,0.954,-0.282,6.165,-9.399,1.129,73.333,328.000,1.000
-16088.444,-76646.852,-49584.584,-41532.005,-302520.042,-1951.455,32575.990,34559.916,-0.111,0.953,-0.282,6.134,-9.796,1.251,73.333,329.000,1.000
-16225.364,-76667.536,-49901.324,-41918.757,-304631.741,-1958.940,32480.638,34404.952,-0.107,0.953,-0.285,6.012,-10.071,1.404,73.333,330.000,1.000
-16366.754,-76691.384,-50216.424,-42303.689,-306729.762,-1969.160,32384.171,34248.378,-0.106,0.952,-0.286,5.951,-10.284,1.556,73.333,331.000,1.000
-16511.328,-76717.762,-50529.348,-42686.248,-308813.580,-1980.456,32289.106,34091.269,-0.108,0.952,-0.284,5.981,-10.376,1.770,73.333,332.000,1.000
-16657.269,-76745.900,-50839.801,-43066.178,-310883.029,-1991.679,32197.065,33934.416,-0.104,0.953,-0.289,5.859,-10.498,1.801,73.333,333.000,1.000
-16805.104,-76777.300,-51148.017,-43443.769,-312938.440,-2003.577,32107.876,33777.368,-0.100,0.952,-0.287,5.798,-10.559,1.923,73.333,334.000,1.000
-16957.442,-76815.363,-51454.585,-43819.610,-314980.375,-2018.327,32019.588,33618.526,-0.098,0.952,-0.284,5.707,-10.620,2.045,73.333,335.000,1.000
-17117.087,-76863.204,-51760.013,-44194.156,-317009.282,-2038.070,31929.068,33455.935,-0.096,0.953,-0.287,5.554,-10.620,2.075,73.333,336.000,1.000
-17284.072,-76921.015,-52064.303,-44567.351,-319025.181,-2063.119,31833.965,33289.038,-0.094,0.952,-0.290,5.432,-10.468,2.228,73.333,337.000,1.000
-17453.716,-76983.995,-52366.787,-44938.506,-321027.500,-2090.784,31735.109,33120.580,-0.092,0.949,-0.289,5.310,-10.284,2.075,73.333,338.000,1.000
-17617.161,-77042.336,-52666.436,-45306.595,-323015.280,-2115.871,31636.362,32956.192,-0.092,0.949,-0.286,5.157,-10.071,2.228,73.333,339.000,1.000
-17763.732,-77083.679,-52962.430,-45670.814,-324987.719,-2132.397,31542.316,32801.880,-0.089,0.949,-0.289,5.066,-10.010,2.075,73.333,340.000,1.000
-17884.925,-77097.337,-53254.551,-46030.962,-326944.606,-2135.716,31456.064,32661.329,-0.087,0.949,-0.290,5.005,-9.766,2.045,73.333,341.000,1.000
-17977.704,-77078.281,-53543.165,-46387.444,-328886.391,-2124.718,31377.095,32533.649,-0.087,0.948,-0.292,4.913,-9.460,1.923,73.333,342.000,1.000
-18046.830,-77029.831,-53829.024,-46741.068,-330813.943,-2103.070,31300.670,32412.803,-0.086,0.949,-0.295,4.700,-9.094,1.831,73.333,343.000,1.000
-18103.767,-76962.724,-54112.851,-47092.580,-332728.029,-2077.478,31220.774,32290.503,-0.085,0.950,-0.293,4.761,-8.911,1.740,73.333,344.000,1.000
-18161.240,-76890.027,-54395.023,-47442.318,-334628.943,-2054.286,31133.783,32160.433,-0.087,0.950,-0.292,4.669,-8.636,1.587,73.333,345.000,1.000
-18228.235,-76821.951,-54675.794,-47790.456,-336516.820,-2037.571,31039.343,32020.382,-0.085,0.947,-0.292,4.700,-8.301,1.587,73.333,346.000,1.000
-18306.726,-76762.558,-54955.424,-48137.194,-338391.908,-2028.203,30939.609,31872.403,-0.084,0.948,-0.293,4.639,-7.874,1.434,73.333,347.000,1.000
-18392.482,-76709.668,-55233.875,-48482.508,-340254.290,-2023.875,30838.073,31721.272,-0.083,0.948,-0.293,4.700,-7.568,1.221,73.333,348.000,1.000
-18479.546,-76658.151,-55510.719,-48826.038,-342103.687,-2020.961,30737.838,31571.311,-0.087,0.950,-0.289,4.639,-7.202,1.160,73.333,349.000,1.000
-18563.868,-76603.607,-55785.475,-49167.344,-343939.703,-2016.843,30640.293,31424.027,-0.088,0.955,-0.285,4.791,-6.927,1.007,73.333,350.000,1.000
-18644.733,-76544.294,-56057.924,-49506.175,-345762.137,-2011.067,30544.911,31278.322,-0.091,0.956,-0.289,4.852,-6.744,0.885,73.333,351.000,1.000
-18723.077,-76480.344,-56328.038,-49842.467,-347571.008,-2004.432,30450.366,31132.690,-0.094,0.959,-0.289,4.852,-6.500,0.732,73.333,352.000,1.000
-18799.969,-76412.502,-56595.889,-50176.310,-349366.467,-1997.652,30355.853,30986.911,-0.095,0.961,-0.290,4.822,-6.317,0.732,73.333,353.000,1.000
-18876.899,-76341.980,-56861.709,-50507.980,-351148.770,-1991.237,30261.096,30841.601,-0.095,0.959,-0.291,4.822,-6.256,0.641,73.333,354.000,1.000
-18955.751,-76270.243,-57125.809,-50837.793,-352918.172,-1985.792,30165.588,30696.924,-0.094,0.956,-0.288,4.791,-6.256,0.580,73.333,355.000,1.000
-19038.643,-76198.866,-57388.397,-51165.914,-354674.812,-1982.078,30068.334,30551.873,-0.095,0.956,-0.284,4.730,-6.042,0.275,73.333,356.000,1.000
-19126.013,-76128.427,-57649.390,-51492.222,-356418.608,-1980.149,29968.946,30405.214,-0.095,0.953,-0.283,4.822,-5.981,0.122,73.333,357.000,1.000
-19215.519,-76057.511,-57908.448,-51816.386,-358149.302,-1978.847,29868.658,30256.925,-0.093,0.952,-0.284,4.852,-5.798,0.031,73.333,358.000,1.000
-19304.479,-75984.712,-58165.466,-52138.341,-359866.886,-1977.374,29768.945,30107.521,-0.094,0.952,-0.287,4.913,-5.646,0.031,73.333,359.000,1.000
-19392.217,-75911.008,-58420.802,-52458.479,-361571.773,-1976.351,29670.050,29957.099,-0.092,0.951,-0.283,4.944,-5.554,-0.061,73.333,360.000,1.000
-19479.776,-75839.002,-58674.704,-52777.038,-363264.226,-1976.543,29571.785,29806.239,-0.095,0.952,-0.285,5.066,-5.402,-0.153,73.333,361.000,1.000
-19567.684,-75770.280,-58926.841,-53093.658,-364943.939,-1977.679,29474.306,29656.465,-0.095,0.951,-0.288,5.188,-5.280,-0.275,73.333,362.000,1.000
-19655.537,-75704.575,-59176.744,-53407.858,-366610.509,-1979.234,29377.343,29508.697,-0.098,0.952,-0.287,5.280,-5.096,-0.305,73.333,363.000,1.000
-19743.005,-75640.535,-59424.444,-53719.684,-368264.023,-1981.501,29279.489,29361.838,-0.096,0.955,-0.289,5.219,-5.066,-0.397,73.333,364.000,1.000
-19829.705,-75575.919,-59670.372,-54029.594,-369904.918,-1985.064,29179.293,29213.916,-0.094,0.958,-0.289,5.280,-4.913,-0.397,73.333,365.000,1.000
-19914.983,-75507.730,-59914.727,-54337.797,-371533.378,-1989.485,29077.245,29064.557,-0.094,0.960,-0.287,5.188,-4.700,-0.458,73.333,366.000,1.000
-19997.481,-75432.848,-60157.190,-54643.950,-373149.100,-1992.971,28975.858,28915.513,-0.097,0.960,-0.288,5.035,-4.578,-0.458,73.333,367.000,1.000
-20075.896,-75349.414,-60397.289,-54947.552,-374751.676,-1993.725,28877.437,28768.804,-0.101,0.962,-0.288,4.913,-4.364,-0.519,73.333,368.000,1.000
-20149.957,-75257.713,-60634.803,-55248.378,-376340.953,-1991.182,28782.362,28625.230,-0.101,0.963,-0.286,4.669,-4.272,-0.580,73.333,369.000,1.000
-20220.402,-75159.915,-60869.872,-55546.578,-377917.096,-1986.219,28689.142,28484.083,-0.102,0.963,-0.287,4.486,-4.242,-0.549,73.333,370.000,1.000
-20289.667,-75059.977,-61103.014,-55842.678,-379480.609,-1981.263,28595.041,28342.975,-0.104,0.964,-0.287,4.272,-4.150,-0.549,73.333,371.000,1.000
-20360.539,-74962.037,-61334.822,-56137.270,-381032.083,-1979.004,28497.422,28199.071,-0.104,0.965,-0.284,4.150,-3.998,-0.488,73.333,372.000,1.000
-20433.439,-74867.370,-61565.355,-56430.410,-382571.641,-1979.851,28395.703,28051.835,-0.104,0.964,-0.288,3.906,-4.059,-0.610,73.333,373.000,1.000
-20506.007,-74773.501,-61794.041,-56721.540,-384098.815,-1981.445,28291.486,27903.525,-0.102,0.965,-0.285,3.662,-4.028,-0.580,73.333,374.000,1.000
-20575.581,-74676.851,-62020.412,-57010.185,-385613.200,-1981.146,28186.855,27756.662,-0.103,0.964,-0.289,3.448,-3.937,-0.702,73.333,375.000,1.000
-20642.039,-74575.909,-62244.600,-57296.452,-387114.901,-1978.177,28083.417,27612.305,-0.101,0.961,-0.287,3.235,-3.845,-0.732,73.333,376.000,1.000
-20706.853,-74471.016,-62466.977,-57580.693,-388604.234,-1973.063,27982.241,27470.522,-0.100,0.958,-0.288,3.143,-3.723,-0.824,73.333,377.000,1.000
-20771.488,-74363.065,-62687.746,-57863.130,-390081.411,-1966.718,27883.373,27330.697,-0.100,0.956,-0.289,3.113,-3.540,-0.793,73.333,378.000,1.000
-20837.289,-74253.536,-62906.999,-58143.908,-391546.609,-1960.498,27785.595,27191.190,-0.099,0.954,-0.292,2.991,-3.418,-0.763,73.333,379.000,1.000
-20905.066,-74144.331,-63124.855,-58423.188,-393000.040,-1955.828,27687.320,27049.911,-0.097,0.953,-0.295,2.930,-3.265,-0.610,73.333,380.000,1.000
-20975.233,-74037.166,-63341.495,-58701.140,-394441.936,-1953.659,27587.422,26905.437,-0.093,0.950,-0.291,2.869,-3.052,-0.488,73.333,381.000,1.000
-21047.367,-73932.442,-63557.061,-58977.873,-395872.454,-1954.239,27485.125,26757.534,-0.091,0.949,-0.291,2.838,-2.899,-0.580,73.333,382.000,1.000
-21119.586,-73828.307,-63771.406,-59253.212,-397291.441,-1956.757,27380.141,26607.411,-0.092,0.948,-0.288,2.838,-2.594,-0.641,73.333,383.000,1.000
-21188.159,-73720.504,-63983.794,-59526.403,-398698.162,-1958.603,27273.591,26457.971,-0.091,0.953,-0.289,2.808,-2.228,-0.641,73.333,384.000,1.000
-21248.297,-73603.641,-64192.987,-59796.189,-400091.425,-1955.879,27167.974,26312.924,-0.090,0.954,-0.286,2.686,-1.892,-0.610,73.333,385.000,1.000
-21297.977,-73474.748,-64398.120,-60061.694,-401470.447,-1946.478,27065.187,26174.062,-0.090,0.955,-0.288,2.655,-1.740,-0.427,73.333,386.000,1.000
-21340.234,-73335.786,-64599.655,-60323.390,-402835.758,-1932.449,26964.944,26039.404,-0.091,0.956,-0.292,2.441,-1.526,-0.183,73.333,387.000,1.000
-21381.421,-73192.500,-64799.211,-60582.926,-404188.986,-1918.494,26865.875,25904.743,-0.092,0.956,-0.291,2.197,-1.221,-0.061,73.333,388.000,1.000
-21426.951,-73050.601,-64998.307,-60841.857,-405531.622,-1908.273,26767.310,25766.840,-0.089,0.956,-0.290,2.106,-1.007,0.122,73.333,389.000,1.000
-21477.718,-72912.130,-65197.308,-61100.566,-406864.009,-1902.164,26669.210,25625.181,-0.088,0.951,-0.288,1.831,-0.732,0.305,73.333,390.000,1.000
-21530.876,-72775.238,-65395.395,-61358.245,-408185.357,-1897.910,26571.221,25481.449,-0.090,0.950,-0.285,1.678,-0.427,0.214,73.333,391.000,1.000
-21582.687,-72636.626,-65591.322,-61613.642,-409494.497,-1892.767,26472.437,25337.747,-0.092,0.950,-0.286,1.495,-0.244,0.336,73.333,392.000,1.000
-21631.363,-72494.583,-65784.395,-61866.023,-410790.804,-1885.685,26371.785,25195.035,-0.091,0.951,-0.290,1.373,-0.061,0.366,73.333,393.000,1.000
-21677.917,-72350.406,-65974.943,-62115.672,-412074.632,-1877.954,26268.579,25052.829,-0.089,0.950,-0.287,1.312,0.275,0.305,73.333,394.000,1.000
-21723.956,-72206.466,-66163.832,-62363.453,-413346.864,-1871.559,26163.220,24910.320,-0.093,0.951,-0.284,1.099,0.305,0.305,73.333,395.000,1.000
-21769.982,-72063.469,-66351.623,-62609.953,-414608.095,-1867.159,26057.572,24767.679,-0.094,0.948,-0.282,0.946,0.397,0.183,73.333,396.000,1.000
-21815.346,-71919.989,-66538.354,-62855.214,-415858.407,-1863.887,25953.817,24625.903,-0.094,0.945,-0.281,0.702,0.458,0.122,73.333,397.000,1.000
-21859.507,-71774.124,-66723.844,-63099.046,-417097.673,-1860.609,25852.569,24485.593,-0.093,0.943,-0.281,0.549,0.519,0.183,73.333,398.000,1.000
-21902.109,-71624.347,-66907.695,-63341.062,-418325.532,-1856.324,25752.629,24346.622,-0.090,0.941,-0.281,0.580,0.610,0.275,73.333,399.000,1.000
-21942.322,-71469.692,-67089.268,-63580.640,-419541.348,-1850.171,25652.294,24208.422,-0.090,0.942,-0.282,0.519,0.793,0.397,73.333,400.000,1.000
-21980.643,-71311.408,-67268.246,-63817.482,-420744.802,-1842.588,25550.171,24069.727,-0.092,0.944,-0.286,0.580,0.946,0.671,73.333,401.000,1.000
-22019.112,-71152.834,-67444.986,-64051.957,-421936.261,-1835.196,25445.568,23929.208,-0.092,0.947,-0.289,0.336,0.977,0.793,73.333,402.000,1.000
-22059.248,-70996.770,-67620.095,-64284.665,-423116.352,-1828.988,25339.067,23787.029,-0.091,0.949,-0.290,0.336,0.977,1.038,73.333,403.000,1.000
-22100.927,-70844.031,-67793.986,-64516.002,-424285.522,-1823.690,25232.443,23644.957,-0.092,0.950,-0.285,0.214,1.129,1.160,73.333,404.000,1.000
-22142.591,-70693.577,-67966.791,-64746.090,-425443.959,-1818.580,25127.533,23504.845,-0.093,0.951,-0.288,0.122,1.282,1.373,73.333,405.000,1.000
-22183.112,-70543.418,-68138.414,-64974.839,-426591.634,-1813.487,25024.613,23366.881,-0.093,0.955,-0.288,0.061,1.434,1.648,73.333,406.000,1.000
-22222.810,-70391.484,-68308.629,-65202.021,-427728.372,-1809.037,24921.848,23229.119,-0.094,0.958,-0.286,0.000,1.434,1.862,73.333,407.000,1.000
-22263.046,-70236.396,-68477.191,-65427.381,-428853.960,-1806.092,24817.002,23089.164,-0.093,0.961,-0.285,-0.214,1.617,2.136,73.333,408.000,1.000
-22304.748,-70077.833,-68643.951,-65650.739,-429968.251,-1804.924,24709.733,22946.382,-0.097,0.968,-0.285,-0.488,1.587,2.380,73.333,409.000,1.000
-22346.852,-69916.052,-68808.898,-65872.044,-431071.218,-1804.674,24602.016,22802.475,-0.099,0.968,-0.285,-0.824,1.556,2.441,73.333,410.000,1.000
-22387.348,-69751.615,-68972.015,-66091.263,-432162.843,-1803.865,24496.114,22659.896,-0.099,0.967,-0.284,-1.312,1.373,2.380,73.333,411.000,1.000
-22424.660,-69584.830,-69133.055,-66308.177,-433242.909,-1801.326,24392.381,22519.912,-0.100,0.966,-0.280,-1.740,1.160,2.625,73.333,412.000,1.000
-22458.472,-69415.441,-69291.630,-66522.457,-434311.084,-1796.838,24289.533,22382.126,-0.100,0.967,-0.283,-2.167,1.007,2.808,73.333,413.000,1.000
-22490.194,-69243.836,-69447.769,-66734.203,-435367.465,-1791.735,24185.861,22244.643,-0.100,0.969,-0.281,-2.533,0.916,2.716,73.333,414.000,1.000
-22521.910,-69071.795,-69602.100,-66944.083,-436412.754,-1788.556,24079.926,22104.941,-0.099,0.966,-0.282,-2.869,0.793,2.777,73.333,415.000,1.000
-22555.161,-68901.395,-69755.227,-67152.682,-437447.615,-1789.104,23971.743,21961.992,-0.096,0.965,-0.281,-3.052,0.549,2.808,73.333,416.000,1.000
-22589.985,-68733.253,-69907.242,-67360.021,-438472.154,-1792.834,23863.170,21817.285,-0.096,0.968,-0.278,-3.357,0.397,2.930,73.333,417.000,1.000
-22625.173,-68566.061,-70057.856,-67565.764,-439486.074,-1797.513,23756.262,21673.196,-0.095,0.969,-0.277,-3.632,0.336,3.082,73.333,418.000,1.000
-22658.653,-68397.105,-70206.691,-67769.527,-440489.001,-1800.790,23651.571,21531.139,-0.094,0.969,-0.278,-4.120,0.183,3.296,73.333,419.000,1.000
-22687.684,-68223.337,-70353.559,-67971.118,-441480.760,-1801.222,23548.085,21391.329,-0.093,0.968,-0.271,-4.517,-0.031,3.540,73.333,420.000,1.000
-22711.540,-68043.959,-70498.695,-68170.751,-442461.575,-1799.263,23444.235,21252.942,-0.091,0.967,-0.272,-4.761,0.000,3.906,73.333,421.000,1.000
-22733.517,-67862.135,-70642.612,-68368.940,-443431.944,-1797.420,23338.983,21114.159,-0.091,0.964,-0.269,-5.066,0.092,4.059,73.333,422.000,1.000
-22759.824,-67683.705,-70785.687,-68566.106,-444392.282,-1799.094,23232.176,20972.915,-0.089,0.962,-0.266,-5.402,0.031,4.150,73.333,423.000,1.000
-22796.161,-67514.198,-70927.983,-68762.358,-445342.731,-1806.936,23124.085,20828.029,-0.087,0.957,-0.264,-5.402,-0.122,4.333,73.333,424.000,1.000
-22844.569,-67356.559,-71069.350,-68957.555,-446283.233,-1821.617,23015.265,20679.904,-0.086,0.958,-0.265,-5.524,-0.153,4.517,73.333,425.000,1.000
-22904.003,-67211.302,-71209.629,-69151.522,-447213.713,-1842.055,22906.255,20530.027,-0.085,0.957,-0.270,-5.615,-0.183,4.578,73.333,426.000,1.000
-22971.812,-67077.172,-71348.752,-69344.188,-448134.166,-1866.279,22796.862,20379.673,-0.085,0.953,-0.265,-5.524,-0.275,4.669,73.333,427.000,1.000
-23044.329,-66951.103,-71486.554,-69535.406,-449044.445,-1891.582,22686.935,20229.780,-0.082,0.953,-0.264,-5.676,-0.153,4.700,73.333,428.000,1.000
-23117.275,-66828.766,-71622.616,-69724.765,-449944.108,-1914.924,22577.203,20081.455,-0.080,0.955,-0.266,-5.646,-0.122,4.730,73.333,429.000,1.000
-23186.724,-66706.264,-71756.545,-69911.864,-450832.740,-1934.478,22467.993,19935.314,-0.080,0.956,-0.262,-5.646,-0.153,4.822,73.333,430.000,1.000
-23251.144,-66581.957,-71888.360,-70096.703,-451710.354,-1950.537,22358.647,19790.955,-0.078,0.957,-0.263,-5.646,-0.183,4.730,73.333,431.000,1.000
-23311.420,-66456.263,-72018.471,-70279.664,-452577.377,-1964.331,22249.035,19647.931,-0.076,0.956,-0.266,-5.646,-0.153,4.669,73.333,432.000,1.000
-23369.354,-66329.983,-72147.318,-70461.147,-453434.266,-1976.604,22140.186,19506.585,-0.073,0.954,-0.263,-5.524,0.061,4.608,73.333,433.000,1.000
-23425.839,-66202.597,-72274.878,-70641.109,-454281.032,-1987.150,22033.289,19367.761,-0.073,0.953,-0.262,-5.371,0.031,4.486,73.333,434.000,1.000
-23479.749,-66071.742,-72400.533,-70818.944,-455117.106,-1995.101,21928.853,19232.024,-0.073,0.950,-0.263,-5.249,0.153,4.456,73.333,435.000,1.000
-23530.157,-65935.432,-72523.717,-70994.114,-455941.972,-2000.223,21826.386,19098.612,-0.070,0.950,-0.261,-4.974,0.244,4.395,73.333,436.000,1.000
-23578.320,-65794.491,-72644.665,-71166.883,-456755.908,-2003.845,21724.384,18965.195,-0.070,0.951,-0.262,-4.852,0.427,4.242,73.333,437.000,1.000
-23626.972,-65652.208,-72764.283,-71338.181,-457559.864,-2008.199,21621.010,18829.257,-0.070,0.953,-0.262,-4.700,0.549,4.089,73.333,438.000,1.000
-23677.689,-65511.533,-72883.255,-71508.711,-458354.578,-2014.656,21515.325,18689.928,-0.070,0.957,-0.262,-4.669,0.671,3.967,73.333,439.000,1.000
-23728.946,-65372.709,-73001.396,-71678.303,-459139.930,-2022.405,21408.344,18548.776,-0.069,0.956,-0.262,-4.517,0.916,3.906,73.333,440.000,1.000
-23778.022,-65234.092,-73117.947,-71846.205,-459915.205,-2029.219,21302.512,18408.796,-0.070,0.956,-0.260,-4.425,1.129,3.876,73.333,441.000,1.000
-23823.238,-65093.950,-73232.246,-72011.748,-460679.756,-2033.219,21199.506,18272.446,-0.068,0.958,-0.263,-4.364,1.343,3.845,73.333,442.000,1.000
-23864.672,-64951.275,-73344.083,-72174.687,-461433.358,-2034.082,21098.751,18140.207,-0.066,0.960,-0.263,-4.242,1.587,3.693,73.333,443.000,1.000
-23903.908,-64806.153,-73453.773,-72335.296,-462176.304,-2033.395,20997.930,18010.226,-0.067,0.959,-0.263,-4.089,1.801,3.693,73.333,444.000,1.000
-23943.041,-64659.739,-73562.036,-72494.266,-462909.293,-2034.020,20894.285,17879.094,-0.065,0.960,-0.261,-3.998,2.075,3.662,73.333,445.000,1.000
-23984.544,-64514.075,-73669.524,-72652.258,-463632.981,-2038.675,20785.951,17743.561,-0.064,0.963,-0.263,-3.876,2.380,3.601,73.333,446.000,1.000
-24030.376,-64371.109,-73776.347,-72809.422,-464347.525,-2048.126,20673.461,17602.623,-0.063,0.964,-0.264,-3.815,2.655,3.540,73.333,447.000,1.000
-24081.073,-64231.747,-73882.099,-72965.377,-465052.609,-2060.717,20559.928,17458.293,-0.063,0.964,-0.264,-3.693,2.899,3.601,73.333,448.000,1.000
-24135.914,-64096.150,-73986.337,-73119.662,-465747.866,-2074.050,20448.714,17313.895,-0.061,0.962,-0.260,-3.571,3.204,3.601,73.333,449.000,1.000
-24193.539,-63964.606,-74089.019,-73272.191,-466433.282,-2086.909,20341.004,17171.632,-0.060,0.961,-0.260,-3.418,3.571,3.601,73.333,450.000,1.000
-24253.528,-63838.256,-74190.545,-73423.349,-467109.261,-2099.817,20235.620,17031.511,-0.057,0.960,-0.261,-3.326,3.906,3.571,73.333,451.000,1.000
-24316.366,-63718.238,-74291.307,-73573.542,-467776.208,-2113.992,20130.395,16891.908,-0.054,0.957,-0.263,-3.174,4.181,3.571,73.333,452.000,1.000
-24382.425,-63604.320,-74391.150,-73722.647,-468434.001,-2130.094,20023.769,16751.054,-0.053,0.958,-0.258,-3.082,4.547,3.448,73.333,453.000,1.000
-24451.267,-63494.835,-74489.454,-73870.060,-469082.040,-2147.908,19915.476,16608.205,-0.055,0.962,-0.259,-2.960,4.974,3.326,73.333,454.000,1.000
-24520.966,-63387.127,-74585.758,-74015.328,-469719.867,-2166.702,19806.191,16463.873,-0.055,0.964,-0.256,-2.747,5.371,3.143,73.333,455.000,1.000
-24588.938,-63278.168,-74680.082,-74158.478,-470347.516,-2185.537,19697.241,16319.549,-0.057,0.964,-0.257,-2.655,5.768,3.082,73.333,456.000,1.000
-24652.764,-63165.088,-74772.588,-74299.664,-470965.184,-2203.110,19590.465,16177.342,-0.058,0.964,-0.255,-2.625,6.073,2.838,73.333,457.000,1.000
-24711.153,-63046.239,-74863.283,-74438.860,-471572.945,-2218.190,19487.260,16039.080,-0.059,0.963,-0.256,-2.655,6.195,2.777,73.333,458.000,1.000
-24764.347,-62921.999,-74952.196,-74576.068,-472170.884,-2230.574,19387.271,15905.112,-0.063,0.962,-0.255,-2.625,6.439,2.686,73.333,459.000,1.000
-24812.751,-62793.649,-75039.528,-74711.510,-472759.239,-2241.138,19288.490,15774.223,-0.063,0.961,-0.257,-2.563,6.622,2.472,73.333,460.000,1.000
-24856.794,-62662.339,-75125.538,-74845.513,-473338.299,-2251.246,19188.596,15644.551,-0.064,0.959,-0.257,-2.441,6.653,2.350,73.333,461.000,1.000
-24897.266,-62529.052,-75210.365,-74978.294,-473908.242,-2261.972,19086.015,15514.449,-0.065,0.958,-0.254,-2.258,6.805,2.167,73.333,462.000,1.000
-24935.068,-62394.283,-75293.899,-75109.764,-474468.976,-2273.205,18980.598,15383.287,-0.066,0.958,-0.255,-2.167,7.019,1.953,73.333,463.000,1.000
-24970.132,-62256.923,-75375.664,-75239.396,-475020.023,-2283.040,18874.020,15252.128,-0.068,0.960,-0.257,-2.045,7.080,1.862,73.333,464.000,1.000
-25000.809,-62114.276,-75455.004,-75366.460,-475560.725,-2288.637,18769.091,15123.173,-0.070,0.961,-0.257,-1.923,7.111,1.740,73.333,465.000,1.000
-25025.742,-61964.402,-75531.684,-75490.650,-476090.863,-2288.595,18667.936,14997.836,-0.073,0.963,-0.261,-1.801,6.927,1.801,73.333,466.000,1.000
-25044.697,-61807.287,-75606.203,-75612.420,-476610.959,-2284.180,18570.471,14875.553,-0.072,0.966,-0.262,-1.709,6.897,1.648,73.333,467.000,1.000
-25058.391,-61644.252,-75679.512,-75732.709,-477121.965,-2278.505,18474.458,14754.267,-0.072,0.966,-0.258,-1.587,6.897,1.404,73.333,468.000,1.000
-25068.241,-61477.075,-75752.409,-75852.357,-477624.694,-2274.545,18377.283,14631.899,-0.072,0.966,-0.262,-1.465,6.927,1.373,73.333,469.000,1.000
-25075.151,-61306.631,-75824.995,-75971.536,-478119.314,-2272.979,18278.051,14507.976,-0.073,0.964,-0.260,-1.282,6.836,1.343,73.333,470.000,1.000
-25079.501,-61132.547,-75896.609,-76089.631,-478605.265,-2272.019,18177.622,14383.772,-0.071,0.965,-0.264,-1.221,6.775,1.251,73.333,471.000,1.000
-25081.367,-60953.906,-75966.329,-76205.726,-479081.707,-2269.327,18076.815,14260.730,-0.073,0.961,-0.267,-1.160,6.714,1.282,73.333,472.000,1.000
-25081.015,-60770.314,-76033.649,-76319.304,-479548.158,-2264.062,17975.436,14139.073,-0.074,0.958,-0.260,-0.916,6.622,1.129,73.333,473.000,1.000
-25079.362,-60582.741,-76098.810,-76430.592,-480004.826,-2257.431,17872.811,14017.752,-0.077,0.958,-0.261,-0.702,6.561,1.038,73.333,474.000,1.000
-25077.205,-60392.971,-76162.455,-76540.222,-480452.291,-2251.411,17768.680,13895.448,-0.078,0.958,-0.262,-0.488,6.439,0.977,73.333,475.000,1.000
-25075.112,-60202.643,-76224.996,-76648.599,-480890.926,-2246.985,17663.862,13771.875,-0.081,0.958,-0.261,-0.153,6.256,0.763,73.333,476.000,1.000
-25073.176,-60012.525,-76286.344,-76755.645,-481320.679,-2243.387,17560.109,13648.297,-0.082,0.959,-0.264,0.000,5.981,0.671,73.333,477.000,1.000
-25071.360,-59822.747,-76346.197,-76861.053,-481741.353,-2239.253,17458.616,13526.260,-0.079,0.959,-0.266,0.183,5.768,0.763,73.333,478.000,1.000
-25070.189,-59633.610,-76404.400,-76964.637,-482152.917,-2234.359,17358.594,13405.597,-0.080,0.956,-0.269,0.366,5.493,0.793,73.333,479.000,1.000
-25070.091,-59445.341,-76461.001,-77066.394,-482555.483,-2229.717,17257.808,13284.340,-0.082,0.955,-0.266,0.610,5.341,0.732,73.333,480.000,1.000
-25071.222,-59257.662,-76516.163,-77166.434,-482949.198,-2226.465,17154.467,13160.555,-0.082,0.954,-0.265,0.916,5.127,0.702,73.333,481.000,1.000
-25073.257,-59069.790,-76570.144,-77265.015,-483334.274,-2224.895,17048.681,13034.047,-0.082,0.958,-0.267,1.160,5.035,0.732,73.333,482.000,1.000
-25075.784,-58881.127,-76623.250,-77362.517,-483710.994,-2224.504,16942.394,12906.518,-0.082,0.958,-0.266,1.404,4.913,0.732,73.333,483.000,1.000
-25078.797,-58691.838,-76675.605,-77459.173,-484079.507,-2224.710,16837.730,12780.113,-0.080,0.961,-0.270,1.587,4.883,0.793,73.333,484.000,1.000
-25082.137,-58502.321,-76726.976,-77554.827,-484439.657,-2225.173,16735.523,12655.780,-0.080,0.962,-0.269,1.831,4.730,0.946,73.333,485.000,1.000
-25085.821,-58312.882,-76776.950,-77649.056,-484791.113,-2225.788,16635.158,12532.796,-0.077,0.964,-0.271,1.892,4.547,0.977,73.333,486.000,1.000
-25089.949,-58123.630,-76825.251,-77741.487,-485133.607,-2226.507,16535.238,12409.598,-0.076,0.965,-0.273,2.014,4.547,1.038,73.333,487.000,1.000
-25095.002,-57935.053,-76871.931,-77832.071,-485467.150,-2227.536,16434.491,12284.767,-0.075,0.962,-0.270,2.167,4.333,1.038,73.333,488.000,1.000
-25102.740,-57749.216,-76917.464,-77921.246,-485792.220,-2229.873,16332.303,12157.409,-0.075,0.959,-0.271,2.350,4.303,1.221,73.333,489.000,1.000
-25115.211,-57569.146,-76962.483,-78009.694,-486109.532,-2234.874,16228.914,12027.744,-0.073,0.959,-0.273,2.533,4.272,1.282,73.333,490.000,1.000
-25132.835,-57396.151,-77007.144,-78097.648,-486419.344,-2242.814,16125.424,11897.667,-0.074,0.962,-0.271,2.655,4.242,1.343,73.333,491.000,1.000
-25152.830,-57227.644,-77050.781,-78184.491,-486721.046,-2251.947,16023.116,11769.915,-0.073,0.963,-0.276,2.838,4.211,1.434,73.333,492.000,1.000
-25171.152,-57059.043,-77092.427,-78269.269,-487013.672,-2259.661,15922.530,11646.079,-0.072,0.963,-0.275,2.899,4.181,1.495,73.333,493.000,1.000
-25186.403,-56888.178,-77131.755,-78351.649,-487296.883,-2264.845,15823.078,11525.263,-0.072,0.965,-0.274,3.052,4.150,1.404,73.333,494.000,1.000
-25200.396,-56716.502,-77169.401,-78432.225,-487571.307,-2268.669,15723.441,11404.785,-0.072,0.967,-0.276,3.082,4.059,1.465,73.333,495.000,1.000
-25215.914,-56546.504,-77206.290,-78511.860,-487837.863,-2273.139,15622.563,11282.340,-0.071,0.965,-0.280,3.021,4.028,1.343,73.333,496.000,1.000
-25233.562,-56378.545,-77242.764,-78590.856,-488096.896,-2279.099,15520.401,11157.645,-0.071,0.965,-0.277,3.082,3.937,1.251,73.333,497.000,1.000
-25251.506,-56210.571,-77278.499,-78668.898,-488348.115,-2285.959,15417.641,11031.994,-0.070,0.960,-0.277,3.082,3.998,1.251,73.333,498.000,1.000
-25267.970,-56040.530,-77313.038,-78745.570,-488591.110,-2292.827,15315.069,10906.702,-0.070,0.958,-0.281,3.113,3.998,1.190,73.333,499.000,1.000
-25282.505,-55868.134,-77346.099,-78820.630,-488825.645,-2299.106,15213.469,10782.553,-0.069,0.958,-0.280,3.296,3.967,1.068,73.333,500.000,1.000
-25295.795,-55694.808,-77377.539,-78893.962,-489051.623,-2304.573,15113.531,10660.011,-0.069,0.959,-0.279,3.448,3.998,0.946,73.333,501.000,1.000
-25307.918,-55521.975,-77407.315,-78965.510,-489269.027,-2309.170,15015.431,10539.265,-0.071,0.962,-0.279,3.448,3.937,0.854,73.333,502.000,1.000
-25318.136,-55350.096,-77435.461,-79035.259,-489477.913,-2312.905,14918.570,10420.123,-0.073,0.960,-0.282,3.479,3.876,0.580,73.333,503.000,1.000
-25326.818,-55179.590,-77462.103,-79103.278,-489678.418,-2316.208,14821.668,10301.869,-0.073,0.960,-0.279,3.357,3.845,0.427,73.333,504.000,1.000
-25335.746,-55011.161,-77487.452,-79169.775,-489870.767,-2319.960,14723.385,10183.474,-0.071,0.960,-0.282,3.387,3.845,0.336,73.333,505.000,1.000
-25346.969,-54845.022,-77511.755,-79235.055,-490055.250,-2324.966,14623.010,10064.034,-0.072,0.961,-0.284,3.357,3.754,0.214,73.333,506.000,1.000
-25360.892,-54680.142,-77535.163,-79299.356,-490232.084,-2331.427,14520.553,9943.069,-0.070,0.961,-0.285,3.296,3.693,0.183,73.333,507.000,1.000
-25376.145,-54514.717,-77557.628,-79362.683,-490401.259,-2339.024,14416.757,9820.722,-0.071,0.960,-0.285,3.204,3.815,0.092,73.333,508.000,1.000
-25391.321,-54347.526,-77578.940,-79424.805,-490562.555,-2347.350,14313.132,9697.729,-0.069,0.957,-0.287,3.235,3.815,0.061,73.333,509.000,1.000
-25406.003,-54178.798,-77598.917,-79485.478,-490715.775,-2356.193,14211.199,9575.016,-0.070,0.954,-0.283,3.296,3.693,0.092,73.333,510.000,1.000
-25421.139,-54010.416,-77617.584,-79544.665,-490860.949,-2365.756,14111.205,9453.135,-0.069,0.951,-0.282,3.448,3.662,0.122,73.333,511.000,1.000
-25437.536,-53844.693,-77635.134,-79602.539,-490998.302,-2376.263,14011.872,9332.107,-0.070,0.951,-0.282,3.418,3.784,0.031,73.333,512.000,1.000
-25454.704,-53682.756,-77651.711,-79659.245,-491128.038,-2387.321,13911.641,9211.708,-0.069,0.951,-0.285,3.479,3.723,-0.031,73.333,513.000,1.000
-25471.645,-53524.181,-77667.224,-79714.686,-491250.127,-2398.087,13809.743,9091.558,-0.067,0.954,-0.283,3.479,3.815,-0.061,73.333,514.000,1.000
-25487.836,-53367.706,-77681.436,-79768.617,-491364.374,-2408.180,13706.159,8971.020,-0.068,0.958,-0.283,3.571,3.754,-0.092,73.333,515.000,1.000
-25503.897,-53212.359,-77694.248,-79820.947,-491470.677,-2418.316,13601.288,8849.507,-0.073,0.959,-0.283,3.418,3.693,0.183,73.333,516.000,1.000
-25520.144,-53057.355,-77705.729,-79871.786,-491569.093,-2429.512,13495.895,8727.149,-0.075,0.957,-0.286,3.357,3.723,0.336,73.333,517.000,1.000
-25535.679,-52901.624,-77715.962,-79921.279,-491659.701,-2441.828,13391.214,8605.019,-0.073,0.952,-0.284,3.326,3.632,0.275,73.333,518.000,1.000
-25549.629,-52744.156,-77724.993,-79969.517,-491742.576,-2454.168,13288.593,8484.520,-0.073,0.948,-0.286,3.296,3.418,0.061,73.333,519.000,1.000
-25561.818,-52584.132,-77732.825,-80016.496,-491817.777,-2465.127,13188.637,8366.520,-0.072,0.947,-0.288,3.357,3.296,-0.153,73.333,520.000,1.000
-25572.876,-52421.146,-77739.396,-80062.099,-491885.327,-2474.141,13090.896,8250.932,-0.071,0.948,-0.288,3.418,3.204,-0.549,73.333,521.000,1.000
-25583.315,-52255.540,-77744.677,-80106.229,-491945.270,-2481.841,12994.409,8136.907,-0.071,0.946,-0.287,3.418,3.174,-0.763,73.333,522.000,1.000
-25593.539,-52088.939,-77748.829,-80149.007,-491997.772,-2489.707,12898.119,8023.179,-0.073,0.946,-0.289,3.540,3.113,-0.824,73.333,523.000,1.000
-25604.489,-51924.266,-77752.113,-80190.704,-492043.045,-2499.318,12800.845,7908.423,-0.073,0.947,-0.288,3.632,3.052,-0.916,73.333,524.000,1.000
-25616.618,-51764.168,-77754.589,-80231.408,-492081.083,-2511.053,12701.863,7791.950,-0.075,0.949,-0.290,3.754,2.960,-0.885,73.333,525.000,1.000
-25629.319,-51609.565,-77755.954,-80270.848,-492111.564,-2523.547,12601.746,7674.114,-0.075,0.952,-0.292,3.754,2.930,-0.824,73.333,526.000,1.000
-25641.012,-51459.296,-77755.819,-80308.654,-492134.159,-2534.801,12501.832,7555.836,-0.075,0.952,-0.296,3.723,2.838,-0.702,73.333,527.000,1.000
-25650.587,-51311.123,-77754.092,-80344.743,-492148.900,-2544.062,12402.843,7437.779,-0.076,0.951,-0.296,3.601,2.747,-0.702,73.333,528.000,1.000
-25658.687,-51162.993,-77750.947,-80379.293,-492156.077,-2552.322,12304.523,7320.119,-0.077,0.948,-0.294,3.662,2.655,-0.732,73.333,529.000,1.000
-25666.445,-51012.855,-77746.482,-80412.398,-492155.841,-2560.920,12206.432,7203.058,-0.077,0.950,-0.293,3.632,2.655,-0.732,73.333,530.000,1.000
-25674.554,-50858.780,-77740.678,-80444.020,-492148.144,-2570.575,12108.512,7086.995,-0.077,0.953,-0.294,3.601,2.441,-0.702,73.333,531.000,1.000
-25682.960,-50699.806,-77733.656,-80474.247,-492133.035,-2581.499,12010.931,6972.068,-0.078,0.951,-0.294,3.510,2.350,-0.641,73.333,532.000,1.000
-25691.172,-50536.326,-77725.759,-80503.398,-492110.815,-2593.556,11913.783,6857.927,-0.077,0.951,-0.291,3.479,2.228,-0.641,73.333,533.000,1.000
-25698.757,-50369.636,-77717.284,-80531.775,-492081.811,-2606.115,11816.970,6744.055,-0.079,0.952,-0.292,3.387,1.984,-0.793,73.333,534.000,1.000
-25705.064,-50201.242,-77708.151,-80559.349,-492046.031,-2617.940,11720.562,6630.417,-0.080,0.948,-0.295,3.326,1.862,-0.824,73.333,535.000,1.000
-25709.754,-50032.974,-77697.949,-80585.774,-492003.160,-2627.757,11625.209,6517.689,-0.079,0.943,-0.299,3.143,1.709,-0.916,73.333,536.000,1.000
-25712.472,-49866.472,-77686.253,-80610.644,-491952.802,-2634.848,11531.656,6406.698,-0.078,0.939,-0.298,3.204,1.587,-0.977,73.333,537.000,1.000
-25712.617,-49702.330,-77672.839,-80633.715,-491894.723,-2639.378,11440.076,6297.659,-0.080,0.937,-0.297,3.357,1.495,-1.038,73.333,538.000,1.000
-25710.439,-49540.647,-77657.860,-80655.115,-491829.084,-2642.731,11349.999,6189.874,-0.079,0.943,-0.295,3.479,1.343,-1.038,73.333,539.000,1.000
-25707.307,-49381.809,-77641.814,-80675.312,-491756.404,-2647.126,11260.401,6082.229,-0.079,0.951,-0.296,3.632,1.190,-1.068,73.333,540.000,1.000
-25705.135,-49226.274,-77625.183,-80694.752,-491677.179,-2654.339,11169.746,5973.867,-0.080,0.954,-0.298,3.387,1.068,-1.038,73.333,541.000,1.000
-25704.598,-49073.233,-77608.112,-80713.546,-491591.558,-2664.411,11076.466,5864.400,-0.081,0.955,-0.295,3.204,0.977,-0.946,73.333,542.000,1.000
-25704.555,-48919.895,-77590.332,-80731.427,-491499.304,-2675.505,10980.153,5753.977,-0.082,0.951,-0.294,2.869,0.793,-0.732,73.333,543.000,1.000
-25703.567,-48762.818,-77571.394,-80747.989,-491400.021,-2685.310,10882.098,5643.129,-0.080,0.947,-0.291,2.838,0.610,-0.732,73.333,544.000,1.000
-25701.178,-48599.967,-77551.102,-80763.085,-491293.553,-2692.832,10784.151,5532.263,-0.079,0.947,-0.293,2.747,0.458,-0.641,73.333,545.000,1.000
-25698.435,-48431.879,-77529.602,-80776.894,-491180.082,-2698.907,10687.533,5421.584,-0.077,0.950,-0.298,2.686,0.305,-0.519,73.333,546.000,1.000
-25696.280,-48260.716,-77507.011,-80789.529,-491059.765,-2704.951,10592.774,5311.628,-0.078,0.950,-0.297,2.655,0.214,-0.336,73.333,547.000,1.000
-25694.463,-48088.960,-77483.171,-80800.782,-490932.461,-2711.797,10499.718,5203.242,-0.080,0.953,-0.300,2.686,0.000,-0.183,73.333,548.000,1.000
-25692.527,-47919.371,-77457.879,-80810.364,-490797.938,-2719.620,10407.333,5096.654,-0.080,0.953,-0.297,2.502,-0.153,-0.153,73.333,549.000,1.000
-25690.474,-47754.742,-77431.230,-80818.306,-490656.242,-2728.099,10314.248,4990.890,-0.079,0.953,-0.298,2.350,-0.275,0.031,73.333,550.000,1.000
-25688.970,-47596.840,-77403.607,-80825.020,-490507.769,-2736.649,10219.760,4884.345,-0.076,0.951,-0.295,2.228,-0.366,0.214,73.333,551.000,1.000
-25688.218,-47444.935,-77375.368,-80830.961,-490352.955,-2744.667,10124.339,4776.168,-0.076,0.953,-0.293,2.075,-0.427,0.305,73.333,552.000,1.000
-25687.439,-47295.655,-77346.600,-80836.300,-490191.973,-2751.718,10029.514,4667.277,-0.076,0.951,-0.296,1.923,-0.610,0.397,73.333,553.000,1.000
-25685.713,-47144.634,-77317.105,-80840.844,-490024.667,-2757.643,9937.011,4559.857,-0.075,0.952,-0.295,1.740,-0.641,0.397,73.333,554.000,1.000
-25682.462,-46988.359,-77286.534,-80844.226,-489850.697,-2762.534,9847.577,4455.697,-0.075,0.954,-0.296,1.678,-0.702,0.397,73.333,555.000,1.000
-25678.103,-46825.645,-77254.628,-80846.168,-489669.792,-2766.743,9760.768,4354.992,-0.073,0.954,-0.301,1.526,-0.702,0.397,73.333,556.000,1.000
-25673.380,-46657.753,-77221.255,-80846.535,-489481.831,-2770.498,9675.845,4256.652,-0.073,0.954,-0.298,1.312,-0.885,0.549,73.333,557.000,1.000
-25668.823,-46487.577,-77186.379,-80845.278,-489286.826,-2773.841,9591.898,4158.993,-0.071,0.955,-0.297,1.129,-0.885,0.732,73.333,558.000,1.000
-25665.205,-46318.691,-77150.203,-80842.575,-489085.026,-2777.337,9506.608,4059.570,-0.072,0.955,-0.297,1.007,-0.946,0.824,73.333,559.000,1.000
-25662.950,-46153.705,-77113.159,-80838.836,-488876.886,-2782.113,9416.570,3955.614,-0.071,0.953,-0.300,0.885,-0.916,0.916,73.333,560.000,1.000
-25661.894,-45993.344,-77075.578,-80834.372,-488662.744,-2788.988,9319.907,3845.851,-0.068,0.952,-0.297,0.702,-0.916,0.854,73.333,561.000,1.000
-25661.226,-45836.830,-77037.456,-80829.158,-488442.596,-2797.921,9217.673,3731.462,-0.067,0.951,-0.296,0.519,-0.946,0.977,73.333,562.000,1.000
-25659.947,-45682.748,-76998.519,-80822.933,-488216.173,-2808.212,9113.102,3615.341,-0.066,0.949,-0.292,0.458,-0.854,0.977,73.333,563.000,1.000
-25657.236,-45529.358,-76958.384,-80815.362,-487983.111,-2818.563,9010.645,3501.214,-0.067,0.948,-0.294,0.366,-0.763,0.977,73.333,564.000,1.000
-25652.106,-45374.580,-76916.747,-80806.202,-487743.155,-2827.338,8914.338,3392.603,-0.066,0.948,-0.300,0.305,-0.671,0.946,73.333,565.000,1.000
-25644.752,-45217.375,-76873.728,-80795.599,-487496.481,-2834.146,8824.765,3290.368,-0.063,0.948,-0.300,0.183,-0.671,0.824,73.333,566.000,1.000
-25636.989,-45058.553,-76829.868,-80784.085,-487243.676,-2840.462,8738.160,3191.533,-0.063,0.947,-0.293,0.122,-0.610,0.763,73.333,567.000,1.000
-25630.625,-44899.274,-76785.487,-80771.949,-486985.076,-2847.702,8650.211,3092.222,-0.062,0.948,-0.294,0.244,-0.366,0.641,73.333,568.000,1.000
-25625.999,-44739.521,-76740.252,-80758.819,-486720.338,-2855.530,8559.856,2991.193,-0.060,0.949,-0.294,0.183,-0.305,0.519,73.333,569.000,1.000
-25622.036,-44578.588,-76693.643,-80744.146,-486448.936,-2862.762,8468.467,2889.540,-0.060,0.952,-0.294,0.122,-0.061,0.580,73.333,570.000,1.000
-25618.022,-44416.762,-76645.632,-80727.892,-486170.848,-2869.227,8377.051,2788.128,-0.059,0.955,-0.296,0.153,-0.031,0.580,73.333,571.000,1.000
-25613.584,-44255.166,-76596.612,-80710.451,-485886.481,-2875.643,8285.772,2686.862,-0.062,0.954,-0.296,0.061,0.061,0.519,73.333,572.000,1.000
-25608.023,-44094.567,-76546.852,-80692.098,-485596.124,-2882.198,8195.124,2585.798,-0.060,0.952,-0.297,-0.061,0.153,0.519,73.333,573.000,1.000
-25600.739,-43935.126,-76496.250,-80672.742,-485299.728,-2888.102,8106.140,2485.566,-0.060,0.953,-0.294,-0.092,0.244,0.397,73.333,574.000,1.000
-25591.289,-43776.280,-76444.523,-80652.095,-484997.072,-2892.181,8019.683,2386.805,-0.061,0.954,-0.293,-0.122,0.275,0.122,73.333,575.000,1.000
-25580.196,-43617.211,-76391.512,-80629.995,-484688.033,-2894.057,7935.589,2289.376,-0.061,0.954,-0.290,-0.214,0.275,0.153,73.333,576.000,1.000
-25569.053,-43457.673,-76337.349,-80606.594,-484372.746,-2894.855,7852.410,2192.269,-0.059,0.957,-0.288,-0.366,0.305,-0.061,73.333,577.000,1.000
-25559.647,-43298.221,-76282.426,-80582.325,-484051.594,-2896.738,7768.340,2094.483,-0.060,0.958,-0.293,-0.519,0.366,-0.244,73.333,578.000,1.000
-25552.936,-43139.596,-76227.216,-80557.686,-483725.055,-2901.635,7681.779,1995.242,-0.060,0.957,-0.294,-0.732,0.458,-0.336,73.333,579.000,1.000
-25548.268,-42981.824,-76171.912,-80532.868,-483393.381,-2910.012,7591.061,1893.391,-0.061,0.955,-0.293,-0.854,0.427,-0.305,73.333,580.000,1.000
-25544.484,-42824.369,-76116.182,-80507.526,-483056.317,-2920.762,7495.123,1787.817,-0.060,0.949,-0.295,-0.854,0.549,-0.427,73.333,581.000,1.000
-25540.513,-42666.473,-76059.389,-80481.009,-482713.271,-2931.929,7394.783,1678.737,-0.059,0.945,-0.292,-1.129,0.549,-0.610,73.333,582.000,1.000
-25535.507,-42507.378,-76001.132,-80452.893,-482363.831,-2941.765,7292.626,1567.948,-0.058,0.943,-0.289,-0.977,0.610,-0.702,73.333,583.000,1.000
-25529.041,-42346.724,-75941.516,-80423.258,-482008.049,-2949.604,7191.678,1457.894,-0.061,0.953,-0.286,-0.732,0.519,-0.946,73.333,584.000,1.000
-25520.334,-42184.356,-75880.825,-80392.372,-481646.162,-2955.687,7094.644,1351.115,-0.067,0.964,-0.286,-0.793,0.580,-1.099,73.333,585.000,1.000
-25508.600,-42020.422,-75819.109,-80360.273,-481278.215,-2960.500,7003.416,1249.887,-0.064,0.970,-0.289,-1.068,0.183,-1.434,73.333,586.000,1.000
-25493.773,-41855.689,-75756.215,-80326.805,-480904.114,-2964.634,6917.888,1154.960,-0.065,0.974,-0.292,-1.617,0.244,-1.740,73.333,587.000,1.000
-25477.092,-41691.593,-75692.156,-80291.991,-480523.983,-2969.278,6835.284,1064.410,-0.066,0.969,-0.292,-1.984,0.153,-1.801,73.333,588.000,1.000
-25460.471,-41529.272,-75627.189,-80256.129,-480138.195,-2975.845,6751.734,974.654,-0.063,0.962,-0.287,-2.197,0.092,-1.617,73.333,589.000,1.000
-25444.238,-41367.676,-75561.443,-80219.396,-479746.936,-2984.276,6665.300,883.308,-0.066,0.955,-0.285,-2.411,-0.061,-1.434,73.333,590.000,1.000
-25427.372,-41203.929,-75494.775,-80181.682,-479350.049,-2992.931,6577.219,790.483,-0.072,0.950,-0.284,-2.350,-0.122,-1.221,73.333,591.000,1.000
-25409.207,-41036.146,-75427.134,-80142.940,-478947.438,-3000.646,6489.959,697.213,-0.073,0.947,-0.283,-2.106,-0.183,-0.977,73.333,592.000,1.000
-25390.412,-40865.759,-75358.718,-80103.356,-478539.268,-3007.957,6404.624,603.690,-0.072,0.947,-0.281,-1.953,-0.305,-1.038,73.333,593.000,1.000
-25372.496,-40697.040,-75289.686,-80063.058,-478125.699,-3015.887,6320.358,509.362,-0.071,0.949,-0.285,-1.892,-0.488,-1.160,73.333,594.000,1.000
-25356.029,-40533.925,-75219.970,-80021.929,-477706.685,-3024.174,6235.727,414.131,-0.069,0.953,-0.286,-1.801,-0.702,-1.373,73.333,595.000,1.000
-25340.307,-40377.235,-75149.365,-79979.720,-477282.066,-3031.298,6150.123,318.893,-0.065,0.957,-0.286,-1.801,-0.763,-1.465,73.333,596.000,1.000
-25323.368,-40223.634,-75077.579,-79936.127,-476851.594,-3035.516,6063.744,224.941,-0.062,0.960,-0.284,-1.953,-0.793,-1.617,73.333,597.000,1.000
-25302.743,-40066.738,-75004.226,-79890.785,-476414.913,-3035.844,5977.115,133.184,-0.066,0.959,-0.285,-2.075,-0.793,-1.740,73.333,598.000,1.000
-25277.029,-39900.206,-74929.099,-79843.518,-475971.840,-3032.903,5891.027,43.835,-0.065,0.959,-0.286,-2.167,-0.854,-1.465,73.333,599.000,1.000
-25246.414,-39720.922,-74852.545,-79794.687,-475522.728,-3029.044,5806.201,-43.666,-0.067,0.957,-0.286,-2.167,-0.885,-1.251,73.333,600.000,1.000
-25213.068,-39530.879,-74775.398,-79745.119,-475068.408,-3027.396,5722.663,-130.735,-0.066,0.956,-0.285,-2.228,-0.946,-1.038,73.333,601.000,1.000
-25180.177,-39336.128,-74698.460,-79695.599,-474609.699,-3029.996,5639.747,-219.123,-0.067,0.958,-0.285,-2.258,-0.977,-0.763,73.333,602.000,1.000
-25150.252,-39143.530,-74621.966,-79646.345,-474146.878,-3036.431,5556.670,-309.781,-0.067,0.958,-0.283,-2.319,-0.977,-0.702,73.333,603.000,1.000
-25123.749,-38957.737,-74545.411,-79596.860,-473679.496,-3044.087,5472.901,-402.228,-0.067,0.958,-0.282,-2.441,-0.977,-0.549,73.333,604.000,1.000
-25098.125,-38779.584,-74467.849,-79546.239,-473206.658,-3049.679,5388.331,-494.804,-0.068,0.958,-0.283,-2.502,-1.068,-0.519,73.333,605.000,1.000
-25069.917,-38606.998,-74388.517,-79493.764,-472727.626,-3051.413,5303.326,-585.618,-0.067,0.957,-0.283,-2.625,-1.312,-0.488,73.333,606.000,1.000
-25037.626,-38437.105,-74307.359,-79439.397,-472242.339,-3050.351,5218.241,-673.980,-0.068,0.954,-0.287,-2.869,-1.465,-0.488,73.333,607.000,1.000
-25002.733,-38267.481,-74224.982,-79383.732,-471751.381,-3049.945,5132.908,-761.066,-0.069,0.954,-0.288,-2.747,-1.556,-0.366,73.333,608.000,1.000
-24967.762,-38095.758,-74142.082,-79327.448,-471255.443,-3053.768,5046.817,-848.839,-0.068,0.955,-0.285,-2.869,-1.678,-0.366,73.333,609.000,1.000
-24932.778,-37918.523,-74058.872,-79270.736,-470754.761,-3062.734,4959.947,-938.117,-0.066,0.953,-0.281,-2.960,-1.617,-0.244,73.333,610.000,1.000
-24895.193,-37732.161,-73974.983,-79213.212,-470249.016,-3074.085,4873.708,-1027.699,-0.068,0.950,-0.277,-2.930,-1.709,-0.122,73.333,611.000,1.000
-24852.431,-37535.275,-73889.943,-79154.385,-469737.782,-3083.316,4790.423,-1115.547,-0.068,0.946,-0.273,-2.716,-2.136,0.061,73.333,612.000,1.000
-24805.146,-37330.552,-73803.793,-79094.283,-469221.132,-3088.079,4710.834,-1201.195,-0.065,0.945,-0.277,-2.380,-2.838,0.153,73.333,613.000,1.000
-24757.124,-37123.810,-73717.063,-79033.440,-468699.601,-3090.256,4632.974,-1286.360,-0.064,0.949,-0.280,-2.319,-2.899,0.183,73.333,614.000,1.000
-24710.885,-36920.247,-73630.101,-78972.232,-468173.537,-3093.990,4554.563,-1372.588,-0.067,0.948,-0.280,-2.014,-3.265,0.488,73.333,615.000,1.000
-24665.602,-36722.037,-73542.729,-78910.506,-467642.756,-3102.622,4475.440,-1459.256,-0.067,0.949,-0.279,-1.465,-4.028,0.854,73.333,616.000,1.000
-24618.211,-36528.387,-73454.531,-78847.856,-467106.851,-3117.276,4397.003,-1544.264,-0.063,0.951,-0.280,-1.160,-4.425,1.099,73.333,617.000,1.000
-24565.999,-36337.061,-73365.371,-78784.144,-466565.734,-3137.431,4320.120,-1626.306,-0.055,0.955,-0.292,-1.007,-4.242,1.190,73.333,618.000,1.000
-24508.928,-36146.227,-73275.709,-78719.819,-466019.945,-3162.086,4243.887,-1706.662,-0.053,0.958,-0.299,-1.617,-3.082,1.251,73.333,619.000,1.000
-24449.517,-35954.715,-73186.291,-78655.605,-465470.301,-3189.462,4166.407,-1788.388,-0.053,0.961,-0.297,-2.136,-2.167,1.007,73.333,620.000,1.000
-24391.583,-35761.406,-73097.312,-78591.666,-464917.025,-3215.784,4086.975,-1873.297,-0.056,0.964,-0.291,-2.625,-1.312,0.885,73.333,621.000,1.000
-24337.267,-35564.403,-73007.786,-78527.015,-464359.123,-3234.944,4007.435,-1959.536,-0.061,0.964,-0.288,-2.808,-0.824,0.854,73.333,622.000,1.000
-24285.228,-35361.257,-72915.895,-78459.852,-463794.742,-3240.512,3930.841,-2042.408,-0.065,0.966,-0.283,-3.235,-0.824,0.916,73.333,623.000,1.000
-24233.674,-35151.757,-72820.381,-78388.927,-463222.578,-3230.206,3857.574,-2119.170,-0.067,0.966,-0.280,-3.418,-0.885,0.763,73.333,624.000,1.000
-24184.149,-34939.934,-72721.669,-78314.651,-462643.033,-3208.888,3782.991,-2193.179,-0.070,0.966,-0.282,-3.479,-1.129,0.488,73.333,625.000,1.000
-24140.087,-34730.953,-72621.119,-78238.377,-462057.490,-3185.336,3701.403,-2270.782,-0.070,0.965,-0.278,-3.448,-1.648,0.366,73.333,626.000,1.000
-24100.859,-34525.710,-72519.408,-78160.805,-461466.699,-3165.654,3612.613,-2354.215,-0.071,0.962,-0.274,-3.174,-2.258,0.366,73.333,627.000,1.000
-24060.829,-34320.605,-72416.376,-78081.820,-460870.587,-3151.082,3522.753,-2439.804,-0.065,0.968,-0.283,-3.235,-2.411,0.061,73.333,628.000,1.000
-24014.125,-34111.598,-72312.029,-78001.456,-460269.209,-3140.366,3439.065,-2522.024,-0.063,0.967,-0.288,-3.479,-2.350,0.000,73.333,629.000,1.000
-23958.929,-33897.545,-72207.174,-77920.503,-459663.383,-3132.738,3363.708,-2598.777,-0.063,0.968,-0.284,-3.632,-2.197,-0.122,73.333,630.000,1.000
-23900.096,-33682.006,-72103.365,-77840.469,-459054.676,-3129.787,3291.458,-2674.575,-0.061,0.969,-0.279,-3.662,-2.441,-0.214,73.333,631.000,1.000
-23845.812,-33470.637,-72001.989,-77762.698,-458444.491,-3133.857,3214.221,-2757.348,-0.057,0.972,-0.283,-4.150,-2.106,-0.549,73.333,632.000,1.000
-23800.199,-33265.245,-71902.982,-77687.131,-457832.779,-3144.245,3128.004,-2850.751,-0.061,0.968,-0.284,-4.608,-1.709,-0.580,73.333,633.000,1.000
-23758.331,-33060.169,-71804.295,-77611.757,-457217.494,-3154.934,3036.163,-2949.498,-0.065,0.964,-0.276,-4.669,-1.678,-0.427,73.333,634.000,1.000
-23706.960,-32843.723,-71702.661,-77533.362,-456595.384,-3155.917,2947.746,-3041.295,-0.064,0.961,-0.272,-4.578,-1.801,-0.397,73.333,635.000,1.000
-23634.285,-32606.007,-71595.797,-77449.679,-455964.181,-3140.293,2870.460,-3115.840,-0.065,0.961,-0.273,-4.761,-1.801,-0.458,73.333,636.000,1.000
-23539.937,-32346.725,-71484.257,-77361.241,-455324.460,-3111.035,2803.454,-3173.921,-0.067,0.961,-0.273,-4.913,-1.526,-0.519,73.333,637.000,1.000
-23434.266,-32074.502,-71370.808,-77270.769,-454679.019,-3078.118,2738.958,-3226.063,-0.069,0.960,-0.275,-4.883,-1.648,-0.549,73.333,638.000,1.000
-23329.360,-31799.390,-71258.164,-77180.926,-454030.599,-3049.597,2669.875,-3283.054,-0.069,0.962,-0.272,-4.883,-1.709,-0.519,73.333,639.000,1.000
-23230.669,-31525.853,-71147.216,-77092.574,-453380.110,-3026.458,2594.307,-3348.892,-0.069,0.958,-0.271,-4.944,-1.801,-0.580,73.333,640.000,1.000
-23136.203,-31252.229,-71036.966,-77004.729,-452726.555,-3004.332,2515.144,-3420.495,-0.071,0.957,-0.270,-4.883,-1.923,-0.610,73.333,641.000,1.000
-23041.878,-30976.261,-70926.071,-76916.117,-452068.606,-2978.878,2436.596,-3492.419,-0.071,0.956,-0.270,-4.730,-1.984,-0.427,73.333,642.000,1.000
-22947.339,-30699.891,-70814.205,-76826.485,-451405.965,-2949.714,2360.571,-3561.882,-0.071,0.955,-0.268,-4.639,-2.045,-0.458,73.333,643.000,1.000
-22855.663,-30427.651,-70701.677,-76736.164,-450738.961,-2919.226,2286.982,-3628.988,-0.070,0.957,-0.268,-4.608,-2.106,-0.519,73.333,644.000,1.000
-22769.202,-30162.747,-70588.627,-76645.256,-450067.752,-2889.736,2215.875,-3694.256,-0.072,0.956,-0.267,-4.395,-2.167,-0.549,73.333,645.000,1.000
-22690.169,-29907.563,-70475.307,-76553.939,-449392.602,-2863.914,2146.193,-3759.219,-0.071,0.958,-0.267,-4.303,-2.228,-0.610,73.333,646.000,1.000
-22621.815,-29664.845,-70362.371,-76462.818,-448714.184,-2845.157,2074.117,-3827.876,-0.071,0.962,-0.270,-4.211,-2.289,-0.702,73.333,647.000,1.000
-22566.548,-29436.074,-70250.346,-76372.397,-448033.043,-2835.286,1995.541,-3904.571,-0.074,0.964,-0.266,-4.120,-2.441,-0.580,73.333,648.000,1.000
-22523.867,-29219.770,-70139.044,-76282.488,-447348.995,-2832.666,1909.895,-3990.296,-0.073,0.963,-0.267,-4.089,-2.563,-0.641,73.333,649.000,1.000
-22489.971,-29011.717,-70027.620,-76192.277,-446661.211,-2833.246,1820.478,-4081.935,-0.071,0.964,-0.264,-4.028,-2.655,-0.519,73.333,650.000,1.000
-22460.557,-28807.688,-69915.272,-76101.013,-445968.919,-2833.744,1731.353,-4175.232,-0.073,0.963,-0.264,-3.906,-2.686,-0.488,73.333,651.000,1.000
-22432.342,-28605.332,-69801.603,-76008.348,-445271.754,-2832.938,1645.462,-4266.716,-0.073,0.961,-0.265,-3.845,-2.625,-0.458,73.333,652.000,1.000
-22402.977,-28404.198,-69686.451,-75914.132,-444569.571,-2830.465,1565.140,-4353.253,-0.072,0.959,-0.262,-3.632,-2.686,-0.427,73.333,653.000,1.000
-22373.205,-28206.808,-69570.132,-75818.651,-443862.707,-2827.228,1490.793,-4433.848,-0.071,0.954,-0.264,-3.326,-2.716,-0.336,73.333,654.000,1.000
-22347.689,-28018.502,-69453.636,-75722.872,-443152.191,-2826.256,1419.199,-4511.791,-0.068,0.954,-0.266,-3.296,-2.716,-0.366,73.333,655.000,1.000
-22331.091,-27843.447,-69337.756,-75627.583,-442438.861,-2830.266,1346.247,-4591.679,-0.068,0.956,-0.265,-2.930,-2.747,-0.275,73.333,656.000,1.000
-22323.167,-27681.156,-69222.283,-75532.568,-441722.530,-2838.853,1270.533,-4675.143,-0.069,0.957,-0.262,-2.655,-2.655,-0.336,73.333,657.000,1.000
-22320.126,-27528.326,-69106.472,-75437.085,-441002.466,-2849.873,1192.784,-4761.336,-0.069,0.955,-0.262,-2.380,-2.655,-0.305,73.333,658.000,1.000
-22319.514,-27382.702,-68989.930,-75340.757,-440278.276,-2862.425,1113.445,-4849.834,-0.068,0.953,-0.264,-2.167,-2.625,-0.214,73.333,659.000,1.000
-22321.510,-27243.892,-68872.819,-75243.770,-439550.111,-2877.151,1032.329,-4941.028,-0.068,0.951,-0.263,-1.923,-2.411,-0.122,73.333,660.000,1.000
-22327.625,-27112.316,-68755.550,-75146.561,-438818.374,-2894.495,950.289,-5034.030,-0.068,0.948,-0.261,-1.526,-2.258,0.092,73.333,661.000,1.000
-22338.137,-26987.487,-68638.394,-75049.410,-438083.336,-2913.396,869.836,-5125.759,-0.065,0.949,-0.261,-1.129,-2.045,-0.031,73.333,662.000,1.000
-22350.835,-26866.373,-68521.009,-74951.973,-437344.689,-2931.559,793.458,-5212.800,-0.066,0.950,-0.265,-0.702,-1.984,0.000,73.333,663.000,1.000
-22362.103,-26744.063,-68402.374,-74853.182,-436601.462,-2946.523,722.242,-5293.478,-0.065,0.953,-0.263,-0.488,-1.831,0.092,73.333,664.000,1.000
-22369.846,-26617.973,-68281.798,-74752.282,-435853.021,-2957.753,655.305,-5369.082,-0.065,0.957,-0.264,-0.244,-1.617,0.061,73.333,665.000,1.000
-22377.523,-26492.218,-68160.014,-74649.955,-435100.139,-2968.881,588.929,-5444.585,-0.062,0.959,-0.261,0.000,-1.495,0.122,73.333,666.000,1.000
-22391.879,-26375.111,-68038.587,-74547.763,-434344.408,-2985.513,518.140,-5525.935,-0.063,0.964,-0.266,0.214,-1.251,0.153,73.333,667.000,1.000
-22416.259,-26272.088,-67918.421,-74446.637,-433586.739,-3010.170,440.694,-5615.198,-0.064,0.966,-0.265,0.336,-1.099,0.092,73.333,668.000,1.000
-22448.125,-26182.286,-67799.197,-74346.320,-432826.816,-3040.664,358.646,-5709.387,-0.067,0.968,-0.261,0.275,-0.885,0.122,73.333,669.000,1.000
-22480.933,-26099.756,-67679.689,-74245.671,-432063.409,-3072.072,276.658,-5803.023,-0.066,0.970,-0.260,0.336,-0.702,0.092,73.333,670.000,1.000
-22508.221,-26017.183,-67558.384,-74143.223,-431294.998,-3099.636,199.124,-5891.337,-0.067,0.970,-0.264,0.275,-0.488,0.122,73.333,671.000,1.000
-22527.103,-25930.306,-67434.469,-74038.136,-430520.775,-3121.472,127.529,-5973.029,-0.070,0.971,-0.266,0.183,-0.427,0.061,73.333,672.000,1.000
-22540.502,-25840.925,-67308.660,-73931.046,-429741.472,-3140.133,59.527,-6051.264,-0.069,0.973,-0.266,0.061,-0.366,0.061,73.333,673.000,1.000
-22556.393,-25755.850,-67182.799,-73823.733,-428958.953,-3161.342,-9.529,-6131.708,-0.070,0.970,-0.267,-0.061,-0.183,-0.031,73.333,674.000,1.000
-22581.985,-25681.256,-67058.341,-73717.614,-428174.691,-3189.718,-83.120,-6218.281,-0.069,0.969,-0.267,-0.214,-0.031,-0.031,73.333,675.000,1.000
-22618.421,-25617.823,-66935.183,-73612.570,-427388.607,-3225.045,-160.578,-6309.834,-0.067,0.971,-0.266,-0.183,0.061,-0.122,73.333,676.000,1.000
-22660.636,-25561.182,-66811.920,-73507.211,-426599.348,-3262.851,-237.884,-6401.205,-0.068,0.974,-0.267,-0.305,0.183,-0.061,73.333,677.000,1.000
-22701.852,-25506.104,-66687.025,-73400.088,-425805.455,-3298.266,-311.304,-6487.456,-0.070,0.977,-0.265,-0.336,0.305,-0.031,73.333,678.000,1.000
-22736.370,-25448.541,-66559.710,-73290.511,-425006.185,-3328.104,-379.416,-6566.343,-0.070,0.976,-0.268,-0.458,0.519,0.092,73.333,679.000,1.000
-22758.450,-25384.072,-66430.014,-73178.572,-424201.587,-3350.161,-442.590,-6637.574,-0.070,0.974,-0.268,-0.671,0.580,0.122,73.333,680.000,1.000
-22763.520,-25307.702,-66298.588,-73064.890,-423392.287,-3363.331,-502.491,-6701.920,-0.067,0.967,-0.268,-0.824,0.671,0.244,73.333,681.000,1.000
-22750.128,-25215.247,-66166.276,-72950.226,-422579.097,-3368.124,-561.723,-6760.984,-0.064,0.963,-0.268,-0.824,0.854,0.183,73.333,682.000,1.000
-22719.821,-25104.244,-66033.588,-72835.013,-421762.512,-3365.841,-622.088,-6816.331,-0.062,0.961,-0.264,-0.885,1.038,0.366,73.333,683.000,1.000
-22676.224,-24974.845,-65900.497,-72719.213,-420942.541,-3357.817,-683.164,-6868.817,-0.061,0.960,-0.263,-0.702,1.221,0.366,73.333,684.000,1.000
-22623.815,-24830.346,-65766.684,-72602.553,-420118.945,-3345.602,-743.423,-6919.109,-0.062,0.961,-0.265,-0.732,1.343,0.458,73.333,685.000,1.000
-22567.267,-24676.516,-65631.895,-72484.826,-419291.519,-3331.168,-802.385,-6968.441,-0.065,0.960,-0.262,-0.885,1.526,0.488,73.333,686.000,1.000
-22509.672,-24518.771,-65496.074,-72365.977,-418460.192,-3316.256,-861.204,-7018.352,-0.067,0.959,-0.262,-0.824,1.556,0.549,73.333,687.000,1.000
-22451.755,-24359.727,-65359.328,-72246.072,-417625.016,-3301.866,-921.613,-7069.934,-0.070,0.955,-0.262,-0.702,1.617,0.610,73.333,688.000,1.000
-22393.384,-24199.831,-65221.920,-72125.347,-416786.227,-3288.553,-984.777,-7123.734,-0.071,0.954,-0.265,-0.702,1.709,0.488,73.333,689.000,1.000
-22334.458,-24038.929,-65084.184,-72004.164,-415944.208,-3276.645,-1050.688,-7179.906,-0.070,0.954,-0.265,-0.549,1.617,0.427,73.333,690.000,1.000
-22275.001,-23876.560,-64946.225,-71882.691,-415099.164,-3265.979,-1118.044,-7238.051,-0.072,0.955,-0.266,-0.427,1.648,0.397,73.333,691.000,1.000
-22214.293,-23711.394,-64807.743,-71760.655,-414250.867,-3255.527,-1184.911,-7297.189,-0.071,0.954,-0.265,-0.244,1.526,0.244,73.333,692.000,1.000
-22151.811,-23542.590,-64668.396,-71637.679,-413398.983,-3244.381,-1250.238,-7356.738,-0.072,0.956,-0.267,-0.092,1.526,0.275,73.333,693.000,1.000
-22089.131,-23371.852,-64528.265,-71513.777,-412543.564,-3233.113,-1314.761,-7417.361,-0.072,0.959,-0.268,-0.031,1.465,0.183,73.333,694.000,1.000
-22028.358,-23202.099,-64387.702,-71389.260,-411684.932,-3222.858,-1379.788,-7479.899,-0.071,0.958,-0.266,0.031,1.617,0.183,73.333,695.000,1.000
-21969.963,-23034.714,-64246.901,-71264.325,-410823.267,-3213.607,-1445.362,-7543.775,-0.074,0.958,-0.268,0.122,1.495,0.031,73.333,696.000,1.000
-21912.186,-22868.587,-64105.780,-71138.926,-409958.504,-3204.110,-1510.161,-7607.019,-0.074,0.961,-0.267,0.122,1.404,-0.031,73.333,697.000,1.000
-21852.654,-22701.503,-63964.157,-71012.931,-409090.504,-3193.130,-1572.785,-7667.633,-0.075,0.962,-0.269,0.031,1.373,-0.031,73.333,698.000,1.000
-21790.577,-22532.214,-63821.952,-70886.293,-408219.222,-3180.617,-1632.931,-7724.864,-0.074,0.962,-0.266,0.000,1.312,-0.092,73.333,699.000,1.000
-21726.891,-22361.031,-63679.294,-70759.143,-407344.822,-3167.884,-1691.861,-7779.659,-0.073,0.964,-0.265,0.031,1.343,-0.092,73.333,700.000,1.000
-21663.821,-22189.368,-63536.467,-70631.738,-406467.644,-3156.831,-1751.879,-7834.240,-0.073,0.965,-0.268,0.061,1.343,0.000,73.333,701.000,1.000
-21603.054,-22018.294,-63393.548,-70504.130,-405587.825,-3148.327,-1814.675,-7890.578,-0.071,0.963,-0.268,0.031,1.312,0.153,73.333,702.000,1.000
-21544.579,-21847.620,-63250.190,-70375.967,-404705.051,-3141.689,-1880.304,-7949.172,-0.071,0.962,-0.268,0.122,1.282,0.122,73.333,703.000,1.000
-21487.927,-21676.977,-63106.003,-70246.847,-403818.912,-3135.977,-1947.957,-8009.606,-0.071,0.960,-0.267,0.000,1.282,0.122,73.333,704.000,1.000
-21432.741,-21506.573,-62960.954,-70116.728,-402929.337,-3130.617,-2016.240,-8071.041,-0.070,0.959,-0.270,0.000,1.404,0.275,73.333,705.000,1.000
-21378.539,-21336.528,-62815.269,-69985.849,-402036.522,-3124.807,-2082.731,-8131.739,-0.072,0.959,-0.270,0.000,1.373,0.305,73.333,706.000,1.000
-21323.834,-21165.823,-62669.091,-69854.379,-401140.596,-3117.260,-2145.292,-8189.708,-0.071,0.956,-0.266,-0.061,1.373,0.458,73.333,707.000,1.000
-21266.868,-20992.881,-62522.434,-69722.337,-400241.584,-3107.108,-2203.941,-8244.423,-0.071,0.956,-0.264,-0.092,1.434,0.580,73.333,708.000,1.000
-21207.745,-20817.699,-62375.392,-69589.799,-399339.638,-3095.091,-2260.974,-8297.446,-0.071,0.954,-0.267,-0.183,1.495,0.549,73.333,709.000,1.000
-21148.482,-20642.630,-62228.167,-69456.948,-398435.049,-3083.534,-2319.804,-8351.462,-0.071,0.955,-0.264,0.000,1.556,0.549,73.333,710.000,1.000
-21091.491,-20470.832,-62080.795,-69323.820,-397527.908,-3074.694,-2382.772,-8408.488,-0.070,0.955,-0.266,0.000,1.587,0.671,73.333,711.000,1.000
-21037.066,-20303.425,-61932.982,-69190.150,-396617.939,-3068.784,-2449.179,-8468.396,-0.067,0.953,-0.265,0.153,1.678,0.671,73.333,712.000,1.000
-20983.196,-20138.654,-61784.467,-69055.711,-395704.861,-3064.141,-2515.902,-8529.194,-0.067,0.952,-0.261,0.153,1.587,0.641,73.333,713.000,1.000
-20927.745,-19973.501,-61635.305,-68920.565,-394788.693,-3058.819,-2579.769,-8588.479,-0.069,0.952,-0.262,0.153,1.648,0.580,73.333,714.000,1.000
-20869.379,-19805.084,-61485.586,-68784.785,-393869.511,-3051.400,-2639.368,-8644.666,-0.069,0.952,-0.263,0.183,1.678,0.488,73.333,715.000,1.000
-20808.902,-19632.610,-61335.363,-68648.398,-392947.401,-3041.862,-2695.746,-8698.142,-0.069,0.952,-0.265,0.214,1.678,0.366,73.333,716.000,1.000
-20749.380,-19458.553,-61185.010,-68511.733,-392022.796,-3032.113,-2751.739,-8751.331,-0.070,0.954,-0.265,0.183,1.740,0.336,73.333,717.000,1.000
-20693.727,-19286.507,-61035.029,-68375.237,-391096.233,-3024.551,-2809.855,-8806.583,-0.070,0.955,-0.263,0.275,1.587,0.275,73.333,718.000,1.000
-20642.212,-19117.924,-60885.446,-68238.905,-390167.731,-3019.967,-2870.516,-8864.050,-0.072,0.957,-0.260,0.519,1.282,0.244,73.333,719.000,1.000
-20592.015,-18951.202,-60735.727,-68102.243,-389236.716,-3017.257,-2932.422,-8921.908,-0.069,0.959,-0.269,0.549,1.221,0.061,73.333,720.000,1.000
-20539.871,-18783.567,-60585.233,-67964.698,-388302.511,-3014.878,-2993.958,-8978.140,-0.071,0.959,-0.267,0.214,1.617,-0.153,73.333,721.000,1.000
-20483.895,-18612.941,-60433.597,-67825.984,-387364.773,-3011.736,-3053.896,-9031.722,-0.072,0.956,-0.265,0.214,1.709,-0.092,73.333,722.000,1.000
-20424.160,-18438.962,-60280.783,-67686.098,-386423.578,-3007.117,-3111.748,-9082.827,-0.071,0.957,-0.266,0.092,1.709,-0.275,73.333,723.000,1.000
-20363.042,-18263.531,-60126.976,-67545.207,-385479.231,-3000.647,-3167.925,-9132.708,-0.071,0.958,-0.266,0.061,1.678,-0.336,73.333,724.000,1.000
-20303.815,-18089.892,-59972.497,-67403.584,-384532.111,-2992.261,-3222.860,-9182.908,-0.072,0.957,-0.265,0.000,1.770,-0.458,73.333,725.000,1.000
-20248.804,-17920.713,-59817.698,-67261.529,-383582.554,-2982.184,-3276.375,-9234.045,-0.072,0.959,-0.269,-0.031,1.709,-0.397,73.333,726.000,1.000
-20197.782,-17756.488,-59662.806,-67119.231,-382630.732,-2971.111,-3329.079,-9285.816,-0.072,0.958,-0.270,-0.061,1.678,-0.610,73.333,727.000,1.000
-20148.437,-17595.611,-59507.854,-66976.715,-381676.624,-2960.444,-3383.556,-9338.220,-0.073,0.958,-0.270,-0.031,1.648,-0.519,73.333,728.000,1.000
-20097.751,-17435.078,-59352.603,-66833.756,-380719.957,-2951.362,-3442.244,-9391.624,-0.074,0.959,-0.269,0.000,1.709,-0.610,73.333,729.000,1.000
-20042.650,-17271.157,-59196.561,-66689.885,-379760.240,-2943.529,-3504.434,-9445.627,-0.075,0.960,-0.269,-0.092,1.678,-0.580,73.333,730.000,1.000
-19982.327,-17101.800,-59039.393,-66544.785,-378797.175,-2935.892,-3566.888,-9499.238,-0.077,0.959,-0.266,-0.031,1.617,-0.488,73.333,731.000,1.000
-19919.046,-16928.352,-58881.276,-66398.654,-377831.021,-2928.292,-3627.148,-9552.140,-0.078,0.961,-0.265,-0.153,1.495,-0.549,73.333,732.000,1.000
-19856.391,-16754.503,-58722.764,-66252.067,-376862.426,-2921.525,-3685.291,-9605.037,-0.079,0.962,-0.266,-0.153,1.465,-0.641,73.333,733.000,1.000
-19797.188,-16583.938,-58564.355,-66105.528,-375891.943,-2916.208,-3743.049,-9658.914,-0.079,0.964,-0.264,-0.061,1.312,-0.641,73.333,734.000,1.000
-19741.583,-16418.060,-58406.119,-65959.089,-374919.640,-2911.629,-3801.697,-9713.858,-0.082,0.966,-0.261,0.031,1.282,-0.580,73.333,735.000,1.000
-19687.415,-16255.572,-58247.660,-65812.295,-373945.058,-2905.803,-3860.500,-9768.302,-0.088,0.964,-0.261,0.031,1.038,-0.610,73.333,736.000,1.000
-19631.751,-16093.842,-58088.514,-65664.636,-372967.676,-2896.974,-3917.300,-9819.923,-0.086,0.964,-0.260,0.092,0.854,-0.702,73.333,737.000,1.000
-19572.741,-15930.682,-57928.671,-65516.116,-371987.476,-2885.280,-3970.738,-9867.682,-0.081,0.969,-0.261,0.153,0.671,-0.610,73.333,738.000,1.000
-19510.662,-15765.232,-57768.497,-65367.154,-371004.872,-2872.669,-4021.664,-9912.760,-0.080,0.972,-0.258,0.275,0.488,-0.488,73.333,739.000,1.000
-19447.113,-15597.830,-57608.276,-65218.055,-370020.214,-2861.391,-4072.686,-9957.739,-0.084,0.971,-0.256,0.427,0.336,-0.275,73.333,740.000,1.000
-19384.483,-15429.761,-57448.039,-65068.830,-369033.573,-2852.862,-4126.358,-10005.032,-0.090,0.970,-0.255,0.275,0.275,-0.183,73.333,741.000,1.000
-19323.981,-15261.639,-57287.533,-64919.217,-368044.710,-2846.567,-4182.920,-10055.045,-0.090,0.967,-0.257,0.366,0.214,0.000,73.333,742.000,1.000
-19264.360,-15092.245,-57126.274,-64768.748,-367053.145,-2839.997,-4239.898,-10105.692,-0.090,0.968,-0.259,0.336,-0.061,-0.061,73.333,743.000,1.000
-19203.687,-14920.182,-56963.923,-64617.112,-366058.573,-2830.763,-4294.583,-10154.444,-0.090,0.970,-0.258,0.366,-0.305,0.000,73.333,744.000,1.000
-19140.804,-14745.530,-56800.613,-64464.456,-365061.178,-2818.497,-4346.360,-10200.425,-0.091,0.971,-0.255,0.397,-0.488,0.275,73.333,745.000,1.000
-19075.893,-14569.807,-56636.807,-64311.229,-364061.426,-2804.605,-4396.453,-10244.400,-0.090,0.971,-0.258,0.458,-0.671,0.397,73.333,746.000,1.000
-19009.439,-14394.487,-56472.859,-64157.765,-363059.619,-2790.562,-4446.343,-10287.427,-0.088,0.972,-0.257,0.397,-0.885,0.580,73.333,747.000,1.000
-18941.449,-14219.797,-56308.759,-64004.058,-362055.720,-2776.949,-4496.901,-10330.025,-0.088,0.973,-0.256,0.397,-1.068,0.916,73.333,748.000,1.000
-18872.331,-14045.446,-56144.353,-63849.958,-361049.604,-2764.108,-4548.874,-10372.752,-0.088,0.974,-0.256,0.305,-1.068,1.190,73.333,749.000,1.000
-18803.009,-13871.529,-55979.721,-63695.534,-360041.404,-2752.534,-4603.210,-10416.749,-0.089,0.970,-0.253,0.214,-1.312,1.495,73.333,750.000,1.000
-18734.536,-13698.358,-55815.157,-63541.060,-359031.459,-2742.232,-4660.062,-10462.839,-0.090,0.970,-0.251,0.275,-1.312,1.770,73.333,751.000,1.000
-18667.036,-13525.700,-55650.898,-63386.763,-358020.025,-2732.390,-4718.190,-10510.561,-0.090,0.967,-0.254,0.336,-1.404,2.075,73.333,752.000,1.000
-18599.509,-13352.691,-55487.003,-63232.709,-357007.159,-2722.204,-4775.853,-10558.573,-0.090,0.964,-0.252,0.488,-1.526,2.380,73.333,753.000,1.000
-18530.444,-13177.803,-55323.283,-63078.713,-355992.639,-2711.224,-4831.542,-10605.096,-0.087,0.964,-0.251,0.580,-1.740,2.808,73.333,754.000,1.000
-18458.291,-12998.175,-55159.131,-62924.169,-354975.827,-2698.624,-4884.265,-10647.904,-0.088,0.961,-0.254,0.671,-1.892,2.991,73.333,755.000,1.000
-18383.807,-12810.336,-54993.684,-62768.206,-353955.897,-2683.125,-4934.337,-10685.416,-0.085,0.960,-0.257,0.885,-1.892,3.204,73.333,756.000,1.000
-18310.018,-12611.664,-54826.287,-62610.159,-352932.306,-2663.383,-4983.216,-10717.989,-0.082,0.957,-0.253,0.916,-1.923,3.387,73.333,757.000,1.000
-18238.883,-12401.545,-54656.897,-62449.976,-351905.124,-2638.624,-5031.874,-10747.573,-0.080,0.954,-0.255,1.007,-2.014,3.571,73.333,758.000,1.000
-18169.166,-12182.155,-54486.209,-62288.354,-350875.094,-2609.709,-5080.254,-10776.586,-0.076,0.953,-0.255,1.129,-1.953,3.662,73.333,759.000,1.000
-18096.332,-11957.283,-54315.222,-62126.333,-349843.205,-2578.968,-5128.040,-10806.883,-0.076,0.957,-0.258,1.221,-1.892,3.662,73.333,760.000,1.000
-18014.838,-11730.259,-54144.510,-61964.561,-348809.986,-2548.643,-5175.120,-10839.101,-0.074,0.956,-0.263,1.373,-1.831,3.784,73.333,761.000,1.000
-17921.020,-11503.004,-53974.028,-61803.038,-347775.316,-2519.817,-5221.833,-10872.949,-0.074,0.956,-0.259,1.617,-1.740,3.815,73.333,762.000,1.000
-17815.686,-11276.725,-53803.549,-61641.500,-346738.892,-2492.847,-5269.128,-10908.058,-0.068,0.956,-0.265,1.740,-1.648,3.937,73.333,763.000,1.000
-17704.315,-11052.545,-53632.977,-61479.759,-345700.574,-2467.860,-5317.917,-10944.281,-0.063,0.953,-0.264,1.801,-1.495,3.967,73.333,764.000,1.000
-17593.309,-10830.920,-53462.261,-61317.717,-344660.362,-2444.538,-5368.366,-10981.499,-0.063,0.951,-0.261,2.014,-1.282,4.059,73.333,765.000,1.000
-17487.015,-10612.030,-53291.378,-61155.366,-343618.359,-2422.611,-5420.281,-11019.864,-0.059,0.947,-0.266,2.228,-1.190,4.211,73.333,766.000,1.000
-17386.533,-10396.488,-53120.383,-60992.796,-342574.740,-2402.282,-5473.395,-11059.864,-0.061,0.948,-0.264,2.502,-0.824,4.150,73.333,767.000,1.000
-17290.636,-10185.176,-52949.410,-60830.160,-341529.668,-2383.867,-5526.802,-11101.586,-0.059,0.950,-0.263,2.808,-0.580,4.333,73.333,768.000,1.000
-17198.254,-9979.035,-52778.708,-60667.713,-340483.342,-2367.631,-5579.131,-11144.338,-0.058,0.953,-0.264,3.113,-0.214,4.333,73.333,769.000,1.000
-17109.340,-9778.827,-52608.556,-60505.728,-339435.999,-2353.895,-5629.891,-11187.320,-0.056,0.952,-0.266,3.235,0.031,4.303,73.333,770.000,1.000
-17024.822,-9585.179,-52439.008,-60344.249,-338387.713,-2343.076,-5680.326,-11230.672,-0.056,0.955,-0.267,3.326,0.244,4.456,73.333,771.000,1.000
-16945.349,-9398.052,-52269.668,-60182.875,-337338.126,-2335.071,-5732.471,-11275.329,-0.052,0.956,-0.266,3.357,0.488,4.486,73.333,772.000,1.000
-16870.751,-9216.165,-52099.816,-60020.891,-336286.527,-2328.768,-5787.240,-11321.754,-0.053,0.956,-0.267,3.540,0.824,4.486,73.333,773.000,1.000
-16801.180,-9037.894,-51928.928,-59857.779,-335232.384,-2322.867,-5843.584,-11369.558,-0.054,0.957,-0.270,3.571,1.007,4.517,73.333,774.000,1.000
-16737.062,-8862.436,-51757.071,-59693.596,-334175.766,-2316.957,-5899.280,-11418.130,-0.054,0.956,-0.271,3.845,1.312,4.578,73.333,775.000,1.000
-16678.787,-8690.559,-51584.769,-59528.857,-333117.236,-2311.869,-5952.482,-11467.008,-0.053,0.955,-0.270,3.937,1.556,4.578,73.333,776.000,1.000
-16626.125,-8524.249,-51412.554,-59364.106,-332057.378,-2308.913,-6002.876,-11515.829,-0.051,0.958,-0.271,3.998,1.892,4.517,73.333,777.000,1.000
-16578.286,-8365.504,-51240.570,-59199.514,-330996.381,-2308.528,-6051.168,-11564.126,-0.053,0.961,-0.270,4.089,2.106,4.547,73.333,778.000,1.000
-16534.911,-8215.596,-51068.582,-59034.855,-329934.012,-2310.030,-6098.005,-11611.466,-0.055,0.966,-0.268,4.242,2.350,4.547,73.333,779.000,1.000
-16496.271,-8075.223,-50896.474,-58869.989,-328870.119,-2313.061,-6144.441,-11658.382,-0.055,0.971,-0.273,4.059,2.350,4.425,73.333,780.000,1.000
-16463.740,-7945.516,-50724.799,-58705.425,-327805.198,-2319.232,-6193.050,-11707.343,-0.056,0.972,-0.274,3.967,2.563,4.517,73.333,781.000,1.000
-16438.446,-7827.271,-50554.440,-58542.037,-326740.131,-2330.982,-6246.601,-11761.256,-0.057,0.969,-0.276,3.632,2.655,4.547,73.333,782.000,1.000
-16419.210,-7718.525,-50385.499,-58379.959,-325675.083,-2348.361,-6304.842,-11820.037,-0.054,0.966,-0.277,3.510,2.716,4.395,73.333,783.000,1.000
-16403.351,-7614.946,-50216.970,-58218.245,-324609.140,-2368.360,-6364.235,-11880.128,-0.054,0.963,-0.276,3.479,2.838,4.395,73.333,784.000,1.000
-16388.777,-7512.983,-50047.712,-58055.793,-323541.209,-2387.547,-6421.196,-11937.741,-0.052,0.961,-0.277,3.479,2.838,4.150,73.333,785.000,1.000
-16374.976,-7411.574,-49877.256,-57892.101,-322470.793,-2404.137,-6473.952,-11991.085,-0.050,0.962,-0.279,3.296,2.991,4.028,73.333,786.000,1.000
-16361.570,-7311.067,-49705.725,-57727.200,-321397.952,-2417.866,-6521.942,-12039.996,-0.050,0.963,-0.281,3.357,3.052,3.906,73.333,787.000,1.000
-16348.110,-7212.715,-49533.538,-57561.451,-320323.101,-2429.886,-6566.058,-12085.804,-0.051,0.961,-0.279,3.357,3.143,3.784,73.333,788.000,1.000
-16335.334,-7118.831,-49361.144,-57395.325,-319246.763,-2442.561,-6609.342,-12131.412,-0.048,0.961,-0.279,3.387,3.174,3.693,73.333,789.000,1.000
-16324.384,-7031.499,-49188.753,-57229.102,-318169.237,-2457.770,-6655.279,-12179.603,-0.049,0.963,-0.280,3.387,3.174,3.601,73.333,790.000,1.000
-16316.318,-6951.895,-49016.385,-57062.867,-317090.584,-2475.724,-6705.039,-12230.986,-0.048,0.961,-0.279,3.326,3.296,3.571,73.333,791.000,1.000
-16311.403,-6880.098,-48844.031,-56896.638,-316010.768,-2495.201,-6756.795,-12283.730,-0.048,0.960,-0.280,3.326,3.296,3.387,73.333,792.000,1.000
-16308.228,-6814.448,-48671.666,-56730.369,-314929.721,-2514.311,-6807.145,-12334.797,-0.048,0.959,-0.280,3.418,3.418,3.357,73.333,793.000,1.000
-16303.717,-6751.249,-48499.171,-56563.870,-313847.307,-2531.092,-6852.965,-12381.287,-0.050,0.958,-0.280,3.479,3.479,3.265,73.333,794.000,1.000
-16293.059,-6684.620,-48326.167,-56396.706,-312763.165,-2543.500,-6892.797,-12421.054,-0.052,0.960,-0.276,3.601,3.571,3.235,73.333,795.000,1.000
-16270.993,-6607.292,-48151.913,-56228.127,-311676.586,-2549.390,-6927.542,-12453.182,-0.051,0.960,-0.274,3.632,3.448,3.143,73.333,796.000,1.000
-16233.961,-6513.242,-47975.663,-56057.412,-310586.850,-2547.443,-6960.207,-12478.871,-0.052,0.956,-0.274,3.448,3.510,3.052,73.333,797.000,1.000
-16183.223,-6402.052,-47797.584,-55884.765,-309494.144,-2539.203,-6994.754,-12501.850,-0.052,0.948,-0.274,3.418,3.418,3.052,73.333,798.000,1.000
-16125.237,-6279.928,-47618.988,-55711.527,-308399.791,-2528.924,-7034.062,-12526.568,-0.050,0.943,-0.274,3.632,3.448,2.899,73.333,799.000,1.000
-16066.055,-6153.943,-47441.083,-55538.931,-307305.009,-2519.747,-7077.916,-12555.022,-0.049,0.947,-0.275,3.876,3.418,2.777,73.333,800.000,1.000
-16007.618,-6027.159,-47263.990,-55367.114,-306209.941,-2511.427,-7123.242,-12585.946,-0.048,0.949,-0.275,4.059,3.387,2.625,73.333,801.000,1.000
-15948.598,-5899.056,-47087.083,-55195.447,-305113.984,-2501.767,-7166.415,-12616.545,-0.046,0.955,-0.275,4.120,3.357,2.533,73.333,802.000,1.000
-15886.539,-5767.675,-46909.597,-55023.125,-304016.379,-2488.682,-7205.353,-12644.298,-0.046,0.959,-0.277,4.059,3.418,2.533,73.333,803.000,1.000
-15819.981,-5631.686,-46731.045,-54849.612,-302916.612,-2471.737,-7240.767,-12668.735,-0.047,0.961,-0.277,3.937,3.387,2.502,73.333,804.000,1.000
-15749.523,-5492.002,-46551.591,-54675.056,-301814.828,-2452.686,-7275.688,-12692.098,-0.046,0.961,-0.275,3.815,3.326,2.502,73.333,805.000,1.000
-15677.819,-5351.513,-46371.909,-54500.151,-300711.709,-2434.156,-7312.678,-12717.196,-0.046,0.961,-0.274,3.754,3.204,2.441,73.333,806.000,1.000
-15607.059,-5212.111,-46192.496,-54325.418,-299607.777,-2417.406,-7351.835,-12744.807,-0.047,0.961,-0.276,3.754,3.143,2.472,73.333,807.000,1.000
-15536.880,-5072.208,-46013.168,-54150.690,-298502.870,-2401.559,-7391.613,-12773.520,-0.047,0.958,-0.278,3.571,3.021,2.289,73.333,808.000,1.000
-15465.566,-4928.270,-45833.295,-53975.329,-297396.383,-2385.046,-7430.706,-12801.499,-0.046,0.953,-0.279,3.387,3.052,2.167,73.333,809.000,1.000
-15392.507,-4778.925,-45652.699,-53799.139,-296288.182,-2367.939,-7469.290,-12828.325,-0.045,0.949,-0.281,3.418,3.021,2.045,73.333,810.000,1.000
-15319.628,-4626.948,-45472.066,-53622.790,-295179.012,-2352.378,-7508.679,-12855.008,-0.044,0.946,-0.284,3.357,3.082,1.831,73.333,811.000,1.000
-15248.706,-4475.973,-45292.100,-53446.991,-294069.621,-2339.742,-7549.558,-12882.114,-0.045,0.948,-0.280,3.296,3.082,1.709,73.333,812.000,1.000
-15179.032,-4327.179,-45112.763,-53271.720,-292959.980,-2328.828,-7591.222,-12909.113,-0.046,0.954,-0.279,3.510,2.991,1.526,73.333,813.000,1.000
-15108.968,-4180.187,-44933.600,-53096.547,-291849.626,-2317.391,-7632.423,-12935.539,-0.046,0.958,-0.279,3.662,2.777,1.343,73.333,814.000,1.000
-15037.443,-4034.587,-44754.219,-52921.112,-290738.156,-2304.065,-7672.290,-12961.556,-0.048,0.959,-0.279,3.418,2.563,1.251,73.333,815.000,1.000
-14964.884,-3890.424,-44574.407,-52745.248,-289625.352,-2289.314,-7711.007,-12987.999,-0.045,0.958,-0.279,3.357,2.380,1.160,73.333,816.000,1.000
-14892.038,-3747.222,-44394.017,-52568.819,-288511.061,-2274.624,-7749.547,-13015.848,-0.044,0.956,-0.280,3.113,2.289,0.946,73.333,817.000,1.000
-14818.479,-3602.966,-44212.808,-52391.535,-287395.049,-2260.577,-7788.484,-13045.115,-0.040,0.952,-0.281,3.021,2.350,0.916,73.333,818.000,1.000
-14744.059,-3455.813,-44030.748,-52213.270,-286277.296,-2246.904,-7827.780,-13075.058,-0.039,0.948,-0.283,2.930,2.228,0.916,73.333,819.000,1.000
-14669.912,-3305.807,-43848.314,-52034.434,-285158.277,-2233.752,-7867.161,-13104.971,-0.037,0.947,-0.285,3.021,2.258,0.946,73.333,820.000,1.000
