EEG 1,EEG 2,EEG 3,EEG 4,EEG 5,EEG 6,EEG 7,EEG 8,Accelerometer X,Accelerometer Y,Accelerometer Z,Gyroscope X,Gyroscope Y,Gyroscope Z,Battery Level,Counter,Validation Indicator
-7587.789,-4617.546,-4572.392,-3796.345,-3269.197,4955.313,-1554.083,3373.113,-0.130,0.927,-0.293,0.000,0.000,0.000,80.000,1.000,1.000
-53183.508,-36128.588,-34001.148,-29068.607,-23898.931,34675.328,-4471.533,20782.294,-0.135,0.930,-0.304,0.000,0.000,0.000,80.000,2.000,1.000
-177671.370,-131798.933,-119639.823,-106775.511,-82529.818,115822.034,8086.665,57303.431,-0.134,0.934,-0.308,0.000,0.000,0.000,80.000,3.000,1.000
-387170.351,-307745.787,-271710.635,-257291.130,-182447.089,252402.918,64212.439,93681.736,-0.134,0.938,-0.311,0.000,0.000,0.000,80.000,4.000,1.000
-635797.318,-522851.911,-459029.917,-468494.387,-294350.186,414523.907,160425.925,98139.058,-0.135,0.938,-0.306,-0.061,-0.122,-0.488,80.000,5.000,1.000
-855878.998,-691948.888,-625232.397,-694026.393,-371344.630,558052.290,245233.650,56099.911,-0.133,0.937,-0.308,0.183,-2.045,-6.409,80.000,6.000,1.000
-987575.948,-739096.077,-714733.715,-861715.374,-378285.863,647889.964,262103.866,-20746.955,-0.134,0.935,-0.310,-0.061,-1.251,-2.747,80.000,7.000,1.000
-982234.295,-641835.900,-692981.065,-896571.342,-311412.947,671528.310,186471.935,-104277.699,-0.133,0.934,-0.310,0.183,-1.007,-1.587,80.000,8.000,1.000
-808061.890,-436144.119,-563736.926,-762286.713,-197575.744,643361.732,17780.366,-162718.482,-0.134,0.935,-0.314,0.244,-0.854,-1.160,80.000,9.000,1.000
-480864.040,-190280.686,-370892.280,-490638.439,-77877.733,596008.206,-226702.628,-175290.575,-0.136,0.937,-0.315,0.366,-0.824,-0.916,80.000,10.000,1.000
-78668.398,29816.788,-175077.474,-167753.054,12545.491,559603.686,-496448.965,-144700.081,-0.138,0.941,-0.314,0.458,-0.854,-0.854,80.000,11.000,1.000
295014.106,188113.964,-22134.456,112974.877,59795.309,542441.024,-717588.837,-95194.712,-0.137,0.941,-0.312,0.519,-0.854,-0.793,80.000,12.000,1.000
560957.436,289008.828,71234.988,294468.437,73140.930,529261.550,-834233.857,-54330.703,-0.139,0.943,-0.316,0.488,-0.977,-0.793,80.000,13.000,1.000
686939.335,361951.950,110874.927,370410.957,71229.620,498714.598,-833040.503,-34627.853,-0.138,0.943,-0.317,0.183,-1.038,-0.763,80.000,14.000,1.000
688897.395,428946.992,112207.542,371824.152,65794.813,442049.817,-735010.955,-31476.491,-0.138,0.944,-0.317,0.122,-0.946,-0.671,80.000,15.000,1.000
620991.269,488168.231,92521.016,342219.309,58626.836,365905.155,-579241.149,-35137.268,-0.139,0.943,-0.316,-0.031,-1.068,-0.580,80.000,16.000,1.000
551063.205,529081.018,68619.240,315623.434,50217.222,282661.113,-414254.934,-40990.288,-0.139,0.942,-0.317,-0.153,-1.007,-0.519,80.000,17.000,1.000
524601.135,551823.266,53842.657,305672.274,45254.799,203005.499,-286827.123,-48671.965,-0.138,0.941,-0.315,-0.336,-1.190,-0.488,80.000,18.000,1.000
541689.140,564720.084,53051.685,308852.319,47873.882,135735.780,-221477.629,-56135.406,-0.141,0.943,-0.316,-0.488,-1.251,-0.458,80.000,19.000,1.000
570450.112,570561.563,61219.492,316198.980,55230.266,88231.923,-207618.346,-58929.559,-0.139,0.944,-0.316,-0.702,-1.343,-0.244,80.000,20.000,1.000
584008.187,565085.040,69242.895,322282.886,59792.318,62961.939,-212511.327,-55291.920,-0.140,0.945,-0.317,-0.885,-1.373,-0.275,80.000,21.000,1.000
581834.428,548552.363,72028.625,325849.948,57862.646,54510.840,-210231.318,-48895.542,-0.138,0.940,-0.314,-1.129,-1.373,-0.214,80.000,22.000,1.000
577693.103,531429.603,70952.854,326298.462,53183.410,52968.248,-197623.575,-44772.523,-0.139,0.938,-0.317,-1.282,-1.526,-0.092,80.000,23.000,1.000
576742.986,524755.420,69564.996,322699.669,51400.802,51164.667,-184389.329,-43740.939,-0.137,0.937,-0.317,-1.465,-1.495,-0.031,80.000,24.000,1.000
571730.625,528158.798,68887.146,315973.330,53169.845,47947.689,-174705.440,-42526.974,-0.138,0.936,-0.316,-1.617,-1.617,0.092,80.000,25.000,1.000
557768.601,531605.726,67589.555,309597.998,54530.087,44957.199,-163484.565,-38787.808,-0.140,0.938,-0.318,-1.801,-1.648,0.092,80.000,26.000,1.000
541260.738,528082.152,65246.815,306664.290,52918.126,42269.278,-147378.008,-34061.657,-0.140,0.941,-0.320,-1.923,-1.740,0.183,80.000,27.000,1.000
530814.323,520628.901,63503.102,306777.090,50318.103,38309.091,-131839.565,-31242.212,-0.139,0.942,-0.321,-2.167,-1.892,0.183,80.000,28.000,1.000
524575.384,516102.298,63830.296,306891.488,49972.615,32785.700,-124258.887,-30647.170,-0.140,0.944,-0.321,-2.502,-2.075,0.183,80.000,29.000,1.000
512214.332,515639.049,65426.212,305003.590,51877.875,27686.285,-123845.899,-29949.578,-0.139,0.943,-0.321,-2.808,-2.197,0.275,80.000,30.000,1.000
488566.361,514327.034,66186.926,302026.944,53101.930,24888.335,-122563.347,-27498.661,-0.139,0.944,-0.325,-3.265,-2.319,0.214,80.000,31.000,1.000
460388.176,508846.063,65254.662,299880.232,51872.369,23874.835,-115271.747,-24280.625,-0.139,0.946,-0.325,-3.662,-2.380,0.122,80.000,32.000,1.000
437962.694,501836.042,63759.820,298772.704,49662.262,22591.547,-105207.885,-22240.901,-0.137,0.949,-0.326,-4.150,-2.594,0.092,80.000,33.000,1.000
423477.631,497780.811,63114.042,297245.564,48894.468,20024.021,-98461.069,-21683.051,-0.136,0.949,-0.326,-4.456,-2.808,0.122,80.000,34.000,1.000
410779.291,497009.113,63342.969,294464.263,49817.607,17058.900,-95971.432,-21172.089,-0.135,0.947,-0.330,-4.852,-2.899,0.092,80.000,35.000,1.000
394873.334,495840.151,63433.876,291391.038,50593.530,14909.219,-93447.553,-19610.740,-0.137,0.947,-0.332,-5.371,-2.991,-0.031,80.000,36.000,1.000
377742.724,491746.993,62821.158,289386.589,49930.786,13552.046,-87881.673,-17496.210,-0.138,0.948,-0.330,-5.859,-3.113,-0.122,80.000,37.000,1.000
364066.244,486200.702,61957.065,288381.602,48544.242,12093.593,-81188.089,-15972.561,-0.139,0.948,-0.331,-6.287,-3.235,-0.122,80.000,38.000,1.000
354315.485,482072.765,61513.964,287090.920,47878.757,10131.803,-76841.300,-15310.238,-0.140,0.949,-0.333,-6.805,-3.387,-0.183,80.000,39.000,1.000
344599.949,479878.857,61527.635,284773.548,48217.273,8146.673,-75101.234,-14787.689,-0.143,0.951,-0.337,-7.324,-3.571,-0.092,80.000,40.000,1.000
332237.839,477719.545,61511.418,282079.128,48598.047,6668.973,-73203.822,-13773.294,-0.140,0.951,-0.337,-7.904,-3.784,-0.031,80.000,41.000,1.000
318885.174,474143.479,61130.042,280014.879,48225.876,5604.928,-69340.686,-12409.861,-0.141,0.949,-0.339,-8.392,-3.998,-0.153,80.000,42.000,1.000
307699.576,469745.727,60502.406,278620.352,47343.513,4527.658,-64647.606,-11221.925,-0.141,0.954,-0.342,-8.942,-4.120,-0.092,80.000,43.000,1.000
299246.508,465911.970,59941.019,277083.480,46692.154,3275.695,-61135.366,-10435.166,-0.141,0.956,-0.345,-9.583,-4.242,-0.122,80.000,44.000,1.000
291435.489,463013.131,59614.132,274919.773,46574.360,2006.170,-59064.885,-9856.218,-0.139,0.956,-0.346,-10.315,-4.425,-0.092,80.000,45.000,1.000
282593.280,460332.480,59463.917,272534.677,46672.561,851.077,-57133.213,-9206.452,-0.139,0.954,-0.342,-10.956,-4.639,0.000,80.000,46.000,1.000
273181.451,457203.976,59299.736,270555.973,46551.550,-198.119,-54463.913,-8371.011,-0.139,0.953,-0.344,-11.658,-4.761,0.092,80.000,47.000,1.000
264545.569,453621.445,58939.738,269001.210,46087.359,-1131.795,-51437.067,-7413.712,-0.139,0.953,-0.348,-12.268,-4.974,0.061,80.000,48.000,1.000
257126.679,449931.623,58376.791,267367.680,45478.656,-1909.387,-48755.663,-6518.509,-0.139,0.950,-0.349,-13.031,-5.066,0.031,80.000,49.000,1.000
250357.974,446445.749,57840.048,265357.444,45027.555,-2630.467,-46550.166,-5874.087,-0.139,0.951,-0.347,-13.672,-5.280,-0.031,80.000,50.000,1.000
243630.210,443342.452,57579.398,263199.666,44893.929,-3490.662,-44579.194,-5465.762,-0.137,0.947,-0.352,-14.496,-5.249,0.031,80.000,51.000,1.000
236763.863,440539.850,57534.307,261252.691,44928.125,-4472.545,-42698.256,-5004.020,-0.138,0.945,-0.346,-15.045,-5.341,0.000,80.000,52.000,1.000
229858.263,437591.280,57340.285,259542.498,44761.445,-5274.768,-40790.580,-4222.273,-0.140,0.946,-0.341,-15.656,-5.493,0.122,80.000,53.000,1.000
223223.370,434073.191,56776.251,257821.291,44201.327,-5712.956,-38644.967,-3259.335,-0.141,0.948,-0.330,-16.479,-5.615,0.244,80.000,54.000,1.000
217311.901,430222.009,56102.436,255936.618,43529.652,-6050.771,-36308.433,-2557.950,-0.140,0.950,-0.324,-17.303,-5.768,0.305,80.000,55.000,1.000
212215.090,426810.543,55745.770,253952.801,43208.010,-6695.815,-34293.594,-2290.231,-0.135,0.946,-0.318,-18.188,-5.920,0.336,80.000,56.000,1.000
207267.878,424068.561,55623.655,251899.976,43182.025,-7612.083,-32970.714,-2065.403,-0.130,0.939,-0.315,-19.043,-5.951,0.458,80.000,57.000,1.000
201678.228,421029.676,55012.204,249556.295,42683.819,-8312.948,-31879.260,-1408.464,-0.126,0.930,-0.305,-19.623,-5.951,0.549,80.000,58.000,1.000
195657.467,416469.791,53261.870,246576.729,40968.594,-8525.872,-30174.431,-425.988,-0.123,0.920,-0.298,-19.928,-5.737,0.610,80.000,59.000,1.000
190370.529,410404.150,50488.301,242768.488,38137.112,-8613.525,-27829.871,285.442,-0.123,0.907,-0.292,-19.897,-5.585,0.458,80.000,60.000,1.000
186417.012,404090.845,47338.545,238196.200,34956.739,-9105.640,-25844.871,439.165,-0.120,0.893,-0.286,-19.440,-5.249,0.183,80.000,61.000,1.000
182839.160,398429.421,44191.852,233129.577,31916.396,-9951.505,-24919.999,487.565,-0.121,0.880,-0.277,-18.555,-4.944,-0.153,80.000,62.000,1.000
178261.798,392918.140,40895.291,227967.295,28794.429,-10558.128,-24371.564,1039.645,-0.121,0.873,-0.272,-17.426,-4.669,-0.519,80.000,63.000,1.000
172806.741,386628.994,37325.859,223107.107,25290.102,-10606.306,-22958.897,2023.229,-0.122,0.868,-0.265,-16.174,-4.486,-0.793,80.000,64.000,1.000
168064.557,379824.923,33887.776,218736.455,21765.367,-10515.897,-20623.311,2757.304,-0.121,0.862,-0.257,-14.496,-4.150,-1.007,80.000,65.000,1.000
164950.958,373859.569,31158.788,214729.292,18969.309,-10883.415,-18673.254,2873.458,-0.122,0.858,-0.250,-12.512,-3.754,-1.312,80.000,66.000,1.000
162349.835,369382.736,29139.739,210827.090,17062.357,-11653.974,-18013.201,2830.295,-0.125,0.860,-0.244,-10.376,-3.265,-1.678,80.000,67.000,1.000
158547.604,365347.094,27183.328,206939.162,15314.850,-12186.941,-17832.313,3296.248,-0.129,0.866,-0.245,-8.331,-2.930,-1.892,80.000,68.000,1.000
153596.955,360311.733,24776.612,203197.242,12988.842,-12138.046,-16658.811,4236.382,-0.132,0.872,-0.242,-6.134,-2.594,-2.197,80.000,69.000,1.000
149309.271,354345.592,22161.341,199702.117,10268.534,-11936.165,-14395.086,4961.064,-0.135,0.878,-0.239,-4.120,-2.289,-2.472,80.000,70.000,1.000
146784.112,348916.472,19964.371,196328.346,7980.446,-12190.454,-12492.833,5073.016,-0.136,0.882,-0.240,-2.258,-2.075,-2.747,80.000,71.000,1.000
144859.434,344882.344,18342.400,192880.566,6468.514,-12851.893,-11966.499,5008.255,-0.139,0.885,-0.236,-0.244,-1.953,-2.869,80.000,72.000,1.000
141671.322,341328.625,16793.927,189387.147,5143.848,-13290.942,-11981.402,5430.037,-0.142,0.890,-0.232,1.770,-1.892,-2.960,80.000,73.000,1.000
137212.163,336842.546,14867.956,186095.285,3308.414,-13172.482,-10995.019,6319.082,-0.140,0.895,-0.229,3.815,-2.045,-3.113,80.000,74.000,1.000
133346.092,331456.515,12780.064,183141.727,1111.380,-12911.101,-8884.251,7010.153,-0.139,0.904,-0.230,5.676,-1.984,-3.296,80.000,75.000,1.000
131242.579,326583.802,11099.578,180349.896,-669.684,-13089.118,-7109.641,7108.968,-0.137,0.914,-0.231,7.324,-1.923,-3.387,80.000,76.000,1.000
129770.557,323059.222,9958.911,177452.931,-1705.542,-13658.275,-6693.441,7021.100,-0.141,0.929,-0.230,8.911,-1.801,-3.357,80.000,77.000,1.000
127061.351,319999.794,8874.929,174449.688,-2565.116,-14023.745,-6818.444,7382.078,-0.144,0.948,-0.230,10.162,-1.648,-3.326,80.000,78.000,1.000
123067.525,316031.486,7409.402,171600.669,-3935.823,-13870.315,-5972.188,8192.593,-0.146,0.969,-0.235,10.986,-1.740,-3.235,80.000,79.000,1.000
119592.827,311158.692,5749.558,169062.839,-5699.726,-13581.602,-4026.415,8839.978,-0.149,0.981,-0.239,11.505,-1.709,-3.235,80.000,80.000,1.000
117793.222,306714.341,4427.954,166667.296,-7121.193,-13695.884,-2381.570,8946.566,-0.148,0.988,-0.241,11.566,-1.923,-3.052,80.000,81.000,1.000
116616.442,303512.203,3591.578,164149.332,-7859.984,-14173.585,-2020.973,8867.911,-0.148,0.989,-0.240,11.566,-2.014,-3.021,80.000,82.000,1.000
114285.107,300764.417,2820.736,161511.551,-8415.712,-14477.406,-2186.165,9182.941,-0.145,0.986,-0.241,11.719,-2.075,-2.991,80.000,83.000,1.000
110722.961,297202.661,1714.955,159015.831,-9426.368,-14320.170,-1461.066,9906.860,-0.143,0.987,-0.242,11.841,-1.984,-2.960,80.000,84.000,1.000
107596.585,292802.032,422.972,156817.140,-10811.045,-14038.870,288.456,10498.712,-0.141,0.989,-0.244,11.963,-2.045,-2.991,80.000,85.000,1.000
105996.901,288755.034,-589.721,154748.130,-11915.660,-14108.691,1784.851,10614.802,-0.140,0.990,-0.249,11.932,-1.984,-2.960,80.000,86.000,1.000
104989.443,285808.289,-1183.449,152549.264,-12419.890,-14496.874,2124.821,10558.221,-0.139,0.990,-0.254,11.902,-1.831,-3.082,80.000,87.000,1.000
102957.605,283279.049,-1715.122,150220.992,-12752.034,-14735.703,1982.302,10837.929,-0.138,0.986,-0.251,11.810,-1.770,-3.174,80.000,88.000,1.000
99806.619,280041.081,-2536.570,148013.191,-13480.767,-14575.007,2627.137,11478.210,-0.136,0.983,-0.252,11.841,-1.617,-3.143,80.000,89.000,1.000
97014.577,276053.162,-3530.251,146075.338,-14552.108,-14304.166,4187.331,12016.321,-0.133,0.983,-0.253,11.871,-1.404,-3.143,80.000,90.000,1.000
95564.701,272349.658,-4298.529,144254.088,-15400.181,-14332.289,5536.453,12149.137,-0.130,0.985,-0.258,11.871,-1.190,-3.235,80.000,91.000,1.000
94649.934,269593.128,-4712.238,142309.041,-15733.393,-14635.766,5873.552,12125.227,-0.131,0.989,-0.260,11.719,-0.977,-3.235,80.000,92.000,1.000
92849.321,267211.218,-5065.552,140238.641,-15907.175,-14820.706,5778.208,12377.202,-0.130,0.992,-0.256,11.597,-0.702,-3.143,80.000,93.000,1.000
90062.237,264235.536,-5659.079,138269.858,-16412.763,-14673.460,6353.686,12935.821,-0.129,0.989,-0.253,11.322,-0.549,-3.204,80.000,94.000,1.000
87562.448,260613.622,-6404.894,136539.474,-17219.412,-14430.611,7721.373,13419.441,-0.128,0.982,-0.255,11.047,-0.397,-3.387,80.000,95.000,1.000
86212.254,257213.218,-6974.664,134911.631,-17853.799,-14430.294,8923.247,13569.977,-0.131,0.973,-0.255,10.925,-0.214,-3.510,80.000,96.000,1.000
85340.084,254603.090,-7253.351,133171.736,-18059.933,-14656.384,9271.774,13583.397,-0.130,0.965,-0.252,10.773,0.031,-3.723,80.000,97.000,1.000
83734.746,252318.927,-7475.399,131316.522,-18123.329,-14790.324,9246.159,13813.393,-0.131,0.961,-0.254,10.559,0.214,-4.059,80.000,98.000,1.000
81289.250,249553.896,-7889.717,129544.583,-18455.303,-14659.642,9770.156,14291.101,-0.133,0.965,-0.260,10.376,0.488,-4.425,80.000,99.000,1.000
79059.676,246249.777,-8434.008,127976.597,-19043.429,-14454.536,10951.136,14711.118,-0.138,0.970,-0.260,10.315,0.519,-4.639,80.000,100.000,1.000
77776.049,243111.646,-8845.772,126496.568,-19504.127,-14445.062,11999.977,14862.714,-0.140,0.972,-0.262,10.101,0.488,-4.730,80.000,101.000,1.000
76899.990,240613.360,-9025.527,124919.812,-19619.135,-14617.657,12347.745,14898.530,-0.143,0.969,-0.263,9.735,0.610,-4.791,80.000,102.000,1.000
75435.782,238391.896,-9153.013,123242.345,-19609.095,-14719.324,12381.562,15101.591,-0.145,0.960,-0.267,9.521,0.549,-4.852,80.000,103.000,1.000
73282.410,235796.717,-9427.431,121632.706,-19807.202,-14612.366,12854.564,15503.499,-0.146,0.950,-0.267,9.277,0.610,-4.730,80.000,104.000,1.000
71291.570,232768.377,-9807.604,120194.228,-20214.655,-14443.046,13861.776,15868.324,-0.146,0.948,-0.267,9.216,0.519,-4.761,80.000,105.000,1.000
70063.319,229860.186,-10091.095,118830.956,-20531.402,-14421.073,14773.768,16027.051,-0.149,0.943,-0.271,9.125,0.275,-4.883,80.000,106.000,1.000
69179.234,227454.279,-10194.624,117388.648,-20577.332,-14538.828,15131.271,16090.327,-0.154,0.941,-0.277,8.911,0.153,-4.822,80.000,107.000,1.000
67843.223,225277.886,-10250.223,115862.634,-20515.975,-14605.293,15232.832,16274.719,-0.156,0.935,-0.281,8.911,0.000,-4.852,80.000,108.000,1.000
65958.567,222823.948,-10412.385,114390.813,-20608.609,-14516.007,15669.734,16610.153,-0.154,0.929,-0.281,8.881,-0.244,-5.005,80.000,109.000,1.000
64183.767,220034.209,-10658.079,113057.982,-20866.882,-14380.056,16522.017,16922.082,-0.162,0.925,-0.279,8.850,-0.427,-5.035,80.000,110.000,1.000
62993.949,217325.432,-10838.640,111786.607,-21065.986,-14354.199,17306.085,17080.542,-0.161,0.916,-0.277,9.033,-0.702,-5.066,80.000,111.000,1.000
62079.013,214995.189,-10886.697,110451.831,-21062.179,-14434.152,17666.073,17162.446,-0.162,0.914,-0.280,9.094,-0.885,-4.944,80.000,112.000,1.000
60830.412,212849.187,-10893.027,109049.388,-20969.601,-14479.729,17825.179,17327.882,-0.162,0.914,-0.283,9.369,-1.038,-4.730,80.000,113.000,1.000
59166.467,210509.108,-10971.070,107689.781,-20983.970,-14411.705,18232.121,17605.271,-0.162,0.921,-0.288,9.491,-1.282,-4.486,80.000,114.000,1.000
57580.462,207921.872,-11110.262,106441.790,-21122.376,-14304.515,18953.012,17872.628,-0.162,0.930,-0.294,9.369,-1.465,-4.181,80.000,115.000,1.000
56434.594,205386.765,-11207.119,105245.306,-21224.387,-14269.660,19630.309,18032.659,-0.163,0.941,-0.302,9.186,-1.709,-3.784,80.000,116.000,1.000
55505.231,203125.347,-11210.045,104001.590,-21180.428,-14308.866,19995.791,18131.577,-0.164,0.946,-0.308,8.636,-1.892,-3.357,80.000,117.000,1.000
54338.882,201006.920,-11177.960,102705.010,-21065.721,-14330.056,20204.599,18278.693,-0.164,0.947,-0.311,8.026,-2.106,-2.930,80.000,118.000,1.000
52861.970,198761.956,-11191.130,101439.463,-21021.120,-14279.874,20580.624,18499.070,-0.167,0.941,-0.309,7.355,-2.350,-2.563,80.000,119.000,1.000
51425.236,196343.406,-11248.723,100258.510,-21066.953,-14205.097,21178.603,18716.031,-0.167,0.936,-0.310,6.805,-2.502,-2.319,80.000,120.000,1.000
50298.775,193953.327,-11283.433,99118.475,-21095.385,-14176.677,21751.656,18864.147,-0.165,0.933,-0.314,6.378,-2.655,-1.953,80.000,121.000,1.000
49340.851,191750.059,-11255.679,97945.946,-21024.781,-14195.826,22110.133,18969.139,-0.167,0.933,-0.317,5.798,-2.838,-1.709,80.000,122.000,1.000
48238.456,189656.082,-11197.249,96736.235,-20897.438,-14204.560,22355.133,19100.697,-0.167,0.935,-0.320,5.402,-2.960,-1.495,80.000,123.000,1.000
46929.898,187493.066,-11160.185,95550.754,-20807.647,-14168.295,22705.919,19279.407,-0.168,0.940,-0.322,4.883,-3.174,-1.221,80.000,124.000,1.000
45642.948,185219.901,-11151.209,94428.815,-20777.714,-14113.269,23204.511,19461.191,-0.168,0.939,-0.323,4.333,-3.326,-1.068,80.000,125.000,1.000
44560.435,182958.057,-11133.557,93338.972,-20744.082,-14081.500,23693.041,19602.982,-0.167,0.942,-0.324,3.723,-3.387,-0.793,80.000,126.000,1.000
43597.591,180811.430,-11079.807,92227.869,-20650.703,-14077.293,24046.310,19712.869,-0.170,0.947,-0.322,2.930,-3.601,-0.519,80.000,127.000,1.000
42551.567,178742.807,-11002.116,91090.733,-20515.590,-14072.979,24321.274,19828.606,-0.171,0.951,-0.322,2.228,-3.784,-0.305,80.000,128.000,1.000
41371.990,176647.337,-10930.009,89970.002,-20395.351,-14050.778,24651.161,19967.522,-0.173,0.955,-0.325,1.312,-4.028,-0.092,80.000,129.000,1.000
40192.616,174491.530,-10874.081,88893.993,-20311.349,-14020.523,25066.078,20112.766,-0.171,0.958,-0.327,0.519,-4.333,0.122,80.000,130.000,1.000
39131.819,172335.553,-10819.484,87842.929,-20232.938,-13999.524,25478.384,20240.880,-0.173,0.962,-0.323,-0.397,-4.700,0.214,80.000,131.000,1.000
38155.797,170240.829,-10747.608,86781.511,-20123.802,-13990.564,25815.735,20348.437,-0.171,0.968,-0.316,-1.343,-4.944,0.366,80.000,132.000,1.000
37154.740,168200.932,-10655.521,85705.813,-19983.336,-13984.442,26104.665,20450.483,-0.174,0.963,-0.314,-2.319,-5.249,0.488,80.000,133.000,1.000
36090.042,166167.786,-10555.517,84642.483,-19838.909,-13973.283,26414.996,20562.047,-0.175,0.959,-0.304,-3.418,-5.493,0.549,80.000,134.000,1.000
35018.725,164113.826,-10461.423,83609.448,-19711.211,-13955.264,26768.333,20684.818,-0.174,0.944,-0.289,-4.120,-5.920,0.397,80.000,135.000,1.000
34001.565,162051.562,-10375.958,82594.760,-19595.739,-13932.727,27128.307,20807.219,-0.172,0.930,-0.283,-4.791,-6.104,0.061,80.000,136.000,1.000
33037.339,160008.513,-10288.493,81576.922,-19472.782,-13912.140,27457.017,20914.514,-0.175,0.915,-0.273,-4.791,-6.378,-0.397,80.000,137.000,1.000
32084.729,158000.253,-10185.582,80552.949,-19328.635,-13902.745,27750.704,21001.641,-0.174,0.907,-0.267,-4.639,-6.714,-1.038,80.000,138.000,1.000
31114.323,156021.730,-10066.227,79537.544,-19168.129,-13907.469,28026.412,21078.643,-0.176,0.899,-0.260,-4.059,-7.050,-1.617,80.000,139.000,1.000
30126.678,154051.801,-9945.157,78540.972,-19009.700,-13916.258,28300.535,21160.884,-0.169,0.894,-0.255,-3.357,-7.355,-2.014,80.000,140.000,1.000
29141.383,152069.432,-9836.833,77557.827,-18866.903,-13915.777,28584.457,21250.846,-0.163,0.894,-0.250,-2.380,-7.324,-2.411,80.000,141.000,1.000
28182.859,150076.553,-9737.088,76577.183,-18732.984,-13907.181,28880.213,21333.156,-0.155,0.889,-0.244,-1.129,-7.172,-2.716,80.000,142.000,1.000
27261.074,148102.124,-9626.944,75595.853,-18586.928,-13906.863,29171.973,21393.621,-0.149,0.890,-0.242,0.122,-6.866,-3.082,80.000,143.000,1.000
26355.206,146170.648,-9497.006,74618.596,-18418.409,-13923.991,29438.323,21440.731,-0.146,0.886,-0.241,1.678,-6.653,-3.296,80.000,144.000,1.000
25427.684,144267.070,-9361.460,73650.175,-18242.915,-13944.808,29683.268,21498.882,-0.144,0.886,-0.242,3.357,-6.317,-3.510,80.000,145.000,1.000
24470.104,142349.446,-9240.773,72691.492,-18084.500,-13948.520,29940.128,21578.022,-0.141,0.885,-0.242,5.371,-5.859,-3.571,80.000,146.000,1.000
23525.282,140403.299,-9133.816,71741.275,-17944.161,-13935.348,30229.203,21659.338,-0.139,0.888,-0.243,7.538,-5.493,-3.662,80.000,147.000,1.000
22639.256,138466.431,-9017.590,70797.386,-17795.735,-13927.647,30522.731,21718.853,-0.133,0.890,-0.248,9.491,-4.913,-3.723,80.000,148.000,1.000
21796.529,136582.389,-8877.587,69856.905,-17619.093,-13940.234,30774.111,21759.227,-0.131,0.887,-0.250,11.505,-4.364,-3.632,80.000,149.000,1.000
20930.438,134739.350,-8728.742,68918.497,-17428.730,-13960.797,30980.455,21806.101,-0.128,0.888,-0.250,13.550,-3.632,-3.510,80.000,150.000,1.000
20008.451,132880.783,-8596.918,67985.236,-17257.084,-13968.067,31191.039,21872.744,-0.125,0.888,-0.248,14.557,-3.174,-3.448,80.000,151.000,1.000
19081.385,130980.376,-8484.364,67061.706,-17111.758,-13962.628,31442.031,21941.015,-0.125,0.889,-0.245,16.693,-2.319,-3.143,80.000,152.000,1.000
18219.940,129080.575,-8366.102,66147.191,-16963.983,-13966.711,31705.034,21985.956,-0.124,0.897,-0.250,18.707,-1.343,-2.930,80.000,153.000,1.000
17419.309,127237.770,-8223.108,65235.284,-16786.062,-13991.385,31925.778,22011.616,-0.126,0.902,-0.255,20.752,-0.458,-2.686,80.000,154.000,1.000
16602.404,125445.074,-8068.033,64322.378,-16588.894,-14018.301,32103.031,22047.664,-0.128,0.907,-0.261,22.461,0.519,-2.350,80.000,155.000,1.000
15722.560,123639.228,-7928.515,63413.454,-16408.349,-14023.951,32295.121,22109.235,-0.132,0.912,-0.263,24.231,1.404,-2.136,80.000,156.000,1.000
14828.032,121785.562,-7810.256,62515.714,-16257.476,-14013.181,32539.928,22174.943,-0.136,0.913,-0.266,25.787,2.228,-1.831,80.000,157.000,1.000
13995.423,119925.702,-7689.879,61627.817,-16108.996,-14014.638,32798.528,22214.390,-0.137,0.921,-0.269,27.100,2.899,-1.709,80.000,158.000,1.000
13222.909,118121.174,-7547.121,60740.310,-15932.419,-14042.451,33004.478,22228.434,-0.144,0.927,-0.276,28.534,3.448,-1.678,80.000,159.000,1.000
12431.315,116369.285,-7392.173,59848.289,-15735.417,-14076.511,33154.233,22247.532,-0.146,0.923,-0.278,29.602,3.906,-1.495,80.000,160.000,1.000
11573.729,114607.060,-7250.973,58959.232,-15552.889,-14088.744,33313.504,22290.442,-0.148,0.921,-0.281,30.701,4.456,-1.434,80.000,161.000,1.000
10703.161,112797.969,-7129.261,58083.942,-15398.879,-14079.718,33528.647,22339.443,-0.151,0.917,-0.284,32.043,4.944,-1.495,80.000,162.000,1.000
9901.856,110981.887,-7004.961,57221.886,-15247.449,-14076.405,33764.184,22365.239,-0.153,0.915,-0.290,32.928,5.188,-1.648,80.000,163.000,1.000
9169.901,109219.816,-6858.824,56361.252,-15068.478,-14094.647,33952.334,22366.746,-0.154,0.922,-0.296,33.905,5.341,-2.014,80.000,164.000,1.000
8424.991,107510.044,-6700.850,55494.450,-14868.995,-14118.581,34086.043,22371.396,-0.159,0.931,-0.303,34.912,5.463,-2.319,80.000,165.000,1.000
7613.037,105790.842,-6556.653,54628.049,-14683.641,-14124.472,34227.495,22396.787,-0.162,0.933,-0.307,35.461,5.524,-2.533,80.000,166.000,1.000
6778.872,104024.796,-6433.127,53773.325,-14527.894,-14114.538,34421.487,22427.180,-0.161,0.934,-0.316,35.858,5.463,-2.869,80.000,167.000,1.000
6000.961,102248.532,-6310.152,52930.414,-14378.007,-14114.001,34634.323,22436.658,-0.164,0.939,-0.321,36.072,5.524,-3.204,80.000,168.000,1.000
5284.416,100521.305,-6168.389,52088.237,-14203.877,-14135.471,34802.048,22426.296,-0.167,0.944,-0.327,36.194,5.371,-3.387,80.000,169.000,1.000
4558.002,98844.804,-6014.582,51240.243,-14009.155,-14160.924,34919.519,22423.794,-0.167,0.952,-0.335,36.011,5.219,-3.662,80.000,170.000,1.000
3774.402,97163.187,-5871.022,50393.718,-13824.818,-14166.421,35046.802,22446.047,-0.166,0.958,-0.342,35.767,5.096,-3.815,80.000,171.000,1.000
2974.377,95440.343,-5745.103,49559.612,-13666.699,-14154.543,35226.255,22476.444,-0.167,0.960,-0.349,35.278,4.852,-3.906,80.000,172.000,1.000
2228.008,93707.246,-5620.580,48737.114,-13515.346,-14150.374,35425.855,22487.483,-0.164,0.963,-0.355,34.607,4.578,-3.998,80.000,173.000,1.000
1538.734,92016.987,-5480.934,47914.446,-13344.094,-14167.533,35584.643,22476.785,-0.164,0.958,-0.359,33.691,4.486,-4.059,80.000,174.000,1.000
840.995,90372.214,-5331.728,47084.791,-13155.316,-14191.378,35695.171,22468.071,-0.162,0.955,-0.365,32.898,4.333,-4.150,80.000,175.000,1.000
90.510,88723.898,-5192.090,46255.368,-12975.871,-14201.115,35810.105,22477.626,-0.161,0.951,-0.373,32.135,4.120,-4.181,80.000,176.000,1.000
-677.840,87039.580,-5068.467,45437.335,-12819.936,-14198.914,35967.405,22492.658,-0.161,0.948,-0.373,31.250,4.059,-4.181,80.000,177.000,1.000
-1401.527,85346.007,-4946.640,44630.732,-12670.612,-14206.311,36139.424,22489.975,-0.159,0.941,-0.380,30.487,3.937,-4.272,80.000,178.000,1.000
-2075.128,83690.361,-4811.560,43825.026,-12503.886,-14233.952,36273.577,22467.744,-0.159,0.938,-0.384,29.419,3.937,-4.303,80.000,179.000,1.000
-2753.995,82076.309,-4667.130,43013.815,-12320.819,-14267.514,36364.784,22446.886,-0.158,0.933,-0.384,28.534,3.906,-4.181,80.000,180.000,1.000
-3476.764,80461.727,-4529.775,42203.232,-12144.671,-14287.833,36460.568,22442.068,-0.159,0.933,-0.390,27.679,3.998,-4.028,80.000,181.000,1.000
-4214.256,78817.443,-4406.050,41402.992,-11988.846,-14295.961,36595.642,22442.898,-0.159,0.932,-0.396,26.733,3.967,-3.906,80.000,182.000,1.000
-4912.796,77164.912,-4284.930,40613.005,-11840.003,-14309.893,36747.411,22429.581,-0.157,0.925,-0.401,25.848,3.967,-3.723,80.000,183.000,1.000
-5566.940,75544.223,-4153.736,39823.909,-11677.584,-14338.908,36870.457,22399.855,-0.156,0.917,-0.408,24.902,3.906,-3.479,80.000,184.000,1.000
-6223.513,73959.692,-4014.881,39030.147,-11501.405,-14371.715,36958.595,22370.453,-0.156,0.914,-0.410,24.078,3.906,-3.326,80.000,185.000,1.000
-6916.739,72376.725,-3881.479,38237.201,-11330.391,-14393.690,37049.428,22352.776,-0.156,0.913,-0.408,23.346,3.967,-3.082,80.000,186.000,1.000
-7624.381,70770.333,-3759.366,37453.522,-11176.288,-14407.593,37169.715,22337.546,-0.156,0.915,-0.411,22.552,3.937,-2.869,80.000,187.000,1.000
-8302.189,69157.218,-3640.220,36678.884,-11028.897,-14429.466,37299.488,22308.764,-0.160,0.916,-0.417,21.881,3.845,-2.502,80.000,188.000,1.000
-8943.938,67570.273,-3513.839,35905.037,-10871.343,-14466.654,37401.594,22266.115,-0.160,0.915,-0.422,21.027,3.723,-2.197,80.000,189.000,1.000
-9586.391,66013.789,-3381.777,35127.054,-10702.888,-14508.845,37472.490,22225.180,-0.165,0.916,-0.425,20.203,3.601,-1.862,80.000,190.000,1.000
-10256.973,64460.165,-3254.296,34349.635,-10538.582,-14542.550,37545.456,22196.871,-0.167,0.913,-0.428,19.257,3.479,-1.709,80.000,191.000,1.000
-10936.985,62889.003,-3136.080,33580.306,-10388.123,-14567.632,37645.506,22174.727,-0.169,0.906,-0.431,18.188,3.265,-1.434,80.000,192.000,1.000
-11589.645,61313.289,-3020.582,32819.306,-10243.602,-14595.095,37758.498,22145.421,-0.170,0.900,-0.429,17.395,3.113,-1.312,80.000,193.000,1.000
-12210.027,59759.397,-2899.517,32059.878,-10091.371,-14630.959,37853.470,22106.395,-0.168,0.891,-0.428,16.693,2.869,-1.160,80.000,194.000,1.000
-12829.294,58231.464,-2773.590,31297.885,-9930.226,-14668.647,37924.417,22067.399,-0.168,0.883,-0.424,15.991,2.655,-0.977,80.000,195.000,1.000
-13471.254,56708.218,-2650.519,30537.188,-9771.666,-14698.822,37994.976,22035.662,-0.167,0.880,-0.430,15.533,2.472,-0.885,80.000,196.000,1.000
-14121.479,55173.277,-2534.206,29784.021,-9623.585,-14721.367,38084.075,22006.281,-0.165,0.877,-0.433,14.984,2.228,-0.549,80.000,197.000,1.000
-14749.735,53636.014,-2420.063,29038.639,-9480.306,-14744.141,38181.537,21969.906,-0.163,0.877,-0.437,14.648,2.014,-0.244,80.000,198.000,1.000
-15351.171,52116.522,-2302.043,28295.292,-9331.466,-14772.407,38263.744,21924.764,-0.164,0.874,-0.437,14.252,1.862,-0.214,80.000,199.000,1.000
-15951.043,50618.100,-2180.925,27549.953,-9176.192,-14803.728,38325.069,21877.191,-0.160,0.874,-0.437,13.824,1.709,-0.153,80.000,200.000,1.000
-16569.747,49124.631,-2062.760,26805.205,-9023.408,-14833.277,38382.984,21832.269,-0.158,0.875,-0.437,13.397,1.526,-0.122,80.000,201.000,1.000
-17196.729,47623.505,-1950.599,26066.155,-8879.366,-14860.920,38452.813,21787.687,-0.158,0.876,-0.443,12.817,1.587,-0.275,80.000,202.000,1.000
-17807.438,46121.435,-1840.942,25333.547,-8739.947,-14890.868,38528.511,21738.163,-0.158,0.878,-0.442,12.421,1.495,-0.275,80.000,203.000,1.000
-18396.210,44633.543,-1728.877,24603.326,-8597.080,-14925.330,38593.804,21683.122,-0.157,0.883,-0.440,11.993,1.282,-0.275,80.000,204.000,1.000
-18981.268,43163.008,-1614.311,23872.534,-8449.403,-14961.721,38645.387,21627.376,-0.158,0.882,-0.446,11.505,1.160,-0.214,80.000,205.000,1.000
-19577.763,41698.714,-1501.179,23143.252,-8302.904,-14996.492,38696.279,21575.171,-0.159,0.887,-0.445,10.956,1.068,-0.275,80.000,206.000,1.000
-20177.375,40231.387,-1391.854,22419.430,-8162.245,-15030.255,38756.577,21525.293,-0.158,0.886,-0.446,10.223,0.854,-0.275,80.000,207.000,1.000
-20762.454,38764.913,-1284.674,21701.336,-8025.239,-15067.958,38819.502,21472.597,-0.158,0.891,-0.445,9.521,0.977,-0.397,80.000,208.000,1.000
-21330.632,37309.407,-1176.834,20985.445,-7886.717,-15112.848,38871.449,21414.091,-0.160,0.894,-0.443,8.881,0.793,-0.488,80.000,209.000,1.000
-21896.653,35867.623,-1068.001,20269.445,-7745.392,-15162.132,38910.489,21352.111,-0.160,0.902,-0.444,8.148,0.732,-0.641,80.000,210.000,1.000
-22472.368,34432.575,-960.348,19555.014,-7604.933,-15210.348,38947.755,21290.611,-0.162,0.905,-0.446,7.263,0.580,-0.610,80.000,211.000,1.000
-23052.557,32997.541,-855.686,18844.949,-7468.899,-15255.379,38992.109,21230.153,-0.163,0.914,-0.444,6.287,0.427,-0.580,80.000,212.000,1.000
-23624.261,31564.179,-753.432,18139.326,-7336.503,-15299.333,39040.341,21168.590,-0.164,0.914,-0.444,5.341,0.244,-0.397,80.000,213.000,1.000
-24183.334,30139.184,-651.506,17435.963,-7204.076,-15343.956,39084.213,21105.441,-0.164,0.916,-0.446,4.211,0.061,-0.305,80.000,214.000,1.000
-24737.224,28725.475,-548.696,16733.854,-7069.650,-15388.013,39121.915,21043.050,-0.166,0.915,-0.447,3.143,-0.214,-0.336,80.000,215.000,1.000
-25293.106,27319.492,-445.703,16034.501,-6934.814,-15429.683,39158.481,20983.185,-0.166,0.915,-0.449,2.228,-0.580,-0.427,80.000,216.000,1.000
-25848.012,25916.627,-343.983,15339.686,-6802.160,-15469.292,39197.396,20924.518,-0.167,0.917,-0.444,1.282,-0.854,-0.397,80.000,217.000,1.000
-26394.470,24516.654,-244.089,14649.055,-6672.149,-15508.967,39236.086,20864.292,-0.170,0.922,-0.444,0.305,-1.190,-0.458,80.000,218.000,1.000
-26931.468,23122.734,-145.448,13960.595,-6543.227,-15550.518,39269.924,20801.024,-0.177,0.926,-0.444,-0.824,-1.648,-0.458,80.000,219.000,1.000
-27466.180,21736.693,-47.471,13273.033,-6414.315,-15594.580,39298.051,20735.168,-0.178,0.928,-0.448,-1.953,-2.136,-0.549,80.000,220.000,1.000
-28004.943,20357.187,49.668,12587.097,-6286.090,-15640.855,39323.578,20668.104,-0.179,0.930,-0.448,-3.052,-2.686,-0.519,80.000,221.000,1.000
-28545.143,18982.181,145.445,11904.397,-6159.746,-15688.262,39349.040,20600.882,-0.180,0.930,-0.445,-4.211,-3.204,-0.458,80.000,222.000,1.000
-29079.261,17611.616,239.789,11225.573,-6035.352,-15735.777,39373.540,20533.364,-0.177,0.928,-0.445,-5.432,-3.693,-0.458,80.000,223.000,1.000
-29604.023,16247.095,333.208,10549.879,-5911.886,-15783.507,39394.445,20463.941,-0.176,0.925,-0.443,-6.439,-4.211,-0.458,80.000,224.000,1.000
-30123.476,14889.797,426.181,9876.311,-5788.568,-15832.939,39410.421,20390.581,-0.174,0.922,-0.447,-7.416,-4.669,-0.427,80.000,225.000,1.000
-30642.669,13539.367,518.576,9204.677,-5665.705,-15885.247,39422.301,20312.836,-0.172,0.918,-0.443,-8.270,-5.066,-0.458,80.000,226.000,1.000
-31159.832,12194.619,609.824,8535.597,-5544.175,-15938.932,39432.237,20232.900,-0.169,0.917,-0.444,-9.216,-5.402,-0.549,80.000,227.000,1.000
-31668.817,10854.795,699.637,7869.725,-5424.364,-15990.732,39442.486,20153.911,-0.170,0.917,-0.442,-9.918,-5.798,-0.488,80.000,228.000,1.000
-32167.481,9520.212,788.425,7207.162,-5305.750,-16039.463,39453.788,20076.584,-0.169,0.918,-0.444,-10.803,-6.165,-0.397,80.000,229.000,1.000
-32660.716,8192.138,877.054,6547.647,-5187.324,-16087.525,39464.816,19998.869,-0.170,0.914,-0.442,-11.475,-6.409,-0.336,80.000,230.000,1.000
-33154.116,6871.901,966.165,5891.171,-5068.363,-16137.225,39473.994,19919.656,-0.165,0.910,-0.444,-12.207,-6.744,-0.153,80.000,231.000,1.000
-33647.048,5559.492,1055.535,5238.067,-4949.128,-16187.213,39481.523,19840.925,-0.168,0.906,-0.445,-12.817,-6.897,-0.092,80.000,232.000,1.000
-34135.484,4253.077,1144.058,4588.374,-4830.862,-16234.882,39488.880,19764.879,-0.166,0.899,-0.443,-13.214,-7.111,0.031,80.000,233.000,1.000
-34618.438,2950.670,1230.707,3941.448,-4714.708,-16280.902,39496.376,19690.111,-0.167,0.899,-0.441,-13.824,-7.233,-0.061,80.000,234.000,1.000
-35099.520,1652.375,1315.531,3296.425,-4600.556,-16329.227,39502.004,19612.667,-0.169,0.895,-0.439,-14.069,-7.507,0.183,80.000,235.000,1.000
-35582.247,360.157,1399.366,2652.956,-4487.361,-16382.185,39503.293,19530.847,-0.167,0.897,-0.436,-14.557,-7.660,0.244,80.000,236.000,1.000
-36065.202,-924.932,1482.550,2011.365,-4374.697,-16437.166,39500.175,19447.118,-0.168,0.898,-0.438,-14.832,-7.843,0.397,80.000,237.000,1.000
-36544.457,-2204.381,1564.404,1372.202,-4263.444,-16489.780,39495.296,19364.649,-0.166,0.899,-0.438,-15.228,-8.087,0.732,80.000,238.000,1.000
-37018.381,-3480.212,1644.289,735.779,-4154.506,-16538.996,39491.124,19283.197,-0.168,0.902,-0.436,-15.778,-8.118,0.854,80.000,239.000,1.000
-37489.022,-4751.968,1722.696,102.030,-4047.334,-16587.718,39487.420,19199.918,-0.168,0.903,-0.437,-16.113,-8.301,1.007,80.000,240.000,1.000
-37958.742,-6016.929,1800.807,-529.240,-3940.365,-16638.231,39482.266,19113.856,-0.166,0.906,-0.436,-16.724,-8.514,1.038,80.000,241.000,1.000
-38426.092,-7273.452,1879.181,-1157.887,-3832.815,-16688.558,39475.256,19027.897,-0.167,0.903,-0.434,-17.181,-8.820,1.038,80.000,242.000,1.000
-38887.783,-8522.968,1957.312,-1783.302,-3725.447,-16735.107,39468.526,18945.294,-0.167,0.903,-0.431,-17.792,-8.972,1.038,80.000,243.000,1.000
-39342.983,-9767.918,2034.552,-2404.959,-3619.347,-16777.756,39463.906,18865.205,-0.165,0.905,-0.429,-18.402,-8.972,1.038,80.000,244.000,1.000
-39794.619,-11008.425,2111.063,-3023.074,-3514.400,-16820.840,39459.498,18783.441,-0.165,0.903,-0.428,-18.890,-9.033,0.885,80.000,245.000,1.000
-40245.983,-12242.316,2187.440,-3638.539,-3409.595,-16868.774,39450.298,18697.457,-0.162,0.900,-0.421,-19.440,-9.308,0.763,80.000,246.000,1.000
-40696.177,-13468.489,2263.550,-4252.140,-3304.753,-16921.323,39433.383,18609.112,-0.158,0.896,-0.417,-19.928,-9.369,0.549,80.000,247.000,1.000
-41141.477,-14688.896,2338.311,-4863.917,-3201.200,-16974.602,39411.395,18521.756,-0.156,0.894,-0.417,-20.416,-9.277,0.397,80.000,248.000,1.000
-41580.125,-15906.227,2410.850,-5473.394,-3100.303,-17026.393,39389.050,18435.360,-0.156,0.896,-0.419,-20.905,-9.338,0.244,80.000,249.000,1.000
-42014.875,-17120.280,2481.626,-6080.247,-3001.678,-17078.639,39367.602,18346.539,-0.155,0.898,-0.414,-21.240,-9.216,0.153,80.000,250.000,1.000
-42449.630,-18327.917,2552.060,-6684.457,-2903.417,-17133.409,39345.172,18253.818,-0.155,0.896,-0.409,-21.515,-9.125,0.061,80.000,251.000,1.000
-42884.076,-19526.912,2622.996,-7285.932,-2804.229,-17188.482,39321.446,18160.507,-0.154,0.888,-0.405,-21.851,-9.003,-0.061,80.000,252.000,1.000
-43314.820,-20718.677,2693.844,-7884.352,-2704.846,-17239.911,39298.945,18070.716,-0.152,0.885,-0.406,-22.125,-8.850,-0.122,80.000,253.000,1.000
-43739.954,-21906.285,2763.450,-8479.564,-2606.922,-17287.806,39278.894,17983.619,-0.151,0.882,-0.399,-22.217,-8.545,-0.122,80.000,254.000,1.000
-44161.469,-23090.576,2831.469,-9072.025,-2510.999,-17337.149,39258.021,17893.844,-0.150,0.884,-0.398,-22.308,-8.331,-0.122,80.000,255.000,1.000
-44582.553,-24269.428,2898.556,-9662.489,-2416.106,-17392.068,39231.315,17797.761,-0.150,0.888,-0.392,-22.308,-8.179,0.031,80.000,256.000,1.000
-45002.777,-25440.851,2965.394,-10251.100,-2321.246,-17450.907,39197.388,17697.424,-0.154,0.886,-0.394,-22.461,-7.904,0.122,80.000,257.000,1.000
-45419.240,-26605.688,3031.805,-10837.200,-2226.756,-17508.948,39159.751,17597.085,-0.154,0.885,-0.393,-22.430,-7.629,0.183,80.000,258.000,1.000
-45830.541,-27766.287,3097.135,-11420.102,-2133.700,-17564.154,39122.996,17497.801,-0.156,0.881,-0.389,-22.369,-7.385,0.275,80.000,259.000,1.000
-46237.870,-28922.947,3161.513,-11999.628,-2042.021,-17617.957,39089.078,17397.936,-0.158,0.878,-0.385,-22.034,-7.172,0.275,80.000,260.000,1.000
-46642.219,-30073.193,3226.080,-12575.879,-1950.149,-17671.069,39057.537,17297.704,-0.160,0.873,-0.382,-21.790,-6.958,0.366,80.000,261.000,1.000
-47042.013,-31215.144,3291.593,-13148.924,-1856.952,-17721.329,39028.192,17200.145,-0.157,0.865,-0.375,-21.332,-6.805,0.275,80.000,262.000,1.000
-47436.074,-32350.370,3357.212,-13718.942,-1763.438,-17767.042,39002.502,17107.430,-0.155,0.860,-0.374,-20.813,-6.592,0.244,80.000,263.000,1.000
-47826.127,-33482.520,3421.292,-14286.389,-1671.753,-17810.243,38981.472,17017.952,-0.155,0.861,-0.371,-20.386,-6.256,0.153,80.000,264.000,1.000
-48215.742,-34618.922,3483.170,-14851.849,-1582.769,-17855.600,38961.713,16927.585,-0.156,0.858,-0.368,-19.684,-6.104,0.092,80.000,265.000,1.000
-48606.951,-35792.125,3543.609,-15415.684,-1495.446,-17906.132,38935.272,16833.100,-0.155,0.857,-0.357,-18.982,-5.829,0.031,80.000,266.000,1.000
-48997.412,-37089.112,3603.588,-15977.720,-1408.482,-17960.212,38895.894,16734.268,-0.155,0.859,-0.350,-18.097,-5.493,0.153,80.000,267.000,1.000
-49382.932,-38630.139,3663.248,-16537.263,-1321.816,-18013.661,38845.418,16633.066,-0.155,0.858,-0.342,-17.212,-5.035,0.153,80.000,268.000,1.000
-49761.470,-40489.965,3722.198,-17093.591,-1236.150,-18063.873,38793.019,16531.613,-0.151,0.862,-0.337,-16.449,-4.700,0.397,80.000,269.000,1.000
-50134.610,-42651.310,3780.438,-17646.532,-1151.535,-18111.224,38747.665,16431.398,-0.152,0.860,-0.339,-15.686,-4.333,0.427,80.000,270.000,1.000
-50505.213,-45037.574,3838.491,-18196.492,-1067.100,-18157.129,38710.918,16333.500,-0.152,0.858,-0.336,-14.709,-3.967,0.549,80.000,271.000,1.000
-50873.803,-47561.751,3896.656,-18743.934,-982.242,-18201.974,38676.914,16238.233,-0.151,0.856,-0.325,-13.458,-3.693,0.610,80.000,272.000,1.000
-51239.508,-50136.694,3954.472,-19288.946,-897.545,-18246.106,38637.515,16143.750,-0.152,0.862,-0.314,-12.390,-3.204,0.549,80.000,273.000,1.000
-51602.491,-52672.072,4011.136,-19831.425,-814.192,-18291.637,38586.883,16045.423,-0.152,0.863,-0.312,-11.261,-2.747,0.580,80.000,274.000,1.000
-51964.649,-55099.301,4066.314,-20371.529,-732.678,-18341.308,38524.788,15939.103,-0.150,0.860,-0.307,-9.979,-2.258,0.458,80.000,275.000,1.000
-52327.411,-57406.504,4120.414,-20909.580,-652.364,-18394.739,38457.814,15826.165,-0.152,0.860,-0.302,-8.545,-1.892,0.214,80.000,276.000,1.000
-52688.537,-59635.576,4174.187,-21445.410,-572.200,-18447.142,38395.943,15713.854,-0.153,0.864,-0.297,-7.019,-1.678,0.000,80.000,277.000,1.000
-53043.707,-61838.955,4228.187,-21978.111,-491.635,-18493.334,38346.168,15609.605,-0.150,0.868,-0.295,-5.615,-1.465,-0.427,80.000,278.000,1.000
-53390.583,-64041.296,4282.484,-22506.844,-410.860,-18532.653,38307.878,15514.924,-0.142,0.878,-0.294,-4.272,-1.099,-0.763,80.000,279.000,1.000
-53731.849,-66239.906,4336.609,-23031.936,-330.491,-18569.856,38273.564,15424.668,-0.139,0.891,-0.298,-3.235,-0.458,-1.221,80.000,280.000,1.000
-54073.566,-68427.626,4389.776,-23554.818,-251.170,-18610.863,38234.643,15332.063,-0.137,0.913,-0.298,-2.411,0.122,-1.709,80.000,281.000,1.000
-54419.480,-70603.609,4441.333,-24076.716,-173.345,-18657.669,38187.360,15234.099,-0.140,0.931,-0.302,-1.617,0.641,-2.167,80.000,282.000,1.000
-54768.751,-72767.024,4491.143,-24597.577,-97.182,-18708.154,38133.459,15132.161,-0.144,0.943,-0.300,-1.343,1.221,-2.350,80.000,283.000,1.000
-55117.212,-74911.144,4539.639,-25116.368,-22.479,-18759.580,38076.218,15028.610,-0.151,0.950,-0.301,-1.007,1.587,-2.411,80.000,284.000,1.000
-55461.023,-77027.242,4587.439,-25632.290,51.218,-18811.320,38017.155,14924.088,-0.155,0.954,-0.297,-1.038,2.075,-2.502,80.000,285.000,1.000
-55799.727,-79107.827,4634.916,-26145.412,124.354,-18864.025,37956.573,14818.210,-0.158,0.955,-0.297,-1.129,2.411,-2.441,80.000,286.000,1.000
-56135.394,-81142.842,4682.161,-26656.067,197.236,-18917.014,37895.770,14711.630,-0.159,0.960,-0.294,-1.190,2.716,-2.533,80.000,287.000,1.000
-56471.049,-83120.658,4729.177,-27164.094,269.983,-18968.299,37836.860,14606.025,-0.161,0.964,-0.297,-1.343,2.838,-2.533,80.000,288.000,1.000
-56808.834,-85037.686,4775.901,-27669.063,342.479,-19016.899,37780.114,14501.937,-0.164,0.969,-0.301,-1.740,2.930,-2.594,80.000,289.000,1.000
-57149.158,-86904.673,4822.232,-28170.917,414.554,-19063.911,37723.196,14398.158,-0.169,0.969,-0.302,-2.045,3.082,-2.716,80.000,290.000,1.000
-57490.862,-88740.359,4868.094,-28670.079,486.179,-19110.837,37663.892,14293.753,-0.173,0.972,-0.304,-2.350,3.113,-2.899,80.000,291.000,1.000
-57831.811,-90559.736,4913.250,-29167.145,557.178,-19158.068,37602.321,14189.274,-0.177,0.971,-0.304,-2.655,3.052,-2.930,80.000,292.000,1.000
-58170.351,-92370.035,4957.240,-29662.506,627.013,-19205.548,37539.873,14085.619,-0.179,0.972,-0.301,-3.113,3.021,-2.899,80.000,293.000,1.000
-58504.166,-94174.116,4999.823,-30156.071,695.266,-19253.065,37477.181,13982.804,-0.183,0.970,-0.304,-3.448,2.869,-2.777,80.000,294.000,1.000
-58830.448,-95973.626,5041.240,-30647.495,762.092,-19300.204,37413.841,13880.140,-0.184,0.970,-0.302,-3.998,2.747,-2.747,80.000,295.000,1.000
-59148.828,-97767.029,5081.909,-31136.623,827.988,-19346.821,37349.426,13777.019,-0.184,0.967,-0.304,-4.211,2.472,-2.655,80.000,296.000,1.000
-59461.967,-99546.868,5122.143,-31623.425,893.385,-19393.150,37284.116,13673.255,-0.185,0.969,-0.303,-4.517,2.380,-2.472,80.000,297.000,1.000
-59773.365,-101304.939,5162.232,-32107.579,958.602,-19439.253,37218.625,13569.116,-0.188,0.972,-0.302,-4.883,2.075,-2.472,80.000,298.000,1.000
-60083.273,-103040.701,5202.592,-32588.403,1024.012,-19484.128,37153.817,13465.360,-0.189,0.969,-0.303,-5.249,1.678,-2.350,80.000,299.000,1.000
-60388.646,-104761.546,5243.561,-33065.407,1089.940,-19526.380,37090.087,13362.771,-0.189,0.965,-0.304,-5.615,1.404,-2.197,80.000,300.000,1.000
-60687.556,-106472.928,5284.985,-33538.847,1156.286,-19565.985,37026.942,13261.237,-0.191,0.957,-0.298,-5.829,0.885,-2.014,80.000,301.000,1.000
-60981.810,-108171.076,5326.117,-34009.641,1222.347,-19605.049,36963.044,13159.347,-0.189,0.950,-0.299,-6.104,0.519,-1.953,80.000,302.000,1.000
-61276.052,-109849.986,5365.982,-34478.796,1287.106,-19646.984,36896.521,13055.139,-0.189,0.939,-0.295,-6.042,0.153,-1.953,80.000,303.000,1.000
-61572.752,-111512.224,5404.011,-34946.775,1349.925,-19693.892,36825.777,12947.562,-0.189,0.932,-0.297,-6.012,-0.122,-1.892,80.000,304.000,1.000
-61869.644,-113167.359,5440.533,-35413.183,1411.131,-19744.663,36750.840,12837.496,-0.190,0.928,-0.296,-5.798,-0.214,-1.770,80.000,305.000,1.000
-62162.852,-114819.095,5476.517,-35877.125,1471.758,-19796.166,36673.590,12727.054,-0.189,0.925,-0.292,-5.402,-0.702,-1.556,80.000,306.000,1.000
-62450.727,-116458.608,5512.664,-36338.031,1532.552,-19846.165,36596.149,12617.591,-0.190,0.923,-0.294,-5.005,-1.129,-1.312,80.000,307.000,1.000
-62734.682,-118074.632,5548.944,-36795.952,1593.463,-19894.451,36519.821,12509.287,-0.188,0.917,-0.291,-4.364,-1.343,-1.160,80.000,308.000,1.000
-63015.154,-119666.445,5585.119,-37251.030,1654.184,-19940.886,36445.416,12402.631,-0.184,0.913,-0.288,-3.845,-1.678,-0.824,80.000,309.000,1.000
-63290.316,-121243.395,5621.145,-37703.238,1714.623,-19984.756,36373.033,12298.448,-0.186,0.916,-0.287,-3.357,-1.923,-0.580,80.000,310.000,1.000
-63559.729,-122811.971,5656.985,-38152.654,1774.758,-20026.343,36301.562,12196.246,-0.188,0.921,-0.287,-2.777,-2.197,-0.305,80.000,311.000,1.000
-63825.840,-124367.014,5692.532,-38599.485,1834.525,-20067.139,36229.484,12094.071,-0.188,0.928,-0.292,-2.441,-2.472,0.061,80.000,312.000,1.000
-64092.116,-125899.957,5727.770,-39043.810,1893.919,-20108.446,36156.094,11990.296,-0.187,0.931,-0.291,-2.136,-2.838,0.458,80.000,313.000,1.000
-64359.058,-127412.224,5762.788,-39485.522,1953.001,-20150.003,36081.627,11884.916,-0.188,0.931,-0.291,-1.923,-3.204,0.793,80.000,314.000,1.000
-64624.112,-128915.180,5797.538,-39924.608,2011.700,-20190.771,36006.456,11778.772,-0.189,0.928,-0.290,-1.831,-3.357,1.007,80.000,315.000,1.000
-64885.634,-130416.263,5831.689,-40361.357,2069.704,-20230.612,35930.643,11672.128,-0.185,0.925,-0.289,-1.831,-3.754,1.129,80.000,316.000,1.000
-65144.323,-131909.196,5864.936,-40796.081,2126.755,-20270.014,35854.530,11564.970,-0.180,0.924,-0.294,-1.678,-4.120,1.190,80.000,317.000,1.000
-65401.792,-133382.202,5897.392,-41228.710,2182.997,-20308.727,35779.244,11458.478,-0.178,0.924,-0.293,-1.495,-4.303,1.251,80.000,318.000,1.000
-65657.252,-134832.442,5929.465,-41658.877,2238.830,-20345.120,35706.039,11355.049,-0.175,0.925,-0.297,-1.404,-4.608,1.251,80.000,319.000,1.000
-65907.465,-136267.638,5961.473,-42086.254,2294.544,-20377.588,35635.088,11256.454,-0.174,0.929,-0.298,-1.282,-4.852,1.251,80.000,320.000,1.000
-66150.545,-137694.037,5993.502,-42510.722,2350.216,-20406.569,35565.053,11162.029,-0.174,0.932,-0.298,-1.221,-5.005,1.312,80.000,321.000,1.000
-66388.182,-139107.969,6025.403,-42932.439,2405.711,-20434.656,35493.834,11068.629,-0.172,0.937,-0.301,-1.282,-5.157,1.129,80.000,322.000,1.000
-66624.605,-140502.811,6056.815,-43351.835,2460.684,-20464.840,35419.868,10972.688,-0.170,0.937,-0.304,-1.495,-5.280,1.007,80.000,323.000,1.000
-66861.845,-141879.633,6087.449,-43769.261,2514.851,-20498.006,35343.007,10872.841,-0.170,0.938,-0.304,-1.556,-5.463,0.793,80.000,324.000,1.000
-67098.149,-143246.666,6117.355,-44184.651,2568.237,-20532.712,35264.284,10770.277,-0.170,0.937,-0.302,-1.740,-5.524,0.549,80.000,325.000,1.000
-67331.512,-144608.568,6146.786,-44597.669,2621.069,-20567.342,35184.707,10666.590,-0.168,0.937,-0.303,-1.892,-5.646,0.366,80.000,326.000,1.000
-67562.025,-145959.686,6175.959,-45008.059,2673.537,-20601.597,35104.303,10562.058,-0.169,0.934,-0.303,-2.075,-5.768,0.214,80.000,327.000,1.000
-67791.737,-147291.759,6204.917,-45415.837,2725.677,-20636.420,35022.384,10456.073,-0.168,0.939,-0.305,-2.258,-5.768,0.061,80.000,328.000,1.000
-68021.575,-148605.103,6233.534,-45821.205,2777.390,-20672.577,34938.621,10348.581,-0.169,0.941,-0.306,-2.411,-5.798,-0.275,80.000,329.000,1.000
-68249.995,-149908.022,6261.680,-46224.297,2828.574,-20709.937,34853.647,10240.480,-0.164,0.945,-0.309,-2.686,-5.890,-0.336,80.000,330.000,1.000
-68475.501,-151205.895,6289.305,-46625.131,2879.168,-20748.508,34768.100,10132.154,-0.167,0.941,-0.309,-2.869,-5.890,-0.549,80.000,331.000,1.000
-68698.754,-152494.789,6316.239,-47023.882,2928.962,-20789.507,34681.275,10022.181,-0.165,0.939,-0.309,-3.082,-5.951,-0.702,80.000,332.000,1.000
-68922.251,-153767.931,6342.146,-47420.920,2977.629,-20834.459,34591.767,9908.731,-0.165,0.931,-0.308,-3.204,-5.798,-0.793,80.000,333.000,1.000
-69146.483,-155024.406,6366.880,-47816.390,3025.092,-20882.699,34499.379,9792.080,-0.162,0.928,-0.309,-3.326,-5.737,-0.824,80.000,334.000,1.000
-69368.771,-156268.913,6390.710,-48209.972,3071.682,-20931.085,34405.862,9674.903,-0.165,0.926,-0.311,-3.357,-5.432,-1.007,80.000,335.000,1.000
-69586.296,-157503.906,6414.206,-48601.057,3117.978,-20975.906,34314.350,9560.626,-0.162,0.915,-0.314,-3.174,-5.157,-1.007,80.000,336.000,1.000
-69798.013,-158724.743,6438.060,-48988.994,3164.636,-21014.437,34227.848,9451.838,-0.164,0.903,-0.319,-2.930,-5.005,-1.160,80.000,337.000,1.000
-70005.137,-159925.538,6462.768,-49373.407,3212.090,-21046.330,34146.990,9349.157,-0.164,0.889,-0.313,-2.350,-4.913,-1.465,80.000,338.000,1.000
-70208.973,-161106.981,6488.302,-49754.425,3260.247,-21073.403,34069.658,9251.275,-0.157,0.875,-0.305,-1.770,-4.669,-1.648,80.000,339.000,1.000
-70409.760,-162275.815,6514.077,-50132.613,3308.475,-21097.912,33993.292,9156.309,-0.155,0.877,-0.308,-0.916,-4.211,-2.045,80.000,340.000,1.000
-70608.381,-163437.424,6539.188,-50508.757,3355.881,-21121.822,33916.128,9062.366,-0.160,0.897,-0.317,-0.061,-3.876,-2.228,80.000,341.000,1.000
-70806.960,-164590.940,6562.850,-50883.560,3401.742,-21147.131,33836.337,8967.318,-0.168,0.923,-0.323,0.427,-3.601,-2.167,80.000,342.000,1.000
-71007.578,-165732.658,6584.885,-51257.247,3445.942,-21175.197,33752.615,8869.953,-0.176,0.945,-0.325,0.336,-3.479,-2.075,80.000,343.000,1.000
-71209.227,-166861.198,6605.820,-51629.405,3489.027,-21205.145,33665.906,8771.328,-0.180,0.956,-0.327,0.061,-3.510,-1.923,80.000,344.000,1.000
-71408.729,-167978.427,6626.323,-51999.413,3531.645,-21235.249,33578.124,8673.063,-0.180,0.956,-0.331,-0.427,-3.448,-1.831,80.000,345.000,1.000
-71604.988,-169086.183,6646.555,-52367.071,3573.925,-21265.891,33489.392,8574.433,-0.182,0.952,-0.329,-0.946,-3.479,-1.709,80.000,346.000,1.000
-71799.235,-170182.621,6666.276,-52732.569,3615.608,-21298.759,33398.852,8473.273,-0.185,0.951,-0.326,-1.404,-3.479,-1.556,80.000,347.000,1.000
-71992.623,-171263.992,6685.485,-53095.919,3656.700,-21333.765,33307.292,8369.504,-0.188,0.951,-0.323,-1.709,-3.784,-1.190,80.000,348.000,1.000
-72183.589,-172329.098,6704.633,-53456.683,3697.680,-21368.142,33216.774,8265.775,-0.188,0.948,-0.322,-2.167,-3.845,-0.885,80.000,349.000,1.000
-72368.814,-173380.513,6724.218,-53814.350,3739.057,-21399.022,33128.148,8164.675,-0.191,0.947,-0.323,-2.563,-4.059,-0.458,80.000,350.000,1.000
-72546.845,-174421.421,6744.353,-54168.804,3780.907,-21426.205,33040.164,8066.305,-0.194,0.946,-0.327,-2.899,-4.364,-0.153,80.000,351.000,1.000
-72719.569,-175452.537,6764.656,-54520.458,3822.816,-21452.179,32950.883,7968.406,-0.193,0.943,-0.328,-3.235,-4.608,0.244,80.000,352.000,1.000
-72891.439,-176473.529,6784.402,-54870.084,3864.086,-21480.120,32859.487,7868.323,-0.190,0.942,-0.327,-3.601,-4.944,0.397,80.000,353.000,1.000
-73065.518,-177484.723,6802.902,-55218.409,3904.099,-21511.348,32766.517,7764.976,-0.189,0.941,-0.323,-4.089,-5.371,0.488,80.000,354.000,1.000
-73241.338,-178486.411,6819.890,-55565.692,3942.618,-21544.815,32672.607,7659.164,-0.186,0.941,-0.322,-4.456,-5.707,0.458,80.000,355.000,1.000
-73416.996,-179477.605,6835.649,-55911.614,3979.875,-21578.571,32577.883,7552.449,-0.183,0.945,-0.320,-4.883,-5.951,0.336,80.000,356.000,1.000
-73591.092,-180455.993,6850.858,-56255.479,4016.477,-21610.882,32482.776,7446.114,-0.181,0.948,-0.318,-5.280,-6.256,0.183,80.000,357.000,1.000
-73763.379,-181420.147,6866.275,-56596.566,4053.163,-21640.609,32388.342,7340.927,-0.177,0.955,-0.315,-5.798,-6.470,0.122,80.000,358.000,1.000
-73933.035,-182370.795,6882.366,-56934.453,4090.448,-21666.805,32295.824,7237.624,-0.178,0.965,-0.320,-6.622,-6.683,0.183,80.000,359.000,1.000
-74098.415,-183310.127,6899.060,-57269.217,4128.315,-21688.596,32207.310,7137.525,-0.181,0.969,-0.324,-7.507,-6.805,0.122,80.000,360.000,1.000
-74258.917,-184239.972,6915.847,-57601.335,4166.257,-21705.693,32125.802,7042.235,-0.179,0.960,-0.322,-8.392,-7.050,0.244,80.000,361.000,1.000
-74415.450,-185160.264,6932.096,-57931.412,4203.598,-21719.370,32052.060,6952.155,-0.177,0.936,-0.314,-9.064,-7.294,0.305,80.000,362.000,1.000
-74570.690,-186070.228,6947.265,-58260.013,4239.754,-21733.260,31982.049,6865.508,-0.168,0.905,-0.303,-9.216,-7.263,0.244,80.000,363.000,1.000
-74727.335,-186969.722,6961.103,-58587.434,4274.471,-21751.367,31908.871,6778.969,-0.161,0.880,-0.296,-8.820,-7.233,0.153,80.000,364.000,1.000
-74885.999,-187858.897,6973.955,-58913.345,4308.129,-21775.118,31825.993,6688.777,-0.158,0.860,-0.296,-7.599,-7.019,-0.031,80.000,365.000,1.000
-75044.743,-188737.186,6986.721,-59236.809,4341.672,-21802.901,31729.098,6592.005,-0.151,0.851,-0.288,-6.287,-6.744,0.000,80.000,366.000,1.000
-75200.131,-189603.389,7000.191,-59557.006,4375.902,-21832.078,31617.828,6487.979,-0.147,0.843,-0.282,-4.547,-6.134,-0.092,80.000,367.000,1.000
-75350.529,-190457.859,7014.373,-59873.980,4410.786,-21861.143,31497.556,6378.797,-0.138,0.837,-0.276,-2.686,-5.676,-0.214,80.000,368.000,1.000
-75496.405,-191302.486,7028.638,-60188.438,4445.648,-21889.399,31378.304,6268.380,-0.133,0.824,-0.273,-0.549,-4.913,-0.427,80.000,369.000,1.000
-75638.719,-192138.437,7042.411,-60500.971,4479.901,-21916.375,31268.083,6159.981,-0.131,0.816,-0.258,1.862,-4.425,-0.702,80.000,370.000,1.000
-75778.533,-192964.950,7055.547,-60811.676,4513.433,-21942.609,31166.578,6053.812,-0.125,0.808,-0.246,4.333,-3.784,-0.854,80.000,371.000,1.000
-75916.697,-193779.833,7068.223,-61120.349,4546.458,-21969.607,31067.929,5947.789,-0.120,0.797,-0.236,7.080,-2.777,-1.251,80.000,372.000,1.000
-76054.346,-194581.454,7080.576,-61426.864,4579.140,-21998.862,30967.916,5840.312,-0.124,0.793,-0.225,10.101,-1.740,-2.197,80.000,373.000,1.000
-76191.603,-195369.295,7092.520,-61731.338,4611.399,-22030.664,30866.404,5731.873,-0.129,0.791,-0.224,13.672,-1.068,-3.265,80.000,374.000,1.000
-76326.790,-196143.508,7103.885,-62033.943,4643.057,-22063.717,30766.104,5624.982,-0.133,0.795,-0.223,17.334,-0.519,-4.547,80.000,375.000,1.000
-76458.087,-196905.365,7114.628,-62334.716,4674.031,-22095.884,30670.711,5522.709,-0.142,0.803,-0.232,20.782,0.122,-5.829,80.000,376.000,1.000
-76585.034,-197657.745,7124.796,-62633.607,4704.328,-22125.731,30581.850,5426.120,-0.148,0.820,-0.233,24.139,0.610,-6.897,80.000,377.000,1.000
-76709.246,-198404.597,7134.445,-62930.575,4734.002,-22153.776,30496.677,5333.135,-0.157,0.836,-0.241,27.222,1.129,-7.782,80.000,378.000,1.000
-76831.785,-199147.778,7143.724,-63225.496,4763.235,-22181.489,30409.435,5240.429,-0.165,0.858,-0.246,30.060,1.343,-8.606,80.000,379.000,1.000
-76951.712,-199885.240,7152.901,-63518.135,4792.324,-22209.831,30315.948,5146.142,-0.173,0.875,-0.259,32.471,1.709,-9.186,80.000,380.000,1.000
-77068.594,-200613.422,7162.229,-63808.261,4821.518,-22238.982,30216.605,5050.632,-0.179,0.891,-0.261,34.454,1.801,-9.552,80.000,381.000,1.000
-77184.304,-201330.314,7171.783,-64095.797,4850.864,-22268.483,30114.896,4954.960,-0.186,0.903,-0.272,35.950,1.831,-9.918,80.000,382.000,1.000
-77302.233,-202036.541,7181.337,-64380.954,4880.121,-22297.565,30013.546,4859.193,-0.188,0.912,-0.281,37.506,1.862,-10.101,80.000,383.000,1.000
-77422.906,-202733.067,7190.486,-64664.136,4908.894,-22324.870,29912.841,4762.786,-0.191,0.920,-0.292,38.696,1.831,-10.162,80.000,384.000,1.000
-77542.586,-203419.642,7198.885,-64945.706,4936.857,-22348.948,29812.163,4665.988,-0.192,0.936,-0.294,39.642,1.678,-10.010,80.000,385.000,1.000
-77658.182,-204097.022,7206.337,-65225.870,4963.830,-22369.867,29711.650,4569.600,-0.196,0.944,-0.305,40.222,1.617,-9.857,80.000,386.000,1.000
-77770.910,-204768.350,7212.861,-65504.604,4989.850,-22389.456,29611.954,4473.630,-0.195,0.952,-0.311,40.558,1.495,-9.552,80.000,387.000,1.000
-77884.175,-205436.190,7218.846,-65781.512,5015.307,-22409.415,29513.183,4377.409,-0.195,0.952,-0.320,40.588,1.404,-9.308,80.000,388.000,1.000
-77997.096,-206097.421,7225.059,-66055.841,5040.936,-22428.964,29414.626,4281.013,-0.196,0.956,-0.327,40.497,1.282,-9.033,80.000,389.000,1.000
-78104.094,-206744.164,7232.194,-66326.921,5067.389,-22445.815,29315.060,4185.045,-0.202,0.956,-0.333,40.314,1.099,-8.820,80.000,390.000,1.000
-78202.968,-207372.162,7240.200,-66594.804,5094.605,-22459.824,29213.229,4088.130,-0.209,0.960,-0.339,40.039,1.007,-8.514,80.000,391.000,1.000
-78299.101,-207986.062,7248.276,-66860.284,5121.820,-22473.603,29109.251,3986.437,-0.213,0.963,-0.347,39.612,0.732,-8.087,80.000,392.000,1.000
-78399.649,-208594.542,7255.636,-67124.132,5148.291,-22489.076,29005.623,3877.700,-0.218,0.968,-0.356,38.879,0.305,-7.629,80.000,393.000,1.000
-78504.067,-209200.533,7262.073,-67386.550,5173.821,-22504.741,28905.550,3765.159,-0.219,0.975,-0.361,38.025,-0.092,-7.294,80.000,394.000,1.000
-78604.388,-209799.079,7267.808,-67647.335,5198.619,-22517.491,28810.337,3656.346,-0.224,0.980,-0.366,37.109,-0.702,-6.927,80.000,395.000,1.000
-78695.604,-210385.288,7273.125,-67906.241,5222.967,-22526.743,28718.373,3557.526,-0.225,0.982,-0.372,35.919,-1.343,-6.531,80.000,396.000,1.000
-78782.297,-210961.207,7278.109,-68163.224,5246.951,-22536.054,28625.854,3469.178,-0.226,0.982,-0.382,34.698,-2.136,-5.981,80.000,397.000,1.000
-78873.799,-211532.898,7282.634,-68418.429,5270.419,-22550.169,28529.030,3386.955,-0.221,0.980,-0.391,33.234,-2.747,-5.615,80.000,398.000,1.000
-78972.201,-212101.181,7286.633,-68671.918,5293.264,-22569.868,28426.786,3306.310,-0.217,0.977,-0.394,31.830,-3.143,-5.249,80.000,399.000,1.000
-79069.391,-212659.206,7290.261,-68923.525,5315.603,-22591.110,28321.275,3225.276,-0.216,0.970,-0.397,30.243,-3.448,-4.791,80.000,400.000,1.000
-79157.550,-213200.487,7293.713,-69173.049,5337.629,-22609.537,28216.020,3143.441,-0.214,0.963,-0.396,28.809,-3.845,-4.425,80.000,401.000,1.000
-79237.851,-213725.810,7297.138,-69420.349,5359.537,-22623.997,28113.585,3060.393,-0.214,0.955,-0.398,27.405,-4.425,-4.120,80.000,402.000,1.000
-79317.552,-214241.053,7300.683,-69665.273,5381.543,-22635.802,28014.576,2975.860,-0.211,0.947,-0.401,26.093,-4.822,-3.601,80.000,403.000,1.000
-79400.012,-214749.712,7304.334,-69907.819,5403.679,-22646.226,27917.626,2889.869,-0.211,0.940,-0.406,24.933,-5.066,-3.265,80.000,404.000,1.000
-79481.524,-215250.159,7307.776,-70148.292,5425.628,-22655.924,27820.126,2802.122,-0.206,0.936,-0.412,23.682,-5.371,-3.021,80.000,405.000,1.000
-79558.317,-215740.313,7310.544,-70387.158,5446.902,-22666.028,27719.640,2711.678,-0.206,0.934,-0.414,22.552,-5.615,-2.777,80.000,406.000,1.000
-79632.275,-216221.794,7312.372,-70624.710,5467.201,-22678.176,27615.280,2617.822,-0.201,0.929,-0.414,21.454,-5.707,-2.625,80.000,407.000,1.000
-79708.204,-216697.662,7313.504,-70860.761,5486.729,-22692.846,27508.227,2521.703,-0.199,0.926,-0.418,20.264,-5.829,-2.319,80.000,408.000,1.000
-79786.151,-217166.892,7314.649,-71094.653,5506.157,-22707.874,27401.024,2426.390,-0.194,0.925,-0.418,19.196,-5.890,-2.106,80.000,409.000,1.000
-79860.546,-217624.354,7316.473,-71325.720,5526.137,-22719.858,27296.054,2334.634,-0.191,0.923,-0.418,18.066,-5.768,-1.984,80.000,410.000,1.000
-79927.644,-218066.986,7319.040,-71553.872,5546.721,-22727.435,27194.081,2246.529,-0.188,0.923,-0.422,16.785,-5.646,-1.648,80.000,411.000,1.000
-79990.102,-218497.577,7321.779,-71779.666,5567.335,-22732.529,27093.879,2159.684,-0.186,0.917,-0.425,15.564,-5.402,-1.495,80.000,412.000,1.000
-80053.769,-218921.783,7324.033,-72003.764,5587.354,-22738.373,26993.529,2071.837,-0.184,0.916,-0.425,14.343,-5.219,-1.343,80.000,413.000,1.000
-80120.384,-219342.001,7325.638,-72226.341,5606.687,-22746.324,26892.081,1982.838,-0.181,0.913,-0.425,13.062,-4.974,-1.038,80.000,414.000,1.000
-80185.892,-219755.762,7326.931,-72447.082,5625.750,-22755.148,26789.989,1894.146,-0.177,0.912,-0.427,11.810,-4.669,-0.946,80.000,415.000,1.000
-80245.938,-220159.826,7328.270,-72665.649,5644.936,-22763.053,26688.153,1806.839,-0.177,0.911,-0.426,10.559,-4.211,-0.763,80.000,416.000,1.000
-80300.176,-220553.666,7329.678,-72882.022,5664.242,-22769.522,26586.768,1720.467,-0.176,0.908,-0.427,9.216,-3.693,-0.580,80.000,417.000,1.000
-80351.836,-220939.142,7330.928,-73096.411,5683.379,-22775.416,26485.101,1633.701,-0.176,0.903,-0.425,8.148,-3.174,-0.336,80.000,418.000,1.000
-80403.468,-221317.484,7331.807,-73309.013,5702.060,-22781.638,26382.226,1545.522,-0.176,0.901,-0.425,7.111,-2.686,-0.153,80.000,419.000,1.000
-80454.663,-221687.654,7332.256,-73519.878,5720.168,-22788.241,26278.030,1455.837,-0.178,0.897,-0.428,6.042,-2.258,-0.031,80.000,420.000,1.000
-80503.907,-222047.896,7332.339,-73728.941,5737.759,-22794.783,26173.390,1365.224,-0.176,0.895,-0.425,5.035,-1.770,0.153,80.000,421.000,1.000
-80550.449,-222397.661,7332.156,-73936.105,5754.981,-22800.986,26069.365,1274.379,-0.178,0.891,-0.428,4.089,-1.343,0.275,80.000,422.000,1.000
-80595.053,-222737.952,7331.780,-74141.320,5771.965,-22807.162,25966.364,1183.958,-0.177,0.887,-0.427,3.082,-1.038,0.397,80.000,423.000,1.000
-80639.008,-223070.219,7331.232,-74344.609,5788.756,-22813.948,25863.851,1094.407,-0.180,0.883,-0.428,2.350,-0.549,0.519,80.000,424.000,1.000
-80683.312,-223395.727,7330.501,-74546.024,5805.334,-22821.951,25760.658,1005.800,-0.181,0.876,-0.424,1.678,-0.153,0.549,80.000,425.000,1.000
-80728.331,-223715.392,7329.514,-74745.638,5821.596,-22831.607,25655.601,917.763,-0.182,0.874,-0.426,0.885,0.214,0.580,80.000,426.000,1.000
-80773.109,-224029.162,7328.070,-74943.612,5837.325,-22842.933,25548.131,829.491,-0.184,0.874,-0.425,0.397,0.610,0.549,80.000,427.000,1.000
-80816.631,-224336.451,7325.923,-75140.153,5852.281,-22855.425,25439.071,740.403,-0.184,0.876,-0.424,-0.244,0.793,0.519,80.000,428.000,1.000
-80858.918,-224636.816,7323.099,-75335.246,5866.518,-22867.876,25330.785,651.030,-0.188,0.878,-0.427,-0.824,1.038,0.549,80.000,429.000,1.000
-80900.666,-224929.858,7320.044,-75528.495,5880.503,-22878.799,25225.949,563.045,-0.190,0.882,-0.428,-1.495,1.190,0.549,80.000,430.000,1.000
-80941.692,-225214.638,7317.291,-75719.420,5894.756,-22887.365,25125.244,477.870,-0.192,0.882,-0.430,-2.167,1.343,0.549,80.000,431.000,1.000
-80979.635,-225489.539,7314.974,-75907.914,5909.375,-22893.762,25026.320,395.239,-0.192,0.880,-0.429,-2.533,1.404,0.580,80.000,432.000,1.000
-81012.711,-225754.025,7312.713,-76094.364,5923.955,-22899.189,24925.596,313.406,-0.191,0.880,-0.426,-3.113,1.404,0.519,80.000,433.000,1.000
-81042.714,-226010.008,7309.915,-76279.359,5937.900,-22905.344,24820.917,230.271,-0.195,0.875,-0.427,-3.418,1.404,0.488,80.000,434.000,1.000
-81074.034,-226260.607,7306.261,-76463.221,5950.910,-22913.362,24712.685,144.549,-0.193,0.870,-0.428,-3.845,1.495,0.336,80.000,435.000,1.000
-81108.829,-226507.005,7302.009,-76645.687,5963.265,-22922.483,24603.448,56.758,-0.196,0.869,-0.428,-3.998,1.465,0.153,80.000,436.000,1.000
-81143.061,-226746.339,7297.893,-76826.012,5975.706,-22929.779,24496.524,-30.645,-0.197,0.870,-0.427,-4.150,1.404,0.031,80.000,437.000,1.000
-81170.457,-226974.418,7294.620,-77003.464,5988.932,-22932.721,24393.726,-114.924,-0.200,0.874,-0.427,-4.211,1.404,0.000,80.000,438.000,1.000
-81190.113,-227190.971,7292.207,-77177.989,6002.962,-22932.332,24293.591,-195.983,-0.203,0.876,-0.427,-4.181,1.251,-0.153,80.000,439.000,1.000
-81208.045,-227400.695,7289.877,-77350.342,6017.042,-22932.624,24192.721,-276.581,-0.205,0.883,-0.427,-4.517,1.251,-0.153,80.000,440.000,1.000
-81229.565,-227607.536,7286.917,-77521.256,6030.494,-22936.008,24089.352,-358.542,-0.208,0.889,-0.429,-4.639,0.977,-0.244,80.000,441.000,1.000
-81251.987,-227809.299,7283.438,-77690.683,6043.437,-22940.438,23984.647,-440.314,-0.207,0.893,-0.424,-5.157,0.732,-0.214,80.000,442.000,1.000
-81269.263,-228000.963,7279.918,-77858.226,6056.320,-22942.689,23880.310,-519.700,-0.208,0.901,-0.421,-5.554,0.549,-0.214,80.000,443.000,1.000
-81281.209,-228181.762,7276.259,-78024.048,6068.983,-22942.920,23776.103,-597.712,-0.206,0.904,-0.423,-5.890,0.244,-0.244,80.000,444.000,1.000
-81294.383,-228356.120,7271.860,-78188.747,6080.776,-22944.193,23670.540,-677.638,-0.206,0.904,-0.425,-6.409,0.092,-0.214,80.000,445.000,1.000
-81313.298,-228527.439,7266.628,-78352.345,6091.614,-22947.879,23563.431,-760.731,-0.205,0.901,-0.424,-6.744,-0.183,0.000,80.000,446.000,1.000
-81333.689,-228693.549,7261.294,-78514.030,6102.283,-22951.600,23456.657,-844.772,-0.205,0.901,-0.423,-7.202,-0.305,0.183,80.000,447.000,1.000
-81348.255,-228850.476,7256.561,-78673.060,6113.556,-22952.609,23352.173,-927.121,-0.207,0.901,-0.423,-7.355,-0.427,0.275,80.000,448.000,1.000
-81355.676,-228998.108,7252.463,-78829.427,6125.489,-22951.058,23250.106,-1007.636,-0.204,0.900,-0.423,-7.629,-0.641,0.427,80.000,449.000,1.000
-81361.336,-229140.179,7248.540,-78983.633,6137.599,-22949.301,23149.089,-1087.814,-0.205,0.904,-0.425,-7.874,-0.671,0.427,80.000,450.000,1.000
-81370.285,-229279.739,7244.213,-79136.313,6149.246,-22949.346,23047.350,-1168.515,-0.201,0.902,-0.419,-8.026,-0.793,0.427,80.000,451.000,1.000
-81380.876,-229415.345,7239.068,-79287.921,6159.971,-22951.222,22943.543,-1249.288,-0.204,0.902,-0.420,-8.484,-0.946,0.519,80.000,452.000,1.000
-81387.636,-229542.607,7233.123,-79438.460,6169.773,-22953.502,22837.633,-1329.149,-0.205,0.901,-0.419,-8.728,-1.129,0.610,80.000,453.000,1.000
-81389.075,-229659.463,7226.674,-79587.632,6178.967,-22955.216,22730.736,-1408.175,-0.202,0.897,-0.419,-8.972,-1.312,0.702,80.000,454.000,1.000
-81390.294,-229768.778,7219.971,-79735.197,6187.824,-22956.847,22624.025,-1487.858,-0.203,0.897,-0.418,-9.094,-1.465,0.793,80.000,455.000,1.000
-81396.244,-229874.388,7213.265,-79880.917,6196.599,-22958.604,22518.564,-1569.012,-0.201,0.894,-0.414,-9.155,-1.678,0.824,80.000,456.000,1.000
-81404.299,-229975.907,7206.852,-80024.473,6205.615,-22958.858,22415.298,-1650.363,-0.199,0.895,-0.414,-9.186,-1.740,0.793,80.000,457.000,1.000
-81407.658,-230069.941,7200.789,-80165.759,6214.978,-22956.157,22313.806,-1730.229,-0.198,0.891,-0.412,-9.186,-1.831,0.854,80.000,458.000,1.000
-81403.716,-230154.892,7194.809,-80305.015,6224.458,-22951.526,22211.942,-1808.733,-0.196,0.890,-0.406,-9.338,-1.923,0.977,80.000,459.000,1.000
-81397.023,-230233.270,7188.482,-80442.699,6233.618,-22948.018,22107.386,-1887.624,-0.196,0.890,-0.405,-9.308,-1.770,0.916,80.000,460.000,1.000
-81394.061,-230309.257,7181.252,-80579.427,6241.848,-22948.424,21998.807,-1968.763,-0.194,0.886,-0.406,-9.308,-1.862,0.854,80.000,461.000,1.000
-81395.255,-230383.410,7172.786,-80715.589,6248.747,-22952.610,21886.531,-2052.391,-0.191,0.887,-0.405,-9.430,-1.831,0.916,80.000,462.000,1.000
-81394.842,-230451.226,7163.616,-80850.666,6254.813,-22957.012,21773.379,-2136.163,-0.193,0.887,-0.408,-9.247,-1.862,0.916,80.000,463.000,1.000
-81388.092,-230508.060,7154.959,-80983.409,6261.281,-22957.530,21663.483,-2216.972,-0.190,0.883,-0.402,-9.308,-1.862,1.129,80.000,464.000,1.000
-81376.523,-230554.353,7147.679,-81112.919,6269.034,-22953.003,21559.245,-2293.694,-0.188,0.880,-0.401,-9.155,-1.801,1.160,80.000,465.000,1.000
-81364.775,-230594.381,7141.545,-81239.424,6277.832,-22945.479,21459.580,-2367.652,-0.190,0.884,-0.402,-8.911,-1.709,1.190,80.000,466.000,1.000
-81354.126,-230631.099,7135.423,-81364.081,6286.535,-22937.892,21360.923,-2441.176,-0.192,0.885,-0.399,-8.820,-1.801,1.190,80.000,467.000,1.000
-81342.538,-230664.512,7128.147,-81488.077,6294.027,-22932.155,21260.114,-2515.946,-0.192,0.885,-0.398,-8.698,-1.587,1.099,80.000,468.000,1.000
-81328.953,-230693.739,7119.329,-81611.804,6300.008,-22928.570,21156.446,-2592.497,-0.192,0.884,-0.393,-8.575,-1.617,1.160,80.000,469.000,1.000
-81315.364,-230718.655,7109.482,-81734.747,6305.044,-22926.517,21050.996,-2670.558,-0.193,0.880,-0.395,-8.667,-1.678,1.007,80.000,470.000,1.000
-81303.924,-230738.918,7099.493,-81856.020,6309.996,-22925.155,20944.866,-2749.253,-0.191,0.877,-0.394,-8.514,-1.678,1.129,80.000,471.000,1.000
-81293.070,-230752.553,7089.935,-81975.056,6315.338,-22923.430,20838.590,-2827.317,-0.190,0.874,-0.392,-8.209,-1.617,1.007,80.000,472.000,1.000
-81279.527,-230757.591,7080.778,-82091.878,6320.957,-22920.482,20732.460,-2903.703,-0.188,0.872,-0.392,-7.996,-1.587,0.793,80.000,473.000,1.000
-81262.398,-230754.448,7071.770,-82206.745,6326.571,-22916.156,20626.642,-2978.317,-0.188,0.873,-0.394,-7.721,-1.434,0.793,80.000,474.000,1.000
-81243.771,-230745.726,7062.898,-82319.697,6332.195,-22910.883,20521.349,-3051.695,-0.189,0.882,-0.395,-7.568,-1.526,0.885,80.000,475.000,1.000
-81225.038,-230733.191,7054.369,-82430.544,6338.109,-22904.724,20417.095,-3123.886,-0.191,0.897,-0.395,-7.568,-1.434,0.946,80.000,476.000,1.000
-81203.577,-230715.345,7046.251,-82539.232,6344.438,-22896.972,20314.232,-3194.330,-0.194,0.903,-0.396,-7.568,-1.465,1.007,80.000,477.000,1.000
-81176.177,-230689.629,7038.217,-82646.110,6350.848,-22887.603,20212.268,-3262.982,-0.194,0.904,-0.395,-7.874,-1.495,0.977,80.000,478.000,1.000
-81143.720,-230655.915,7029.708,-82751.747,6356.732,-22878.178,20110.094,-3331.123,-0.193,0.894,-0.389,-8.209,-1.617,0.946,80.000,479.000,1.000
-81111.084,-230616.870,7020.339,-82856.513,6361.678,-22870.735,20006.872,-3400.599,-0.193,0.888,-0.389,-8.453,-1.740,0.824,80.000,480.000,1.000
-81082.677,-230575.258,7010.079,-82960.437,6365.665,-22865.968,19902.441,-3472.408,-0.193,0.887,-0.390,-8.606,-1.770,0.854,80.000,481.000,1.000
-81057.876,-230531.030,6999.151,-83063.319,6368.928,-22862.349,19797.249,-3545.925,-0.193,0.886,-0.387,-8.667,-1.770,0.824,80.000,482.000,1.000
-81032.391,-230481.889,6987.932,-83164.775,6371.848,-22857.390,19692.259,-3619.283,-0.196,0.890,-0.389,-8.789,-1.770,0.885,80.000,483.000,1.000
-81002.875,-230426.285,6976.830,-83264.344,6374.836,-22849.812,19588.399,-3691.121,-0.196,0.891,-0.392,-8.881,-1.801,0.977,80.000,484.000,1.000
-80969.788,-230365.377,6966.018,-83361.826,6378.078,-22840.593,19485.796,-3761.864,-0.198,0.891,-0.393,-8.972,-1.801,1.099,80.000,485.000,1.000
-80935.388,-230301.123,6955.375,-83457.379,6381.466,-22831.551,19383.866,-3832.669,-0.198,0.889,-0.397,-9.064,-1.862,1.099,80.000,486.000,1.000
-80899.325,-230232.533,6944.835,-83551.120,6384.938,-22822.927,19282.260,-3903.435,-0.198,0.885,-0.393,-9.033,-2.106,1.312,80.000,487.000,1.000
-80859.964,-230156.723,6934.493,-83643.000,6388.578,-22813.761,19181.049,-3973.048,-0.200,0.882,-0.393,-9.033,-2.258,1.404,80.000,488.000,1.000
-80818.592,-230073.397,6924.199,-83733.188,6392.214,-22804.217,19079.720,-4041.619,-0.201,0.878,-0.387,-8.820,-2.289,1.526,80.000,489.000,1.000
-80779.500,-229985.779,6913.467,-83822.162,6395.347,-22795.926,18977.124,-4110.714,-0.201,0.879,-0.386,-8.850,-2.441,1.495,80.000,490.000,1.000
-80745.278,-229896.592,6901.970,-83910.213,6397.662,-22789.657,18872.830,-4181.090,-0.204,0.880,-0.383,-8.636,-2.502,1.465,80.000,491.000,1.000
-80713.120,-229804.639,6889.915,-83997.097,6399.388,-22783.782,18767.685,-4251.632,-0.200,0.881,-0.383,-8.453,-2.686,1.648,80.000,492.000,1.000
-80678.155,-229706.821,6877.771,-84082.356,6400.984,-22776.188,18662.586,-4320.889,-0.205,0.890,-0.387,-8.453,-2.747,1.556,80.000,493.000,1.000
-80638.421,-229601.927,6865.731,-84165.863,6402.591,-22766.685,18557.306,-4388.922,-0.206,0.902,-0.387,-8.392,-3.021,1.678,80.000,494.000,1.000
-80595.563,-229491.087,6853.718,-84247.769,6404.077,-22756.541,18451.396,-4456.580,-0.205,0.906,-0.386,-8.850,-3.235,1.984,80.000,495.000,1.000
-80551.411,-229374.906,6841.848,-84327.985,6405.550,-22746.072,18345.684,-4523.489,-0.207,0.913,-0.385,-9.186,-3.357,2.197,80.000,496.000,1.000
-80505.038,-229251.537,6830.456,-84406.144,6407.398,-22733.968,18241.750,-4588.339,-0.208,0.916,-0.379,-9.613,-3.693,2.502,80.000,497.000,1.000
-80455.071,-229119.107,6819.563,-84482.159,6409.724,-22719.432,18140.194,-4650.969,-0.205,0.914,-0.381,-10.254,-3.967,2.747,80.000,498.000,1.000
-80402.530,-228978.810,6808.592,-84556.547,6412.010,-22703.716,18040.045,-4713.291,-0.205,0.914,-0.380,-10.712,-4.181,2.899,80.000,499.000,1.000
-80350.544,-228834.569,6796.796,-84630.041,6413.519,-22689.111,17939.844,-4777.686,-0.203,0.908,-0.379,-11.200,-4.517,3.113,80.000,500.000,1.000
-80301.201,-228689.441,6784.016,-84702.830,6414.074,-22676.497,17838.974,-4844.508,-0.202,0.902,-0.383,-11.658,-4.639,3.204,80.000,501.000,1.000
-80252.499,-228542.520,6770.939,-84774.298,6414.299,-22664.066,17738.087,-4911.516,-0.201,0.900,-0.382,-11.932,-4.852,3.265,80.000,502.000,1.000
-80200.408,-228390.412,6758.550,-84843.525,6415.108,-22649.018,17638.705,-4975.743,-0.200,0.895,-0.382,-12.268,-4.944,3.357,80.000,503.000,1.000
-80142.582,-228230.775,6747.364,-84910.005,6416.996,-22630.129,17542.055,-5036.025,-0.195,0.895,-0.379,-12.543,-5.096,3.326,80.000,504.000,1.000
-80080.294,-228064.270,6737.051,-84974.007,6419.684,-22608.829,17447.654,-5094.038,-0.193,0.899,-0.376,-12.726,-5.096,3.265,80.000,505.000,1.000
-80017.282,-227893.408,6726.647,-85036.434,6422.289,-22588.149,17352.787,-5153.131,-0.193,0.915,-0.373,-13.062,-5.249,3.265,80.000,506.000,1.000
-79956.205,-227719.778,6715.149,-85098.300,6423.848,-22570.742,17253.626,-5216.262,-0.195,0.939,-0.372,-13.458,-5.188,3.418,80.000,507.000,1.000
-79897.668,-227543.466,6702.075,-85160.160,6423.847,-22557.644,17147.963,-5284.291,-0.194,0.954,-0.366,-14.404,-5.249,3.693,80.000,508.000,1.000
-79840.570,-227363.762,6687.778,-85221.727,6422.559,-22547.528,17037.592,-5355.370,-0.190,0.956,-0.363,-15.625,-5.341,3.967,80.000,509.000,1.000
-79783.040,-227179.810,6673.189,-85282.080,6420.851,-22537.525,16927.385,-5426.044,-0.186,0.948,-0.362,-16.907,-5.402,4.150,80.000,510.000,1.000
-79723.600,-226990.869,6659.049,-85340.448,6419.458,-22525.411,16821.398,-5493.620,-0.183,0.934,-0.359,-18.005,-5.249,4.303,80.000,511.000,1.000
-79660.773,-226795.621,6645.500,-85396.667,6418.558,-22510.412,16720.434,-5557.538,-0.180,0.923,-0.354,-18.829,-5.188,4.425,80.000,512.000,1.000
-79593.722,-226592.617,6632.382,-85450.889,6418.048,-22492.551,16623.177,-5618.784,-0.182,0.914,-0.352,-19.287,-5.066,4.456,80.000,513.000,1.000
-79523.235,-226382.199,6619.482,-85503.321,6417.772,-22472.528,16527.959,-5679.163,-0.182,0.913,-0.353,-19.592,-4.822,4.578,80.000,514.000,1.000
-79451.916,-226167.643,6606.469,-85554.308,6417.402,-22452.008,16433.475,-5740.482,-0.180,0.916,-0.351,-19.928,-4.639,4.852,80.000,515.000,1.000
-79381.785,-225952.387,6593.131,-85604.100,6416.661,-22432.010,16339.245,-5802.756,-0.181,0.916,-0.347,-20.203,-4.608,5.066,80.000,516.000,1.000
-79311.196,-225736.000,6579.658,-85652.523,6415.673,-22411.621,16244.903,-5864.086,-0.177,0.914,-0.345,-20.508,-4.395,5.280,80.000,517.000,1.000
-79237.408,-225515.398,6566.287,-85699.306,6414.683,-22390.287,16148.791,-5923.414,-0.173,0.912,-0.343,-20.660,-4.242,5.371,80.000,518.000,1.000
-79160.314,-225288.616,6552.948,-85744.486,6413.681,-22369.584,16048.540,-5982.324,-0.172,0.910,-0.344,-20.721,-4.059,5.463,80.000,519.000,1.000
-79082.645,-225056.221,6539.486,-85788.232,6412.564,-22351.536,15943.545,-6043.326,-0.174,0.912,-0.342,-20.721,-3.784,5.493,80.000,520.000,1.000
-79007.081,-224819.754,6525.937,-85830.563,6411.366,-22336.042,15836.418,-6106.955,-0.174,0.909,-0.336,-20.752,-3.510,5.463,80.000,521.000,1.000
-78932.819,-224579.183,6512.419,-85871.415,6410.164,-22320.569,15731.478,-6170.969,-0.174,0.909,-0.332,-20.660,-3.296,5.402,80.000,522.000,1.000
-78856.980,-224333.418,6498.864,-85910.900,6408.846,-22302.643,15631.727,-6232.395,-0.175,0.909,-0.330,-20.447,-3.052,5.249,80.000,523.000,1.000
-78778.250,-224082.904,6484.958,-85949.351,6407.088,-22282.110,15537.107,-6290.178,-0.174,0.907,-0.328,-20.325,-2.838,5.157,80.000,524.000,1.000
-78698.648,-223830.625,6470.341,-85987.115,6404.543,-22261.189,15444.949,-6345.803,-0.172,0.906,-0.323,-20.111,-2.655,5.005,80.000,525.000,1.000
-78620.868,-223579.090,6454.965,-86024.192,6401.188,-22241.832,15352.584,-6401.201,-0.169,0.901,-0.320,-19.806,-2.472,4.913,80.000,526.000,1.000
-78543.110,-223325.609,6439.462,-86059.883,6397.667,-22222.590,15260.668,-6455.739,-0.167,0.897,-0.313,-19.440,-2.167,4.639,80.000,527.000,1.000
-78460.482,-223063.736,6424.918,-86093.067,6395.036,-22200.040,15172.129,-6506.660,-0.164,0.892,-0.313,-18.951,-1.862,4.517,80.000,528.000,1.000
-78371.565,-222790.591,6411.743,-86123.349,6393.664,-22174.029,15085.425,-6554.525,-0.162,0.888,-0.312,-18.372,-1.404,4.303,80.000,529.000,1.000
-78281.521,-222510.976,6398.917,-86151.785,6392.541,-22149.784,14991.730,-6606.286,-0.161,0.882,-0.303,-17.731,-0.885,4.272,80.000,530.000,1.000
-78196.818,-222232.309,6384.871,-86179.984,6390.157,-22132.926,14882.816,-6669.555,-0.159,0.877,-0.293,-16.510,-0.641,4.150,80.000,531.000,1.000
-78116.995,-221955.940,6369.152,-86208.434,6386.124,-22122.748,14760.439,-6744.441,-0.158,0.871,-0.286,-15.350,-0.305,3.754,80.000,532.000,1.000
-78035.403,-221676.352,6352.912,-86236.006,6381.611,-22112.546,14635.577,-6823.208,-0.158,0.868,-0.282,-14.069,0.031,3.357,80.000,533.000,1.000
-77946.847,-221388.212,6337.640,-86261.220,6378.069,-22096.144,14519.728,-6897.196,-0.160,0.871,-0.282,-12.787,0.397,2.808,80.000,534.000,1.000
-77852.263,-221091.482,6323.827,-86283.585,6375.923,-22072.466,14418.385,-6961.876,-0.163,0.878,-0.280,-11.139,0.671,2.228,80.000,535.000,1.000
-77756.170,-220789.495,6310.841,-86303.731,6374.505,-22044.593,14329.753,-7017.114,-0.165,0.888,-0.277,-9.705,0.854,1.831,80.000,536.000,1.000
-77662.067,-220485.263,6297.435,-86322.898,6372.587,-22017.241,14245.844,-7066.689,-0.169,0.899,-0.274,-8.514,1.038,1.373,80.000,537.000,1.000
-77571.959,-220180.986,6282.482,-86342.198,6369.091,-21994.587,14156.964,-7116.623,-0.173,0.909,-0.271,-7.446,1.160,1.190,80.000,538.000,1.000
-77485.643,-219877.214,6265.850,-86361.738,6363.909,-21977.238,14058.796,-7170.855,-0.175,0.917,-0.272,-6.531,1.282,1.007,80.000,539.000,1.000
-77400.320,-219571.965,6248.538,-86380.495,6358.035,-21961.930,13954.738,-7228.532,-0.176,0.921,-0.270,-5.798,1.312,0.916,80.000,540.000,1.000
-77312.601,-219262.212,6231.796,-86397.205,6352.714,-21944.839,13851.146,-7285.879,-0.178,0.920,-0.266,-4.944,1.343,0.916,80.000,541.000,1.000
-77220.316,-218946.016,6216.109,-86411.387,6348.444,-21924.326,13751.488,-7340.180,-0.180,0.923,-0.268,-4.181,1.282,0.763,80.000,542.000,1.000
-77124.289,-218624.099,6200.904,-86423.670,6344.644,-21901.629,13654.636,-7392.119,-0.182,0.922,-0.269,-3.265,1.251,0.732,80.000,543.000,1.000
-77027.184,-218298.744,6185.216,-86435.107,6340.301,-21879.102,13557.568,-7444.461,-0.184,0.922,-0.270,-2.533,1.129,0.671,80.000,544.000,1.000
-76930.867,-217971.405,6168.682,-86446.116,6334.985,-21857.638,13459.202,-7498.561,-0.185,0.922,-0.269,-1.740,1.007,0.702,80.000,545.000,1.000
-76835.321,-217641.773,6151.823,-86456.153,6329.185,-21835.834,13361.280,-7552.874,-0.188,0.925,-0.269,-1.007,0.916,0.702,80.000,546.000,1.000
-76739.246,-217308.740,6135.348,-86464.461,6323.630,-21811.751,13265.637,-7605.206,-0.189,0.923,-0.269,-0.061,0.702,0.702,80.000,547.000,1.000
-76642.714,-216972.658,6119.320,-86470.956,6318.453,-21785.442,13171.667,-7655.433,-0.189,0.929,-0.270,0.610,0.702,0.671,80.000,548.000,1.000
-76546.592,-216634.716,6103.239,-86476.157,6313.238,-21758.536,13077.083,-7705.090,-0.190,0.934,-0.269,1.312,0.671,0.732,80.000,549.000,1.000
-76450.249,-216294.471,6086.755,-86480.451,6307.667,-21731.951,12980.538,-7754.977,-0.188,0.938,-0.272,1.831,0.488,0.885,80.000,550.000,1.000
-76352.125,-215950.068,6069.980,-86483.745,6301.810,-21705.151,12882.824,-7804.509,-0.188,0.942,-0.272,2.167,0.427,0.977,80.000,551.000,1.000
-76251.660,-215600.666,6053.159,-86485.784,6295.844,-21677.335,12785.648,-7853.281,-0.186,0.943,-0.274,2.686,0.244,1.160,80.000,552.000,1.000
-76150.720,-215247.994,6036.353,-86486.477,6289.797,-21648.761,12689.814,-7901.907,-0.187,0.945,-0.276,2.869,0.061,1.312,80.000,553.000,1.000
-76050.731,-214893.744,6019.550,-86485.813,6283.671,-21619.970,12594.762,-7950.854,-0.188,0.942,-0.275,3.204,-0.214,1.495,80.000,554.000,1.000
-75950.247,-214536.898,6002.829,-86483.701,6277.577,-21590.840,12499.251,-7999.633,-0.184,0.941,-0.275,3.479,-0.244,1.617,80.000,555.000,1.000
-75847.602,-214175.671,5986.138,-86480.194,6271.490,-21561.531,12401.890,-8048.051,-0.183,0.939,-0.281,3.754,-0.336,1.801,80.000,556.000,1.000
-75743.304,-213810.122,5969.184,-86475.601,6265.128,-21532.993,12301.877,-8097.042,-0.182,0.940,-0.280,3.876,-0.488,1.984,80.000,557.000,1.000
-75638.945,-213441.517,5951.911,-86470.012,6258.429,-21505.523,12200.237,-8146.973,-0.181,0.938,-0.284,4.181,-0.671,2.136,80.000,558.000,1.000
-75533.600,-213069.553,5934.771,-86463.024,6251.833,-21477.460,12099.605,-8196.403,-0.177,0.937,-0.284,4.333,-0.702,2.228,80.000,559.000,1.000
-75424.270,-212692.507,5918.205,-86454.246,6245.759,-21446.724,12002.248,-8243.574,-0.178,0.939,-0.287,4.425,-0.793,2.136,80.000,560.000,1.000
-75310.097,-212309.932,5902.194,-86443.699,6240.179,-21412.996,11908.725,-8288.126,-0.176,0.938,-0.290,4.517,-0.854,2.167,80.000,561.000,1.000
-75193.820,-211923.683,5886.369,-86431.701,6234.735,-21377.910,11817.773,-8331.368,-0.174,0.939,-0.294,4.608,-0.854,2.045,80.000,562.000,1.000
-75080.221,-211536.893,5870.196,-86418.719,6228.905,-21344.041,11726.851,-8375.553,-0.173,0.941,-0.293,4.669,-0.854,1.953,80.000,563.000,1.000
-74971.410,-211150.869,5853.210,-86405.192,6222.223,-21312.905,11633.509,-8422.355,-0.169,0.947,-0.300,4.700,-0.763,1.678,80.000,564.000,1.000
-74864.868,-210763.728,5835.302,-86391.282,6214.574,-21283.986,11536.902,-8471.795,-0.170,0.952,-0.303,4.456,-0.702,1.556,80.000,565.000,1.000
-74757.128,-210372.938,5816.830,-86376.702,6206.315,-21255.601,11438.344,-8522.527,-0.168,0.958,-0.303,4.120,-0.610,1.404,80.000,566.000,1.000
-74646.813,-209977.564,5798.514,-86360.764,6198.163,-21225.791,11340.647,-8572.652,-0.167,0.958,-0.306,3.845,-0.488,1.343,80.000,567.000,1.000
-74534.710,-209578.236,5781.001,-86342.798,6190.761,-21193.251,11246.338,-8620.549,-0.166,0.958,-0.307,3.448,-0.488,1.312,80.000,568.000,1.000
-74420.423,-209174.798,5764.369,-86322.684,6184.209,-21157.629,11156.000,-8665.417,-0.165,0.961,-0.309,3.021,-0.275,1.129,80.000,569.000,1.000
-74301.380,-208765.446,5748.169,-86300.840,6178.092,-21119.411,11068.333,-8707.326,-0.164,0.953,-0.310,2.594,-0.183,1.129,80.000,570.000,1.000
-74177.130,-208349.754,5731.792,-86277.880,6171.806,-21080.385,10981.030,-8747.621,-0.161,0.947,-0.312,2.106,0.031,0.916,80.000,571.000,1.000
-74052.150,-207931.150,5714.636,-86254.445,6164.710,-21043.849,10891.335,-8789.192,-0.160,0.938,-0.311,1.801,0.214,0.732,80.000,572.000,1.000
-73932.852,-207514.627,5696.330,-86230.969,6156.389,-21012.856,10797.273,-8834.652,-0.158,0.934,-0.314,1.465,0.488,0.580,80.000,573.000,1.000
-73819.914,-207100.679,5677.211,-86207.167,6147.177,-20986.669,10699.564,-8883.479,-0.157,0.937,-0.318,1.312,0.824,0.275,80.000,574.000,1.000
-73706.742,-206684.061,5658.300,-86182.047,6138.123,-20960.437,10601.769,-8932.032,-0.156,0.939,-0.319,1.190,1.099,0.153,80.000,575.000,1.000
-73587.149,-206259.910,5640.472,-86154.724,6130.129,-20929.805,10507.404,-8977.075,-0.156,0.945,-0.320,0.885,1.648,-0.092,80.000,576.000,1.000
-73461.380,-205828.804,5623.689,-86125.195,6123.156,-20894.956,10416.771,-9018.841,-0.159,0.947,-0.323,0.671,1.892,-0.122,80.000,577.000,1.000
-73334.885,-205395.523,5607.117,-86094.257,6116.337,-20859.840,10327.089,-9060.171,-0.160,0.947,-0.326,0.153,2.197,-0.122,80.000,578.000,1.000
-73210.991,-204962.884,5589.949,-86062.695,6108.831,-20827.567,10235.499,-9103.043,-0.160,0.941,-0.324,-0.244,2.411,-0.061,80.000,579.000,1.000
-73087.313,-204528.585,5572.027,-86030.656,6100.469,-20797.649,10141.589,-9146.777,-0.159,0.937,-0.325,-0.549,2.563,0.031,80.000,580.000,1.000
-72960.470,-204089.142,5553.741,-85997.753,6091.664,-20767.816,10046.910,-9189.762,-0.163,0.934,-0.322,-0.977,2.930,0.183,80.000,581.000,1.000
-72831.132,-203644.825,5535.490,-85963.609,6082.847,-20737.068,9952.674,-9231.975,-0.165,0.932,-0.320,-1.129,2.960,0.153,80.000,582.000,1.000
-72703.554,-203199.425,5517.390,-85928.137,6074.142,-20705.984,9859.352,-9274.500,-0.164,0.929,-0.321,-1.465,3.296,0.244,80.000,583.000,1.000
-72579.492,-202754.981,5499.392,-85891.376,6065.492,-20674.383,9767.712,-9317.272,-0.166,0.928,-0.320,-1.648,3.448,0.061,80.000,584.000,1.000
-72456.227,-202309.762,5481.329,-85853.460,6056.733,-20641.417,9677.903,-9359.432,-0.167,0.923,-0.319,-1.801,3.357,-0.031,80.000,585.000,1.000
-72331.225,-201861.945,5462.874,-85814.728,6047.556,-20607.792,9588.311,-9401.317,-0.168,0.923,-0.321,-1.984,3.632,-0.244,80.000,586.000,1.000
-72204.649,-201411.879,5443.768,-85775.517,6037.724,-20575.314,9497.322,-9444.103,-0.170,0.923,-0.318,-1.892,3.693,-0.427,80.000,587.000,1.000
-72078.263,-200960.708,5424.092,-85735.826,6027.341,-20544.765,9405.164,-9487.855,-0.168,0.921,-0.321,-2.075,3.662,-0.641,80.000,588.000,1.000
-71952.203,-200507.583,5404.281,-85695.253,6016.842,-20514.854,9313.100,-9531.007,-0.169,0.921,-0.322,-2.136,3.723,-0.885,80.000,589.000,1.000
-71824.601,-200049.913,5384.869,-85653.240,6006.709,-20483.545,9221.830,-9571.824,-0.172,0.919,-0.320,-2.289,3.662,-0.946,80.000,590.000,1.000
-71694.262,-199586.292,5366.232,-85609.363,5997.252,-20450.075,9131.161,-9610.045,-0.174,0.922,-0.323,-2.350,3.632,-0.854,80.000,591.000,1.000
-71561.132,-199117.398,5348.535,-85563.391,5988.610,-20415.031,9040.879,-9646.917,-0.177,0.922,-0.323,-2.380,3.448,-0.824,80.000,592.000,1.000
-71426.120,-198645.279,5331.660,-85515.389,5980.702,-20379.414,8951.425,-9684.005,-0.178,0.926,-0.322,-2.533,3.296,-0.732,80.000,593.000,1.000
-71289.841,-198171.513,5315.144,-85465.820,5973.116,-20343.662,8863.361,-9722.167,-0.181,0.927,-0.324,-2.747,3.052,-0.702,80.000,594.000,1.000
-71152.033,-197695.934,5298.384,-85415.341,5965.281,-20307.532,8776.511,-9761.369,-0.182,0.928,-0.326,-3.021,2.808,-0.732,80.000,595.000,1.000
-71013.155,-197217.999,5280.913,-85364.482,5956.742,-20271.085,8689.773,-9801.346,-0.181,0.927,-0.330,-3.235,2.655,-0.824,80.000,596.000,1.000
-70875.036,-196738.683,5262.506,-85313.506,5947.257,-20235.481,8601.495,-9842.395,-0.180,0.929,-0.328,-3.479,2.411,-0.824,80.000,597.000,1.000
-70740.222,-196260.273,5243.219,-85262.353,5936.856,-20202.527,8510.357,-9885.025,-0.183,0.934,-0.331,-3.845,2.106,-0.885,80.000,598.000,1.000
-70608.799,-195783.037,5223.451,-85210.591,5925.930,-20172.466,8416.636,-9928.562,-0.184,0.938,-0.328,-4.120,1.801,-0.885,80.000,599.000,1.000
-70477.300,-195303.734,5203.793,-85157.583,5915.093,-20143.076,8322.577,-9970.841,-0.183,0.942,-0.326,-4.547,1.587,-0.824,80.000,600.000,1.000
-70342.035,-194818.785,5184.654,-85102.908,5904.766,-20111.812,8230.746,-10009.994,-0.182,0.942,-0.327,-4.944,1.373,-0.763,80.000,601.000,1.000
-70201.698,-194327.459,5166.067,-85046.586,5894.951,-20077.907,8142.060,-10046.183,-0.180,0.940,-0.325,-5.341,1.160,-0.580,80.000,602.000,1.000
-70058.059,-193832.236,5147.800,-84988.918,5885.356,-20042.321,8055.760,-10081.073,-0.182,0.943,-0.323,-5.707,0.946,-0.549,80.000,603.000,1.000
-69913.815,-193336.143,5129.548,-84930.249,5875.658,-20006.104,7970.627,-10116.097,-0.184,0.947,-0.322,-6.073,0.610,-0.397,80.000,604.000,1.000
-69770.888,-192840.660,5110.993,-84870.882,5865.589,-19969.805,7885.667,-10151.684,-0.184,0.952,-0.327,-6.592,0.427,-0.244,80.000,605.000,1.000
-69630.445,-192345.870,5091.908,-84811.003,5854.978,-19933.965,7800.068,-10187.662,-0.187,0.953,-0.325,-6.958,0.214,0.031,80.000,606.000,1.000
-69491.990,-191850.652,5072.381,-84750.497,5843.914,-19898.843,7713.231,-10223.601,-0.187,0.954,-0.325,-7.568,-0.031,0.153,80.000,607.000,1.000
-69354.056,-191353.447,5052.804,-84688.965,5832.760,-19864.228,7624.922,-10258.859,-0.188,0.951,-0.322,-7.965,-0.305,0.305,80.000,608.000,1.000
-69214.868,-190852.698,5033.508,-84626.082,5821.835,-19829.542,7535.283,-10292.956,-0.185,0.943,-0.318,-8.362,-0.671,0.549,80.000,609.000,1.000
-69072.884,-190347.112,5014.511,-84561.836,5811.184,-19794.131,7444.980,-10326.016,-0.184,0.938,-0.320,-8.606,-1.068,0.702,80.000,610.000,1.000
-68927.822,-189836.562,4995.621,-84496.442,5800.637,-19757.668,7355.242,-10358.707,-0.186,0.929,-0.320,-8.728,-1.373,0.824,80.000,611.000,1.000
-68780.400,-189322.508,4976.552,-84430.215,5789.916,-19720.314,7267.371,-10391.837,-0.183,0.926,-0.321,-8.759,-1.587,0.824,80.000,612.000,1.000
-68632.284,-188807.591,4957.054,-84363.418,5778.748,-19682.655,7182.327,-10425.622,-0.181,0.924,-0.319,-8.850,-1.923,0.732,80.000,613.000,1.000
-68484.603,-188293.464,4937.181,-84296.000,5767.152,-19644.971,7100.243,-10459.215,-0.177,0.923,-0.319,-8.698,-2.014,0.671,80.000,614.000,1.000
-68337.412,-187779.840,4917.284,-84227.599,5755.455,-19607.376,7019.582,-10491.650,-0.176,0.924,-0.320,-8.636,-2.258,0.641,80.000,615.000,1.000
-68190.919,-187265.984,4897.633,-84157.923,5743.935,-19570.482,6937.450,-10523.253,-0.173,0.923,-0.316,-8.545,-2.350,0.641,80.000,616.000,1.000
-68044.940,-186751.066,4878.238,-84086.956,5732.621,-19534.668,6852.110,-10555.222,-0.174,0.922,-0.311,-8.484,-2.350,0.610,80.000,617.000,1.000
-67898.927,-186233.981,4858.994,-84014.832,5721.405,-19499.324,6765.303,-10587.740,-0.176,0.920,-0.312,-8.179,-2.472,0.641,80.000,618.000,1.000
-67752.150,-185713.554,4839.840,-83941.662,5710.198,-19463.228,6680.538,-10619.617,-0.177,0.915,-0.313,-7.965,-2.502,0.824,80.000,619.000,1.000
-67604.352,-185189.498,4820.717,-83867.533,5698.918,-19426.044,6598.457,-10650.449,-0.176,0.914,-0.309,-7.690,-2.472,0.946,80.000,620.000,1.000
-67456.147,-184662.826,4801.471,-83792.591,5687.446,-19388.811,6515.747,-10681.887,-0.175,0.910,-0.308,-7.294,-2.594,1.160,80.000,621.000,1.000
-67307.265,-184134.218,4781.993,-83716.906,5675.744,-19352.192,6429.314,-10715.684,-0.173,0.908,-0.306,-6.897,-2.594,1.221,80.000,622.000,1.000
-67156.863,-183603.548,4762.451,-83640.292,5664.025,-19315.468,6339.611,-10751.564,-0.176,0.906,-0.306,-6.226,-2.502,1.251,80.000,623.000,1.000
-67005.113,-183071.173,4743.080,-83562.527,5652.491,-19277.522,6249.571,-10787.861,-0.174,0.908,-0.305,-5.676,-2.441,1.343,80.000,624.000,1.000
-66853.953,-182538.829,4723.739,-83483.778,5640.929,-19238.451,6161.908,-10823.204,-0.175,0.911,-0.305,-5.066,-2.380,1.404,80.000,625.000,1.000
-66705.095,-182007.834,4704.083,-83404.392,5628.958,-19199.295,6077.606,-10856.668,-0.173,0.910,-0.299,-4.395,-2.350,1.617,80.000,626.000,1.000
-66556.511,-181476.073,4684.239,-83324.221,5616.732,-19160.141,5995.758,-10887.237,-0.172,0.912,-0.298,-4.089,-2.136,1.862,80.000,627.000,1.000
-66404.028,-180939.134,4664.923,-83242.509,5605.032,-19119.883,5914.389,-10914.424,-0.171,0.911,-0.299,-3.357,-1.892,1.984,80.000,628.000,1.000
-66245.046,-180393.975,4646.822,-83158.560,5594.571,-19077.565,5831.648,-10939.382,-0.167,0.912,-0.300,-2.777,-1.587,2.441,80.000,629.000,1.000
-66080.847,-179841.520,4629.850,-83072.497,5585.232,-19033.888,5746.589,-10964.866,-0.163,0.919,-0.300,-2.106,-1.129,2.838,80.000,630.000,1.000
-65916.254,-179286.412,4613.018,-82985.381,5575.964,-18991.228,5659.429,-10993.803,-0.158,0.922,-0.293,-1.434,-0.488,3.448,80.000,631.000,1.000
-65756.051,-178733.826,4595.037,-82898.551,5565.452,-18951.768,5571.315,-11027.615,-0.152,0.929,-0.295,-1.129,0.427,4.333,80.000,632.000,1.000
-65602.700,-178186.762,4575.198,-82812.718,5553.007,-18915.805,5484.028,-11065.310,-0.146,0.936,-0.292,-0.549,1.373,5.554,80.000,633.000,1.000
-65454.751,-177644.229,4553.945,-82727.397,5539.127,-18880.808,5400.008,-11103.618,-0.140,0.941,-0.290,-0.244,2.655,6.775,80.000,634.000,1.000
-65307.784,-177101.978,4532.558,-82641.272,5525.132,-18842.668,5321.583,-11138.625,-0.135,0.946,-0.292,-0.061,4.303,8.301,80.000,635.000,1.000
-65158.304,-176556.139,4512.009,-82553.354,5511.997,-18799.243,5248.399,-11168.470,-0.132,0.944,-0.294,0.183,6.134,9.949,80.000,636.000,1.000
-65005.595,-176005.835,4492.152,-82463.796,5499.531,-18752.805,5175.329,-11194.818,-0.130,0.938,-0.288,0.488,8.179,11.627,80.000,637.000,1.000
-64851.786,-175453.687,4471.963,-82373.642,5486.658,-18708.962,5094.863,-11221.601,-0.134,0.932,-0.290,0.763,10.406,13.000,80.000,638.000,1.000
-64699.325,-174903.577,4450.519,-82283.850,5472.426,-18672.037,5003.156,-11252.013,-0.139,0.924,-0.290,1.343,12.726,14.343,80.000,639.000,1.000
-64548.561,-174357.594,4427.882,-82194.399,5456.903,-18641.232,4903.704,-11285.975,-0.139,0.917,-0.285,1.984,15.076,15.961,80.000,640.000,1.000
-64397.342,-173814.212,4405.344,-82104.016,5441.405,-18610.775,4805.406,-11319.832,-0.140,0.917,-0.282,2.625,17.365,17.487,80.000,641.000,1.000
-64241.894,-173268.604,4384.633,-82010.961,5427.692,-18573.801,4716.738,-11349.227,-0.140,0.921,-0.282,3.235,19.714,18.921,80.000,642.000,1.000
-64080.969,-172716.857,4366.396,-81914.564,5416.447,-18527.977,4640.053,-11373.188,-0.143,0.928,-0.283,3.723,21.881,20.386,80.000,643.000,1.000
-63917.132,-172158.715,4349.636,-81815.797,5406.704,-18476.826,4570.849,-11394.623,-0.148,0.937,-0.286,4.272,24.170,21.637,80.000,644.000,1.000
-63753.847,-171596.065,4332.736,-81716.275,5396.840,-18425.781,4502.351,-11416.768,-0.153,0.943,-0.294,4.364,26.306,22.766,80.000,645.000,1.000
-63592.974,-171030.754,4314.561,-81617.152,5385.678,-18378.227,4430.110,-11440.643,-0.159,0.946,-0.294,4.456,28.107,23.743,80.000,646.000,1.000
-63433.725,-170463.548,4294.727,-81518.834,5372.800,-18334.384,4353.127,-11465.625,-0.161,0.942,-0.294,4.456,29.755,24.597,80.000,647.000,1.000
-63274.667,-169894.974,4273.508,-81421.050,5358.488,-18292.550,4272.611,-11490.691,-0.157,0.938,-0.293,4.486,31.311,24.994,80.000,648.000,1.000
-63115.366,-169325.995,4251.681,-81323.006,5343.544,-18250.687,4190.304,-11514.906,-0.154,0.934,-0.293,4.517,32.715,25.360,80.000,649.000,1.000
-62956.647,-168757.997,4230.099,-81223.831,5328.824,-18207.577,4107.563,-11537.809,-0.150,0.933,-0.297,4.547,34.241,25.452,80.000,650.000,1.000
-62799.063,-168191.767,4209.310,-81122.993,5314.858,-18162.656,4025.702,-11559.422,-0.150,0.936,-0.299,4.608,35.431,25.391,80.000,651.000,1.000
-62640.362,-167626.001,4189.501,-81020.338,5301.825,-18115.206,3946.123,-11579.950,-0.149,0.938,-0.304,4.608,36.621,25.452,80.000,652.000,1.000
-62478.025,-167058.935,4170.416,-80916.145,5289.487,-18065.464,3868.970,-11600.238,-0.146,0.939,-0.308,4.517,37.750,25.391,80.000,653.000,1.000
-62312.613,-166490.246,4151.321,-80811.141,5277.149,-18015.485,3792.293,-11622.097,-0.146,0.942,-0.306,4.364,38.849,25.146,80.000,654.000,1.000
-62147.290,-165920.382,4131.498,-80706.030,5264.088,-17967.842,3713.685,-11647.011,-0.141,0.943,-0.305,4.242,39.673,24.902,80.000,655.000,1.000
-61984.372,-165349.015,4110.792,-80600.970,5250.071,-17923.557,3632.572,-11674.533,-0.140,0.943,-0.307,4.059,40.375,24.719,80.000,656.000,1.000
-61822.032,-164774.423,4089.583,-80495.598,5235.385,-17881.268,3550.347,-11702.512,-0.135,0.950,-0.307,3.754,41.107,24.414,80.000,657.000,1.000
-61657.084,-164195.531,4068.355,-80389.436,5220.503,-17838.655,3468.632,-11728.874,-0.136,0.957,-0.311,3.326,41.718,24.231,80.000,658.000,1.000
-61489.456,-163613.641,4047.351,-80282.240,5205.739,-17794.299,3387.763,-11753.113,-0.142,0.962,-0.317,2.899,41.901,24.048,80.000,659.000,1.000
-61322.716,-163031.690,4026.421,-80174.160,5191.039,-17748.601,3306.813,-11776.340,-0.143,0.963,-0.317,2.319,42.084,23.804,80.000,660.000,1.000
-61159.604,-162451.631,4005.228,-80065.539,5176.135,-17703.002,3225.082,-11799.993,-0.143,0.959,-0.311,1.801,42.084,23.621,80.000,661.000,1.000
-60997.446,-161872.304,3983.603,-79956.550,5160.877,-17658.396,3143.187,-11824.625,-0.144,0.952,-0.308,1.190,41.962,23.315,80.000,662.000,1.000
-60831.605,-161290.896,3961.668,-79847.086,5145.340,-17614.864,3062.499,-11849.802,-0.143,0.944,-0.306,0.763,41.656,22.827,80.000,663.000,1.000
-60660.731,-160704.696,3939.807,-79736.787,5129.835,-17571.593,2984.014,-11874.476,-0.144,0.940,-0.304,0.488,41.168,22.308,80.000,664.000,1.000
-60487.495,-160111.965,3918.556,-79625.128,5114.857,-17527.114,2907.767,-11897.534,-0.144,0.936,-0.305,0.183,40.558,21.637,80.000,665.000,1.000
-60314.948,-159512.944,3898.302,-79511.713,5100.793,-17480.227,2832.926,-11918.458,-0.142,0.938,-0.306,0.092,39.734,20.935,80.000,666.000,1.000
-60142.082,-158909.855,3879.021,-79396.569,5087.633,-17430.581,2758.226,-11937.722,-0.145,0.938,-0.311,-0.031,38.818,20.172,80.000,667.000,1.000
-59966.225,-158306.623,3860.244,-79280.183,5074.917,-17379.314,2682.344,-11956.755,-0.145,0.935,-0.314,-0.305,37.720,19.348,80.000,668.000,1.000
-59787.843,-157707.238,3841.222,-79163.310,5061.917,-17328.682,2604.494,-11977.248,-0.144,0.930,-0.313,-0.366,36.499,18.463,80.000,669.000,1.000
-59611.220,-157113.620,3821.239,-79046.634,5047.958,-17280.701,2525.111,-12000.004,-0.144,0.927,-0.313,-0.458,35.156,17.609,80.000,670.000,1.000
-59439.756,-156524.468,3800.087,-78930.325,5032.863,-17235.739,2445.756,-12024.238,-0.143,0.924,-0.314,-0.305,33.813,16.632,80.000,671.000,1.000
-59270.143,-155934.918,3778.385,-78813.744,5017.248,-17191.672,2368.409,-12047.774,-0.141,0.922,-0.310,-0.031,32.349,15.839,80.000,672.000,1.000
-59095.320,-155339.151,3757.202,-78695.833,5002.142,-17145.415,2294.425,-12068.330,-0.140,0.920,-0.311,0.305,30.792,15.045,80.000,673.000,1.000
-58911.954,-154734.126,3737.221,-78575.945,4988.165,-17095.422,2223.487,-12085.143,-0.140,0.913,-0.309,0.732,28.931,14.160,80.000,674.000,1.000
-58723.866,-154121.579,3718.276,-78454.297,4975.100,-17042.771,2153.632,-12099.449,-0.138,0.911,-0.310,1.007,27.313,13.306,80.000,675.000,1.000
-58538.238,-153506.902,3699.472,-78331.815,4962.068,-16990.344,2082.231,-12113.744,-0.135,0.907,-0.310,1.587,25.604,12.360,80.000,676.000,1.000
-58358.407,-152895.124,3679.747,-78209.556,4948.082,-16940.774,2007.285,-12130.445,-0.132,0.906,-0.309,2.075,23.712,11.353,80.000,677.000,1.000
-58182.887,-152287.854,3658.700,-78087.900,4932.784,-16894.637,1928.875,-12150.069,-0.127,0.912,-0.312,2.686,21.942,10.315,80.000,678.000,1.000
-58008.209,-151682.060,3637.088,-77966.066,4916.914,-16849.628,1849.304,-12170.299,-0.126,0.915,-0.312,2.991,20.233,9.583,80.000,679.000,1.000
-57831.691,-151072.079,3616.323,-77842.628,4901.860,-16802.328,1771.212,-12187.741,-0.122,0.921,-0.313,3.357,18.463,8.820,80.000,680.000,1.000
-57652.794,-150454.626,3597.191,-77716.813,4888.413,-16751.413,1695.537,-12201.175,-0.118,0.928,-0.312,3.754,16.754,8.148,80.000,681.000,1.000
-57471.571,-149831.469,3579.023,-77589.324,4875.917,-16698.723,1621.163,-12212.797,-0.112,0.931,-0.312,3.876,14.954,7.477,80.000,682.000,1.000
-57288.379,-149207.776,3560.273,-77461.738,4862.818,-16647.416,1546.551,-12225.930,-0.110,0.933,-0.313,4.028,13.428,6.836,80.000,683.000,1.000
-57103.565,-148587.499,3539.914,-77335.088,4848.052,-16598.740,1471.527,-12241.911,-0.106,0.931,-0.314,4.211,11.841,6.287,80.000,684.000,1.000
-56917.404,-147970.754,3518.193,-77209.116,4831.821,-16551.251,1396.978,-12259.529,-0.102,0.932,-0.317,4.059,10.254,5.585,80.000,685.000,1.000
-56730.226,-147354.784,3496.266,-77082.651,4815.274,-16502.639,1323.533,-12276.589,-0.102,0.933,-0.320,4.181,8.759,4.974,80.000,686.000,1.000
-56541.068,-146735.664,3475.330,-76954.488,4799.667,-16451.225,1251.392,-12291.377,-0.099,0.936,-0.321,4.303,7.263,4.456,80.000,687.000,1.000
-56348.923,-146110.567,3455.951,-76824.075,4785.661,-16396.808,1180.737,-12303.295,-0.098,0.938,-0.321,4.303,5.646,3.784,80.000,688.000,1.000
-56153.813,-145478.834,3437.902,-76691.661,4773.087,-16340.459,1111.431,-12313.099,-0.093,0.938,-0.323,4.395,4.181,3.143,80.000,689.000,1.000
-55956.852,-144841.888,3420.440,-76558.008,4761.178,-16283.763,1042.681,-12322.621,-0.086,0.941,-0.329,4.272,2.899,2.563,80.000,690.000,1.000
-55760.155,-144202.719,3402.724,-76423.958,4749.014,-16228.033,973.528,-12333.575,-0.083,0.944,-0.332,4.181,1.648,1.862,80.000,691.000,1.000
-55565.275,-143564.402,3384.121,-76290.133,4735.879,-16173.851,903.281,-12346.587,-0.080,0.942,-0.332,4.120,0.519,1.434,80.000,692.000,1.000
-55373.174,-142929.361,3364.325,-76156.836,4721.416,-16121.510,831.384,-12361.351,-0.077,0.943,-0.334,3.906,-0.549,0.977,80.000,693.000,1.000
-55183.203,-142298.348,3343.436,-76023.972,4705.730,-16070.745,757.635,-12377.061,-0.076,0.941,-0.337,3.967,-1.526,0.519,80.000,694.000,1.000
-54992.975,-141670.087,3321.879,-75891.110,4689.297,-16020.554,682.628,-12392.694,-0.074,0.940,-0.337,3.845,-2.563,0.061,80.000,695.000,1.000
-54800.767,-141042.370,3300.215,-75757.674,4672.731,-15969.887,607.652,-12407.254,-0.074,0.938,-0.342,3.632,-3.448,-0.305,80.000,696.000,1.000
-54605.972,-140412.241,3279.110,-75622.985,4656.722,-15917.687,534.486,-12419.644,-0.074,0.932,-0.346,3.723,-4.364,-0.763,80.000,697.000,1.000
-54408.789,-139776.610,3259.337,-75486.281,4642.029,-15862.678,465.210,-12428.594,-0.071,0.930,-0.346,3.693,-5.188,-1.312,80.000,698.000,1.000
-54208.861,-139133.686,3241.300,-75347.179,4629.027,-15803.812,401.059,-12433.662,-0.069,0.928,-0.342,3.693,-5.798,-1.862,80.000,699.000,1.000
-54006.250,-138485.054,3224.396,-75206.338,4617.083,-15741.947,340.743,-12436.830,-0.066,0.936,-0.339,3.876,-6.500,-2.502,80.000,700.000,1.000
-53804.454,-137836.205,3207.203,-75065.238,4604.769,-15680.473,280.562,-12442.159,-0.067,0.947,-0.342,3.815,-7.111,-2.991,80.000,701.000,1.000
-53609.058,-137193.043,3188.545,-74925.060,4590.954,-15623.064,216.792,-12452.939,-0.069,0.959,-0.343,3.479,-7.629,-3.387,80.000,702.000,1.000
-53424.050,-136558.284,3168.173,-74785.986,4575.459,-15571.698,147.744,-12469.443,-0.067,0.967,-0.344,3.082,-8.118,-3.601,80.000,703.000,1.000
-53247.659,-135930.028,3146.560,-74647.466,4558.806,-15526.217,73.797,-12489.380,-0.067,0.968,-0.344,2.502,-8.606,-3.876,80.000,704.000,1.000
-53072.878,-135303.470,3124.439,-74508.723,4541.716,-15484.837,-3.337,-12509.679,-0.067,0.966,-0.340,1.709,-9.125,-3.937,80.000,705.000,1.000
-52893.748,-134674.564,3102.547,-74369.032,4524.857,-15445.026,-81.259,-12527.920,-0.066,0.960,-0.344,1.007,-9.521,-3.937,80.000,706.000,1.000
-52709.341,-134041.772,3081.438,-74227.888,4508.718,-15404.199,-157.795,-12543.153,-0.064,0.955,-0.347,0.458,-9.827,-4.028,80.000,707.000,1.000
-52523.168,-133406.240,3061.250,-74085.231,4493.400,-15360.675,-231.738,-12556.038,-0.061,0.951,-0.352,-0.122,-10.132,-4.089,80.000,708.000,1.000
-52337.940,-132770.421,3041.618,-73941.494,4478.539,-15314.055,-302.930,-12568.173,-0.061,0.950,-0.352,-0.458,-10.254,-4.089,80.000,709.000,1.000
-52152.857,-132136.664,3021.931,-73797.321,4463.563,-15265.192,-372.031,-12581.177,-0.062,0.952,-0.351,-0.793,-10.437,-4.089,80.000,710.000,1.000
-51966.677,-131506.507,3001.880,-73653.000,4448.210,-15215.420,-439.977,-12595.599,-0.062,0.953,-0.356,-1.160,-10.437,-4.211,80.000,711.000,1.000
-51779.716,-130879.387,2981.827,-73508.111,4432.859,-15165.028,-507.165,-12610.139,-0.060,0.955,-0.357,-1.495,-10.468,-4.059,80.000,712.000,1.000
-51593.990,-130253.361,2962.369,-73362.011,4418.077,-15113.577,-573.360,-12622.741,-0.061,0.951,-0.352,-1.740,-10.315,-3.937,80.000,713.000,1.000
-51410.508,-129626.770,2943.578,-73214.619,4403.884,-15061.203,-638.468,-12632.779,-0.063,0.946,-0.353,-1.984,-10.254,-3.601,80.000,714.000,1.000
-51227.728,-128998.878,2924.957,-73066.463,4389.738,-15008.924,-703.093,-12641.414,-0.062,0.941,-0.352,-2.228,-10.040,-3.174,80.000,715.000,1.000
-51044.094,-128369.448,2906.072,-72918.015,4375.213,-14957.647,-768.028,-12649.790,-0.061,0.937,-0.350,-2.289,-9.949,-2.686,80.000,716.000,1.000
-50859.969,-127737.971,2886.984,-72769.240,4360.411,-14907.154,-833.421,-12657.855,-0.061,0.938,-0.350,-2.411,-9.583,-2.106,80.000,717.000,1.000
-50677.899,-127105.032,2867.940,-72619.867,4345.657,-14857.010,-899.068,-12665.376,-0.065,0.941,-0.347,-2.533,-9.186,-1.312,80.000,718.000,1.000
-50498.851,-126472.801,2848.938,-72469.844,4331.027,-14807.389,-965.267,-12673.087,-0.070,0.948,-0.350,-2.655,-8.911,-0.610,80.000,719.000,1.000
-50319.757,-125843.062,2829.750,-72319.357,4316.330,-14758.569,-1032.445,-12681.893,-0.075,0.953,-0.353,-2.808,-8.759,0.061,80.000,720.000,1.000
-50137.378,-125215.712,2810.216,-72168.593,4301.364,-14710.341,-1100.174,-12691.551,-0.077,0.957,-0.349,-3.204,-8.606,0.732,80.000,721.000,1.000
-49952.389,-124589.136,2790.353,-72017.619,4286.040,-14662.150,-1167.389,-12700.994,-0.077,0.950,-0.347,-3.632,-8.514,1.343,80.000,722.000,1.000
-49769.301,-123962.097,2770.278,-71866.393,4270.375,-14613.815,-1233.429,-12709.610,-0.074,0.941,-0.342,-4.059,-8.331,1.801,80.000,723.000,1.000
-49590.966,-123333.997,2750.146,-71714.769,4254.494,-14565.386,-1298.574,-12717.834,-0.073,0.935,-0.341,-4.120,-8.209,1.953,80.000,724.000,1.000
-49415.693,-122704.333,2730.108,-71562.531,4238.602,-14516.720,-1363.620,-12726.675,-0.067,0.926,-0.343,-4.059,-7.996,2.502,80.000,725.000,1.000
-49240.544,-122072.937,2710.267,-71409.490,4222.889,-14467.251,-1428.697,-12736.554,-0.065,0.932,-0.348,-3.998,-7.690,2.716,80.000,726.000,1.000
-49064.150,-121440.191,2690.647,-71255.594,4207.420,-14415.966,-1492.800,-12746.755,-0.067,0.937,-0.352,-4.028,-7.416,3.143,80.000,727.000,1.000
-48887.200,-120807.745,2671.241,-71100.905,4192.167,-14362.291,-1554.784,-12756.022,-0.064,0.941,-0.351,-4.333,-7.172,3.387,80.000,728.000,1.000
-48709.174,-120177.387,2652.119,-70945.447,4177.152,-14306.446,-1614.538,-12763.412,-0.067,0.938,-0.353,-4.395,-6.897,3.571,80.000,729.000,1.000
-48527.538,-119549.751,2633.253,-70789.315,4162.314,-14249.756,-1673.513,-12769.282,-0.066,0.933,-0.349,-4.517,-6.805,3.845,80.000,730.000,1.000
-48342.036,-118924.926,2614.330,-70632.824,4147.344,-14194.613,-1734.141,-12775.468,-0.067,0.929,-0.348,-4.517,-6.653,4.059,80.000,731.000,1.000
-48155.851,-118302.083,2595.025,-70476.242,4131.960,-14142.572,-1797.865,-12783.414,-0.071,0.920,-0.347,-4.272,-6.470,4.089,80.000,732.000,1.000
-47973.368,-117679.396,2575.228,-70319.606,4116.097,-14093.367,-1864.124,-12792.773,-0.069,0.915,-0.344,-4.272,-6.470,3.998,80.000,733.000,1.000
-47795.960,-117054.879,2554.996,-70162.841,4099.824,-14045.632,-1931.424,-12802.251,-0.072,0.916,-0.348,-3.723,-6.287,3.815,80.000,734.000,1.000
-47620.056,-116427.029,2534.746,-70005.552,4083.535,-13997.179,-1997.765,-12810.122,-0.074,0.916,-0.350,-3.387,-6.287,3.540,80.000,735.000,1.000
-47440.242,-115795.224,2515.320,-69846.923,4068.052,-13945.074,-2060.534,-12814.243,-0.074,0.913,-0.349,-3.113,-6.287,3.204,80.000,736.000,1.000
-47254.243,-115160.703,2497.155,-69686.522,4053.809,-13887.823,-2118.595,-12814.198,-0.073,0.908,-0.344,-2.747,-6.409,2.777,80.000,737.000,1.000
-47066.250,-114527.587,2479.574,-69525.027,4040.127,-13827.938,-2174.105,-12812.958,-0.073,0.911,-0.344,-2.563,-6.470,2.319,80.000,738.000,1.000
-46882.203,-113899.854,2461.474,-69363.547,4025.903,-13769.912,-2230.609,-12814.498,-0.069,0.913,-0.349,-2.136,-6.561,1.892,80.000,739.000,1.000
-46703.834,-113277.857,2442.452,-69202.504,4010.733,-13716.320,-2289.916,-12820.440,-0.072,0.919,-0.348,-1.892,-6.683,1.404,80.000,740.000,1.000
-46529.362,-112658.967,2422.947,-69041.490,3995.029,-13666.569,-2351.316,-12829.438,-0.073,0.926,-0.346,-1.678,-6.836,0.854,80.000,741.000,1.000
-46356.107,-112039.646,2403.582,-68879.907,3979.360,-13617.996,-2413.003,-12838.861,-0.071,0.932,-0.347,-1.831,-6.805,0.275,80.000,742.000,1.000
-46182.526,-111417.617,2384.631,-68717.478,3963.971,-13568.041,-2473.496,-12846.608,-0.069,0.937,-0.346,-1.953,-6.836,-0.244,80.000,743.000,1.000
-46007.417,-110792.802,2365.969,-68554.308,3948.781,-13515.572,-2532.066,-12851.863,-0.069,0.940,-0.348,-2.228,-7.050,-0.854,80.000,744.000,1.000
-45829.775,-110167.490,2347.141,-68390.814,3933.437,-13461.447,-2588.990,-12855.324,-0.071,0.943,-0.347,-2.777,-7.050,-1.740,80.000,745.000,1.000
-45650.125,-109544.968,2327.609,-68227.507,3917.484,-13407.858,-2645.430,-12858.586,-0.069,0.945,-0.347,-3.174,-7.141,-2.106,80.000,746.000,1.000
-45469.334,-108926.186,2307.200,-68064.549,3900.751,-13356.246,-2702.717,-12862.812,-0.067,0.946,-0.345,-3.632,-7.172,-2.502,80.000,747.000,1.000
-45288.061,-108309.242,2286.271,-67901.601,3883.531,-13306.520,-2761.697,-12868.201,-0.068,0.946,-0.342,-4.181,-7.080,-2.869,80.000,748.000,1.000
-45105.563,-107691.149,2265.500,-67738.041,3866.413,-13257.337,-2822.111,-12874.276,-0.065,0.948,-0.341,-4.608,-7.111,-3.082,80.000,749.000,1.000
-44919.679,-107070.017,2245.414,-67573.406,3849.856,-13207.046,-2882.609,-12880.323,-0.064,0.944,-0.337,-5.066,-6.989,-3.174,80.000,750.000,1.000
-44729.171,-106446.250,2225.992,-67407.759,3833.825,-13154.858,-2941.959,-12885.706,-0.063,0.938,-0.338,-5.615,-6.927,-3.204,80.000,751.000,1.000
-44534.089,-105821.009,2206.753,-67241.575,3817.886,-13100.988,-3000.182,-12890.046,-0.062,0.936,-0.339,-6.073,-6.775,-3.204,80.000,752.000,1.000
-44335.845,-105194.967,2187.199,-67075.306,3801.613,-13046.323,-3058.128,-12893.224,-0.062,0.934,-0.340,-6.439,-6.561,-3.174,80.000,753.000,1.000
-44135.358,-104567.444,2167.305,-66908.898,3785.037,-12991.117,-3115.998,-12894.788,-0.066,0.937,-0.341,-6.744,-6.378,-3.113,80.000,754.000,1.000
-43931.766,-103936.342,2147.640,-66741.734,3768.728,-12934.388,-3173.101,-12893.818,-0.069,0.939,-0.341,-7.111,-6.256,-3.082,80.000,755.000,1.000
-43724.198,-103299.671,2128.842,-66573.178,3753.287,-12875.237,-3229.118,-12889.970,-0.073,0.941,-0.339,-7.416,-6.195,-3.021,80.000,756.000,1.000
-43512.810,-102656.763,2111.029,-66403.151,3738.795,-12813.930,-3284.483,-12884.084,-0.073,0.942,-0.334,-7.812,-6.165,-2.930,80.000,757.000,1.000
-43299.603,-102009.112,2093.769,-66232.127,3724.803,-12751.891,-3339.634,-12877.365,-0.074,0.943,-0.333,-8.026,-6.104,-3.052,80.000,758.000,1.000
-43086.720,-101359.087,2076.549,-66060.662,3710.797,-12690.486,-3394.783,-12870.260,-0.075,0.941,-0.331,-8.362,-6.012,-3.113,80.000,759.000,1.000
-42875.115,-100708.524,2059.015,-65889.141,3696.422,-12630.511,-3450.275,-12862.653,-0.074,0.940,-0.325,-8.759,-6.073,-2.991,80.000,760.000,1.000
-42665.407,-100058.713,2040.797,-65717.937,3681.314,-12572.710,-3506.979,-12854.894,-0.072,0.938,-0.328,-9.155,-6.042,-2.991,80.000,761.000,1.000
-42456.642,-99409.132,2021.640,-65547.301,3665.215,-12517.169,-3566.139,-12847.842,-0.071,0.931,-0.330,-9.338,-5.951,-3.082,80.000,762.000,1.000
-42246.811,-98757.694,2001.731,-65377.039,3648.323,-12462.850,-3628.112,-12842.109,-0.070,0.932,-0.326,-9.430,-5.798,-2.960,80.000,763.000,1.000
-42034.432,-98102.719,1981.600,-65206.608,3631.197,-12408.229,-3691.389,-12837.699,-0.072,0.929,-0.324,-9.338,-5.737,-2.869,80.000,764.000,1.000
-41819.181,-97443.830,1961.787,-65035.457,3614.406,-12352.242,-3753.511,-12833.953,-0.072,0.932,-0.322,-9.338,-5.615,-2.655,80.000,765.000,1.000
-41601.315,-96781.013,1942.703,-64863.173,3598.370,-12294.372,-3812.707,-12829.626,-0.074,0.935,-0.322,-9.369,-5.402,-2.472,80.000,766.000,1.000
-41380.307,-96113.626,1924.558,-64689.542,3583.277,-12234.230,-3868.678,-12823.681,-0.075,0.937,-0.319,-9.216,-5.249,-2.197,80.000,767.000,1.000
-41156.997,-95442.382,1907.227,-64514.703,3568.960,-12172.437,-3922.601,-12816.598,-0.078,0.944,-0.314,-9.430,-5.188,-2.197,80.000,768.000,1.000
-40934.848,-94770.763,1890.204,-64339.183,3554.882,-12111.080,-3976.448,-12810.573,-0.081,0.947,-0.313,-9.460,-5.066,-1.923,80.000,769.000,1.000
-40718.530,-94103.742,1872.768,-64163.709,3540.313,-12052.756,-4031.550,-12807.904,-0.081,0.951,-0.312,-9.613,-5.249,-1.709,80.000,770.000,1.000
-40511.550,-93445.199,1854.292,-63988.902,3524.644,-11999.031,-4087.818,-12809.143,-0.082,0.957,-0.312,-9.796,-5.219,-1.526,80.000,771.000,1.000
-40313.058,-92795.228,1834.577,-63814.940,3507.727,-11949.305,-4144.769,-12812.897,-0.080,0.953,-0.310,-9.949,-5.188,-1.343,80.000,772.000,1.000
-40119.221,-92150.842,1814.013,-63641.402,3490.005,-11901.579,-4202.514,-12817.240,-0.079,0.948,-0.308,-10.010,-5.249,-1.190,80.000,773.000,1.000
-39926.529,-91508.742,1793.340,-63467.541,3472.227,-11853.965,-4261.314,-12821.210,-0.081,0.946,-0.304,-10.040,-5.219,-1.099,80.000,774.000,1.000
-39733.581,-90867.214,1773.244,-63292.716,3455.025,-11805.567,-4320.738,-12825.014,-0.080,0.945,-0.303,-10.132,-5.280,-0.946,80.000,775.000,1.000
-39540.532,-90226.004,1754.173,-63116.552,3438.773,-11756.053,-4379.415,-12828.756,-0.080,0.949,-0.301,-10.071,-5.310,-0.854,80.000,776.000,1.000
-39346.828,-89585.045,1736.163,-62939.066,3423.474,-11704.980,-4435.675,-12831.669,-0.081,0.947,-0.298,-9.949,-5.280,-0.793,80.000,777.000,1.000
-39152.684,-88945.255,1718.610,-62760.880,3408.537,-11652.767,-4488.726,-12833.045,-0.078,0.947,-0.299,-9.888,-5.341,-0.732,80.000,778.000,1.000
-38960.095,-88308.735,1700.560,-62582.919,3393.059,-11601.002,-4539.293,-12833.062,-0.078,0.946,-0.301,-9.552,-5.249,-0.793,80.000,779.000,1.000
-38771.440,-87677.243,1681.420,-62405.710,3376.506,-11551.306,-4589.235,-12832.524,-0.079,0.945,-0.295,-9.491,-5.280,-0.793,80.000,780.000,1.000
-38587.833,-87050.974,1661.261,-62229.129,3358.967,-11504.304,-4640.557,-12832.205,-0.075,0.948,-0.293,-9.186,-5.249,-0.763,80.000,781.000,1.000
-38407.259,-86427.985,1640.568,-62052.675,3340.897,-11459.304,-4694.422,-12832.447,-0.079,0.954,-0.294,-8.911,-5.127,-0.854,80.000,782.000,1.000
-38226.499,-85805.721,1619.915,-61875.791,3322.826,-11415.049,-4750.680,-12833.057,-0.081,0.957,-0.289,-8.820,-5.157,-0.824,80.000,783.000,1.000
-38043.591,-85182.679,1599.784,-61698.022,3305.217,-11370.208,-4808.025,-12833.381,-0.083,0.960,-0.289,-8.759,-5.219,-0.824,80.000,784.000,1.000
-37858.911,-84559.125,1580.387,-61519.178,3288.290,-11323.854,-4864.546,-12832.741,-0.082,0.957,-0.284,-8.759,-5.127,-0.916,80.000,785.000,1.000
-37674.374,-83936.340,1561.537,-61339.435,3271.879,-11275.814,-4918.591,-12830.868,-0.079,0.956,-0.283,-8.667,-5.341,-0.793,80.000,786.000,1.000
-37490.104,-83314.287,1542.806,-61159.204,3255.581,-11226.153,-4969.792,-12827.936,-0.077,0.952,-0.283,-8.392,-5.249,-0.916,80.000,787.000,1.000
-37304.923,-82691.866,1523.867,-60978.826,3239.072,-11175.243,-5019.175,-12824.429,-0.078,0.948,-0.281,-8.118,-5.402,-0.946,80.000,788.000,1.000
-37118.157,-82068.448,1504.762,-60798.293,3222.387,-11123.688,-5068.169,-12820.769,-0.076,0.948,-0.280,-7.812,-5.310,-1.099,80.000,789.000,1.000
-36930.578,-81444.868,1485.782,-60617.351,3205.796,-11072.185,-5117.958,-12817.184,-0.077,0.944,-0.280,-7.538,-5.219,-1.099,80.000,790.000,1.000
-36744.274,-80823.281,1467.049,-60435.895,3189.400,-11021.722,-5169.526,-12814.021,-0.075,0.944,-0.278,-7.172,-5.188,-1.221,80.000,791.000,1.000
-36559.597,-80204.696,1448.417,-60254.068,3173.041,-10972.817,-5223.251,-12811.518,-0.077,0.946,-0.275,-6.989,-5.096,-1.221,80.000,792.000,1.000
-36374.872,-79587.975,1429.758,-60072.000,3156.581,-10924.939,-5278.311,-12809.270,-0.076,0.949,-0.278,-6.500,-5.127,-1.343,80.000,793.000,1.000
-36188.284,-78971.112,1411.058,-59889.690,3140.019,-10876.814,-5333.145,-12806.477,-0.074,0.951,-0.275,-6.104,-5.066,-1.343,80.000,794.000,1.000
-35999.729,-78353.122,1392.270,-59707.157,3123.348,-10827.508,-5386.458,-12802.730,-0.077,0.952,-0.271,-5.737,-5.096,-1.343,80.000,795.000,1.000
-35810.991,-77734.587,1373.342,-59524.436,3106.575,-10776.867,-5437.564,-12798.056,-0.080,0.953,-0.270,-5.341,-5.188,-1.495,80.000,796.000,1.000
-35622.867,-77115.991,1354.452,-59341.359,3089.907,-10724.735,-5486.442,-12792.452,-0.080,0.955,-0.269,-5.035,-5.096,-1.709,80.000,797.000,1.000
-35435.009,-76497.395,1335.938,-59157.611,3073.646,-10671.110,-5534.044,-12786.124,-0.083,0.953,-0.269,-4.730,-5.157,-1.862,80.000,798.000,1.000
-35247.048,-75878.997,1317.887,-58973.119,3057.814,-10616.758,-5582.203,-12780.109,-0.087,0.953,-0.267,-4.425,-5.249,-2.075,80.000,799.000,1.000
-35059.463,-75261.679,1299.936,-58788.251,3041.999,-10563.228,-5632.711,-12776.005,-0.089,0.949,-0.266,-4.120,-5.341,-2.319,80.000,800.000,1.000
-34873.274,-74646.495,1281.695,-58603.387,3025.809,-10511.643,-5685.893,-12774.278,-0.088,0.945,-0.261,-3.540,-5.554,-2.747,80.000,801.000,1.000
-34687.651,-74032.778,1263.278,-58418.424,3009.379,-10461.225,-5739.964,-12773.096,-0.092,0.944,-0.262,-3.204,-5.676,-2.930,80.000,802.000,1.000
-34501.177,-73419.055,1245.094,-58232.972,2993.143,-10410.321,-5792.364,-12769.827,-0.091,0.944,-0.262,-2.808,-5.829,-3.021,80.000,803.000,1.000
-34313.252,-72804.601,1227.305,-58046.875,2977.284,-10358.006,-5841.748,-12763.313,-0.092,0.947,-0.259,-2.441,-6.012,-3.143,80.000,804.000,1.000
-34124.125,-72189.691,1209.686,-57860.353,2961.597,-10304.701,-5888.844,-12754.647,-0.094,0.951,-0.261,-2.075,-6.195,-3.357,80.000,805.000,1.000
-33935.304,-71575.670,1191.845,-57673.780,2945.724,-10251.969,-5935.948,-12746.422,-0.096,0.953,-0.263,-1.862,-6.470,-3.418,80.000,806.000,1.000
-33747.900,-70963.687,1173.579,-57487.347,2929.482,-10200.993,-5985.121,-12740.813,-0.099,0.953,-0.264,-1.526,-6.744,-3.571,80.000,807.000,1.000
-33562.159,-70353.964,1155.008,-57300.931,2912.981,-10151.491,-6036.210,-12737.880,-0.102,0.952,-0.262,-1.434,-6.989,-3.815,80.000,808.000,1.000
-33377.235,-69745.691,1136.369,-57114.321,2896.403,-10101.943,-6087.069,-12735.773,-0.104,0.954,-0.263,-1.282,-7.233,-3.937,80.000,809.000,1.000
-33192.035,-69138.029,1117.716,-56927.521,2879.715,-10051.225,-6136.104,-12732.753,-0.104,0.954,-0.259,-1.099,-7.477,-4.211,80.000,810.000,1.000
-33007.063,-68531.578,1098.895,-56740.733,2862.692,-9999.870,-6183.883,-12728.585,-0.105,0.954,-0.259,-1.068,-7.721,-4.242,80.000,811.000,1.000
-32823.152,-67927.369,1079.838,-56554.025,2845.278,-9948.956,-6231.738,-12723.731,-0.105,0.955,-0.263,-0.946,-7.843,-4.425,80.000,812.000,1.000
-32640.386,-67325.473,1060.782,-56367.096,2827.790,-9898.795,-6279.916,-12718.059,-0.106,0.957,-0.263,-0.793,-8.026,-4.608,80.000,813.000,1.000
-32457.022,-66724.082,1042.132,-56179.445,2810.724,-9848.500,-6327.717,-12710.779,-0.105,0.955,-0.265,-0.763,-8.240,-4.669,80.000,814.000,1.000
-32270.195,-66120.475,1024.140,-55990.785,2794.364,-9796.676,-6374.518,-12701.292,-0.105,0.954,-0.264,-0.641,-8.331,-4.700,80.000,815.000,1.000
-32079.101,-65513.809,1006.734,-55801.214,2778.629,-9742.743,-6420.234,-12690.071,-0.106,0.956,-0.268,-0.549,-8.514,-4.700,80.000,816.000,1.000
-31885.746,-64906.002,989.623,-55611.080,2763.206,-9687.484,-6465.385,-12678.830,-0.105,0.957,-0.268,-0.549,-8.514,-4.669,80.000,817.000,1.000
-31694.161,-64300.681,972.402,-55420.821,2747.677,-9632.838,-6510.904,-12669.709,-0.104,0.956,-0.265,-0.458,-8.606,-4.639,80.000,818.000,1.000
-31506.743,-63699.953,954.665,-55230.857,2731.628,-9580.153,-6557.534,-12663.713,-0.105,0.955,-0.265,-0.427,-8.514,-4.608,80.000,819.000,1.000
-31321.961,-63102.355,936.233,-55041.391,2714.867,-9528.870,-6605.184,-12659.845,-0.107,0.954,-0.263,-0.336,-8.728,-4.547,80.000,820.000,1.000
-31137.183,-62504.958,917.304,-54852.252,2697.590,-9477.516,-6652.885,-12655.925,-0.106,0.954,-0.262,-0.305,-8.728,-4.578,80.000,821.000,1.000
-30951.354,-61906.245,898.318,-54663.009,2680.230,-9425.216,-6699.416,-12650.272,-0.105,0.955,-0.262,-0.214,-8.728,-4.517,80.000,822.000,1.000
-30765.826,-61307.275,879.638,-54473.277,2663.132,-9372.280,-6744.114,-12642.573,-0.106,0.954,-0.267,-0.275,-8.698,-4.517,80.000,823.000,1.000
-30581.124,-60709.237,861.446,-54282.846,2646.463,-9319.133,-6787.323,-12633.183,-0.104,0.954,-0.270,-0.275,-8.698,-4.395,80.000,824.000,1.000
-30395.046,-60111.558,843.758,-54091.672,2630.239,-9265.689,-6830.111,-12622.492,-0.105,0.953,-0.271,-0.153,-8.606,-4.272,80.000,825.000,1.000
-30206.152,-59513.855,826.359,-53899.947,2614.266,-9212.131,-6873.376,-12611.221,-0.106,0.950,-0.269,-0.061,-8.606,-4.089,80.000,826.000,1.000
