EEG 1,EEG 2,EEG 3,EEG 4,EEG 5,EEG 6,EEG 7,EEG 8,Accelerometer X,Accelerometer Y,Accelerometer Z,Gyroscope X,Gyroscope Y,Gyroscope Z,Battery Level,Counter,Validation Indicator
6245.295,-25438.883,-9825.666,-3615.369,-3736.054,4421.072,-599.632,-6997.536,-0.077,0.899,-0.323,0.000,0.000,0.000,73.333,1.000,1.000
35738.926,-66880.395,-35521.778,-32428.492,-27804.580,27629.259,976.036,-51091.339,-0.083,0.901,-0.333,0.000,0.000,0.000,73.333,2.000,1.000
116503.680,-188435.813,-107778.225,-118901.262,-95367.806,95413.329,23631.058,-171472.809,-0.084,0.898,-0.339,0.000,0.000,0.000,73.333,3.000,1.000
252882.386,-405890.086,-234419.839,-282093.557,-208266.336,217977.904,96635.784,-374075.882,-0.084,0.894,-0.342,0.000,0.000,0.000,73.333,4.000,1.000
415321.745,-668409.023,-393596.234,-504849.265,-331204.199,374423.037,222288.730,-614548.745,-0.084,0.893,-0.343,-0.824,0.549,-0.092,73.333,5.000,1.000
559677.478,-877673.725,-543830.906,-735775.667,-411627.748,524146.045,352474.076,-827034.579,-0.083,0.893,-0.346,1.282,-0.214,-6.226,73.333,6.000,1.000
650559.697,-946735.015,-637693.217,-900730.943,-412223.235,628778.946,414873.587,-956479.446,-0.083,0.894,-0.346,7.568,-3.754,-9.735,73.333,7.000,1.000
675116.355,-849162.810,-638652.950,-926623.167,-330475.459,666775.589,355798.207,-975397.300,-0.083,0.894,-0.348,10.071,-4.761,-11.139,73.333,8.000,1.000
646532.595,-626194.951,-541807.151,-781711.671,-197973.711,639039.441,159023.022,-891578.827,-0.083,0.895,-0.349,11.353,-5.066,-11.871,73.333,9.000,1.000
592552.571,-357225.203,-379433.137,-502363.979,-62994.247,565592.550,-146883.421,-743535.530,-0.083,0.894,-0.352,11.841,-5.127,-12.177,73.333,10.000,1.000
534235.779,-118842.440,-202341.166,-176517.704,33864.659,472705.183,-482940.078,-578767.505,-0.087,0.894,-0.353,12.512,-4.974,-12.543,73.333,11.000,1.000
473858.291,47684.321,-53677.292,104295.656,78530.239,378505.659,-746888.989,-429377.165,-0.089,0.894,-0.356,12.909,-4.883,-12.817,73.333,12.000,1.000
402361.853,147574.338,44911.235,285971.404,84408.795,289216.089,-868235.267,-306450.673,-0.092,0.893,-0.358,13.336,-4.822,-13.031,73.333,13.000,1.000
316220.560,214189.638,92159.542,362860.530,74806.332,206901.135,-839862.024,-212324.381,-0.093,0.893,-0.358,13.763,-4.700,-13.306,73.333,14.000,1.000
225965.481,273458.527,99773.275,364312.427,64124.113,136929.915,-705545.730,-150278.720,-0.096,0.892,-0.358,14.160,-4.639,-13.428,73.333,15.000,1.000
148797.333,326388.269,85063.317,332370.544,54813.644,85814.601,-527910.655,-120313.715,-0.098,0.894,-0.358,14.465,-4.517,-13.550,73.333,16.000,1.000
94467.781,364415.278,65029.435,301495.145,46952.038,53708.548,-363729.252,-111686.708,-0.102,0.896,-0.359,14.587,-4.456,-13.763,73.333,17.000,1.000
59776.165,388614.269,51580.556,287346.534,44194.286,32826.417,-250670.351,-107116.416,-0.108,0.897,-0.364,14.709,-4.425,-13.947,73.333,18.000,1.000
35920.624,406249.153,48686.661,288336.526,49193.636,14791.112,-199467.905,-96068.382,-0.111,0.898,-0.368,14.923,-4.425,-14.160,73.333,19.000,1.000
18267.783,417158.624,53230.350,295806.395,57791.426,-2043.270,-193849.741,-81083.978,-0.115,0.898,-0.370,14.954,-4.395,-14.374,73.333,20.000,1.000
7542.365,414396.874,59366.244,303110.861,62126.147,-13882.179,-203837.878,-69953.094,-0.120,0.899,-0.372,14.954,-4.425,-14.435,73.333,21.000,1.000
3908.194,397957.523,63134.431,307678.994,59243.381,-18564.008,-206233.341,-64503.897,-0.121,0.896,-0.372,15.015,-4.517,-14.679,73.333,22.000,1.000
3548.468,380135.175,63984.947,308576.635,53850.216,-18996.435,-195962.685,-59599.660,-0.124,0.896,-0.376,15.015,-4.486,-14.709,73.333,23.000,1.000
1929.496,373607.357,63158.184,305271.376,51912.060,-19578.295,-180231.793,-51365.992,-0.128,0.896,-0.378,14.923,-4.669,-14.862,73.333,24.000,1.000
-1635.351,377965.943,61652.498,298901.627,53760.584,-21416.289,-165387.907,-42341.021,-0.132,0.894,-0.382,14.862,-4.761,-14.832,73.333,25.000,1.000
-4440.229,382231.889,59834.549,292690.152,55117.018,-22531.829,-151574.530,-37218.958,-0.135,0.893,-0.380,14.801,-4.822,-14.801,73.333,26.000,1.000
-4780.220,379109.753,58139.501,289515.326,53484.574,-21824.564,-137572.948,-36099.395,-0.139,0.894,-0.385,14.740,-4.852,-14.832,73.333,27.000,1.000
-4236.025,372279.056,57243.728,289253.760,51038.372,-20965.809,-125632.531,-34530.405,-0.143,0.893,-0.385,14.709,-5.035,-14.771,73.333,28.000,1.000
-5302.686,369053.993,57404.632,289336.407,50953.052,-22046.562,-119025.313,-29537.403,-0.146,0.891,-0.389,14.618,-5.280,-14.740,73.333,29.000,1.000
-8094.893,370113.934,58055.554,287856.155,52959.012,-24719.337,-116857.249,-23103.653,-0.149,0.892,-0.394,14.648,-5.280,-14.679,73.333,30.000,1.000
-10486.937,369776.543,58341.618,285350.575,54026.604,-26743.925,-114281.224,-18959.108,-0.152,0.893,-0.393,14.435,-5.463,-14.587,73.333,31.000,1.000
-11040.794,364636.412,57946.942,283372.015,52581.087,-26888.911,-108021.858,-17682.035,-0.155,0.891,-0.396,14.374,-5.615,-14.343,73.333,32.000,1.000
-10651.581,357973.721,57234.919,282179.363,50323.049,-26223.807,-99733.059,-16528.812,-0.157,0.892,-0.400,14.191,-5.798,-14.221,73.333,33.000,1.000
-11076.424,354776.878,56679.838,280633.605,49664.214,-26428.187,-93114.719,-13416.093,-0.158,0.893,-0.402,14.099,-5.890,-14.008,73.333,34.000,1.000
-12675.714,355179.238,56377.405,278058.142,50671.902,-27687.946,-89172.552,-9348.365,-0.161,0.895,-0.402,13.855,-6.042,-13.794,73.333,35.000,1.000
-14255.293,354982.859,56122.106,275259.305,51414.595,-28814.976,-85736.959,-6550.661,-0.164,0.895,-0.406,13.794,-6.195,-13.611,73.333,36.000,1.000
-14800.197,351509.513,55762.503,273382.903,50682.328,-28996.144,-80989.745,-5455.307,-0.167,0.895,-0.406,13.580,-6.348,-13.306,73.333,37.000,1.000
-14646.852,346544.205,55345.654,272361.914,49293.555,-28702.647,-75734.809,-4508.772,-0.169,0.895,-0.406,13.397,-6.592,-13.123,73.333,38.000,1.000
-14820.557,343251.288,54986.503,271092.199,48679.179,-28843.178,-71765.134,-2449.736,-0.170,0.895,-0.408,13.062,-6.744,-12.878,73.333,39.000,1.000
-15713.428,342065.376,54722.747,268945.851,49040.397,-29583.691,-69233.624,268.599,-0.171,0.895,-0.415,12.848,-6.866,-12.573,73.333,40.000,1.000
-16778.366,340810.438,54501.975,266494.700,49391.107,-30322.692,-66673.366,2430.049,-0.176,0.895,-0.416,12.573,-7.019,-12.299,73.333,41.000,1.000
-17341.771,337933.671,54237.475,264597.571,48984.436,-30560.130,-63141.434,3649.346,-0.177,0.895,-0.417,12.360,-7.172,-11.963,73.333,42.000,1.000
-17360.085,334179.538,53867.582,263253.353,48099.317,-30420.319,-59276.938,4569.063,-0.180,0.895,-0.417,12.054,-7.416,-11.505,73.333,43.000,1.000
-17329.817,331104.330,53416.983,261742.823,47459.705,-30349.635,-56128.972,5859.815,-0.183,0.894,-0.419,11.780,-7.446,-11.292,73.333,44.000,1.000
-17671.984,329083.233,53007.173,259684.432,47343.612,-30580.833,-53760.547,7538.069,-0.185,0.893,-0.422,11.505,-7.721,-11.017,73.333,45.000,1.000
-18332.030,327283.031,52744.232,257485.461,47440.500,-30985.632,-51466.853,9200.463,-0.188,0.893,-0.423,11.322,-7.996,-10.651,73.333,46.000,1.000
-18907.011,324949.275,52573.359,255687.869,47326.457,-31291.955,-48886.108,10530.345,-0.189,0.892,-0.422,11.017,-8.179,-10.315,73.333,47.000,1.000
-19077.733,322083.695,52310.311,254237.691,46862.093,-31334.868,-46298.512,11491.207,-0.190,0.889,-0.423,10.834,-8.362,-9.918,73.333,48.000,1.000
-18932.235,319103.604,51867.962,252650.070,46231.189,-31176.511,-43979.268,12287.722,-0.191,0.888,-0.423,10.559,-8.606,-9.583,73.333,49.000,1.000
-18883.621,316388.778,51394.701,250709.582,45758.559,-31064.570,-41818.063,13251.010,-0.192,0.888,-0.424,10.376,-8.698,-9.155,73.333,50.000,1.000
-19227.357,314128.599,51100.828,248698.862,45637.440,-31209.319,-39674.433,14563.705,-0.194,0.890,-0.426,10.315,-8.881,-8.789,73.333,51.000,1.000
-19778.964,312174.120,50970.418,246938.805,45704.868,-31526.067,-37670.113,15975.580,-0.195,0.891,-0.430,10.071,-9.003,-8.423,73.333,52.000,1.000
-20050.754,309990.252,50759.207,245368.314,45540.758,-31671.283,-35889.233,16979.325,-0.194,0.887,-0.430,9.857,-9.216,-7.996,73.333,53.000,1.000
-19843.324,307149.302,50316.662,243706.430,44938.183,-31444.053,-34095.716,17444.157,-0.196,0.887,-0.431,9.644,-9.308,-7.599,73.333,54.000,1.000
-19540.169,303973.668,49782.384,241843.773,44209.523,-31091.407,-32073.328,17905.903,-0.198,0.885,-0.432,9.399,-9.460,-7.202,73.333,55.000,1.000
-19660.709,301241.794,49309.206,239836.685,43770.276,-31046.718,-30068.273,18952.055,-0.195,0.883,-0.433,9.125,-9.552,-6.775,73.333,56.000,1.000
-20177.525,298995.068,48650.135,237570.617,43393.871,-31356.024,-28509.619,20397.336,-0.195,0.883,-0.438,9.003,-9.705,-6.378,73.333,57.000,1.000
-20506.781,296069.655,47236.700,234685.167,42195.528,-31563.770,-27319.366,21433.853,-0.194,0.882,-0.436,8.881,-9.705,-5.981,73.333,58.000,1.000
-20257.195,291320.533,44734.431,230909.537,39560.344,-31292.220,-25906.584,21700.290,-0.194,0.879,-0.436,8.759,-9.766,-5.615,73.333,59.000,1.000
-19774.443,285134.857,41404.128,226350.358,35909.982,-30775.675,-23994.456,21842.466,-0.195,0.878,-0.435,8.575,-9.918,-5.188,73.333,60.000,1.000
-19714.782,279141.601,37847.789,221400.460,32290.255,-30585.507,-22096.344,22696.398,-0.193,0.878,-0.433,8.484,-9.918,-4.822,73.333,61.000,1.000
-20169.984,274304.182,34474.944,216450.902,29246.778,-30862.045,-20844.299,24130.594,-0.195,0.875,-0.435,8.301,-9.979,-4.517,73.333,62.000,1.000
-20522.781,269872.927,31311.693,211741.910,26407.069,-31097.210,-20056.765,25169.491,-0.195,0.873,-0.440,8.301,-10.071,-4.150,73.333,63.000,1.000
-20265.285,264647.903,28281.551,207394.497,23271.090,-30807.016,-18924.022,25310.540,-0.198,0.871,-0.437,8.270,-10.040,-3.937,73.333,64.000,1.000
-19692.677,258835.420,25487.117,203433.746,20084.710,-30200.594,-17134.919,25244.699,-0.196,0.867,-0.436,8.209,-10.040,-3.693,73.333,65.000,1.000
-19517.907,253877.461,23096.352,199752.040,17563.765,-29914.037,-15357.261,25940.966,-0.194,0.868,-0.436,8.118,-10.132,-3.265,73.333,66.000,1.000
-19909.312,250426.876,21041.337,196158.338,15852.010,-30146.842,-14330.562,27315.838,-0.194,0.867,-0.440,8.087,-10.132,-3.021,73.333,67.000,1.000
-20257.399,247307.639,19013.351,192550.035,14206.840,-30380.995,-13811.214,28330.473,-0.192,0.867,-0.440,8.209,-10.071,-2.869,73.333,68.000,1.000
-19998.428,243014.046,16810.357,189004.829,11924.424,-30082.840,-12879.836,28409.533,-0.192,0.865,-0.440,8.209,-10.040,-2.594,73.333,69.000,1.000
-19378.201,237750.910,14576.901,185646.881,9271.375,-29433.583,-11218.513,28234.947,-0.191,0.866,-0.439,8.179,-9.979,-2.350,73.333,70.000,1.000
-19116.238,233176.712,12603.159,182458.368,7128.963,-29083.396,-9568.870,28813.368,-0.191,0.866,-0.443,8.118,-9.918,-2.075,73.333,71.000,1.000
-19430.348,230150.172,10946.307,179306.021,5808.106,-29264.273,-8706.839,30098.108,-0.191,0.865,-0.443,8.087,-9.766,-1.892,73.333,72.000,1.000
-19750.945,227564.398,9375.933,176148.832,4643.138,-29478.353,-8357.361,31061.592,-0.190,0.865,-0.444,7.996,-9.705,-1.648,73.333,73.000,1.000
-19503.920,223874.550,7699.924,173117.790,2911.553,-29183.808,-7571.090,31108.594,-0.189,0.866,-0.447,7.904,-9.613,-1.404,73.333,74.000,1.000
-18884.245,219209.856,6016.724,170333.019,811.917,-28531.001,-6040.825,30879.863,-0.190,0.868,-0.447,7.690,-9.491,-1.160,73.333,75.000,1.000
-18574.716,215166.559,4559.228,167713.495,-832.713,-28145.062,-4521.588,31357.522,-0.190,0.868,-0.445,7.629,-9.247,-0.946,73.333,76.000,1.000
-18814.823,212595.193,3361.919,165065.878,-1717.158,-28269.483,-3777.117,32525.239,-0.188,0.867,-0.445,7.446,-9.155,-0.732,73.333,77.000,1.000
-19093.991,210445.375,2211.927,162344.388,-2466.778,-28448.586,-3528.368,33417.481,-0.188,0.865,-0.447,7.324,-9.094,-0.519,73.333,78.000,1.000
-18863.423,207229.177,939.533,159715.515,-3773.966,-28164.642,-2855.916,33454.363,-0.188,0.866,-0.445,7.263,-9.003,-0.366,73.333,79.000,1.000
-18273.599,203048.104,-359.418,157325.399,-5464.275,-27537.953,-1472.998,33213.014,-0.187,0.865,-0.448,7.202,-8.789,-0.214,73.333,80.000,1.000
-17945.218,199406.907,-1467.249,155090.511,-6762.018,-27141.105,-98.768,33609.184,-0.188,0.866,-0.447,7.050,-8.545,-0.061,73.333,81.000,1.000
-18118.952,197129.773,-2344.599,152808.061,-7359.024,-27210.753,555.675,34652.804,-0.187,0.867,-0.447,6.897,-8.331,0.153,73.333,82.000,1.000
-18351.008,195267.549,-3176.764,150435.041,-7814.697,-27343.834,757.687,35473.944,-0.186,0.866,-0.450,6.714,-8.148,0.305,73.333,83.000,1.000
-18138.421,192442.169,-4117.757,148145.099,-8772.761,-27067.299,1354.597,35530.451,-0.186,0.865,-0.448,6.592,-7.996,0.458,73.333,84.000,1.000
-17592.991,188716.530,-5091.227,146082.687,-10098.084,-26475.736,2600.148,35318.596,-0.189,0.867,-0.448,6.500,-7.812,0.641,73.333,85.000,1.000
-17260.703,185442.049,-5910.599,144158.228,-11098.451,-26076.740,3835.372,35655.193,-0.188,0.867,-0.448,6.317,-7.599,0.793,73.333,86.000,1.000
-17372.300,183378.523,-6538.168,142169.732,-11482.681,-26091.640,4421.963,36566.926,-0.189,0.868,-0.449,6.012,-7.385,1.099,73.333,87.000,1.000
-17555.654,181700.311,-7128.610,140079.425,-11732.608,-26177.109,4604.939,37297.807,-0.187,0.869,-0.448,5.829,-7.111,1.068,73.333,88.000,1.000
-17366.238,179182.338,-7813.416,138060.077,-12420.570,-25916.553,5138.278,37363.546,-0.186,0.870,-0.449,5.615,-6.989,1.221,73.333,89.000,1.000
-16880.482,175858.904,-8531.124,136250.531,-13443.632,-25379.639,6242.146,37181.916,-0.186,0.872,-0.449,5.096,-6.683,1.556,73.333,90.000,1.000
-16560.085,172903.252,-9125.671,134563.246,-14203.447,-24998.444,7336.868,37462.066,-0.188,0.873,-0.449,4.730,-6.531,1.648,73.333,91.000,1.000
-16614.781,170990.563,-9562.552,132807.438,-14435.618,-24968.880,7869.750,38244.290,-0.188,0.874,-0.450,4.486,-6.409,1.770,73.333,92.000,1.000
-16742.094,169425.749,-9967.305,130950.256,-14542.196,-25005.911,8056.924,38892.473,-0.188,0.875,-0.449,4.181,-6.256,1.801,73.333,93.000,1.000
-16562.356,167155.045,-10449.224,129154.042,-15015.935,-24754.126,8546.525,38985.705,-0.188,0.875,-0.449,3.754,-5.920,1.892,73.333,94.000,1.000
-16123.993,164189.785,-10960.747,127546.167,-15782.716,-24262.722,9523.184,38861.073,-0.187,0.874,-0.447,3.357,-5.859,2.045,73.333,95.000,1.000
-15807.515,161515.904,-11375.437,126045.158,-16342.006,-23890.457,10492.231,39111.230,-0.185,0.874,-0.448,2.960,-5.707,2.289,73.333,96.000,1.000
-15800.891,159713.765,-11663.216,124477.665,-16462.455,-23809.502,10987.421,39779.942,-0.185,0.875,-0.450,2.716,-5.524,2.319,73.333,97.000,1.000
-15870.737,158216.325,-11923.499,122814.953,-16469.594,-23794.813,11190.857,40345.284,-0.186,0.876,-0.454,2.441,-5.371,2.411,73.333,98.000,1.000
-15705.151,156144.624,-12245.243,121202.611,-16775.230,-23553.631,11642.604,40452.397,-0.185,0.879,-0.454,2.228,-5.188,2.472,73.333,99.000,1.000
-15328.960,153492.333,-12593.574,119753.201,-17329.851,-23115.948,12495.219,40367.340,-0.186,0.879,-0.453,1.831,-5.035,2.686,73.333,100.000,1.000
-15041.169,151061.958,-12869.165,118394.408,-17727.605,-22766.744,13342.273,40575.567,-0.185,0.880,-0.455,1.526,-4.791,2.777,73.333,101.000,1.000
-14999.643,149337.707,-13045.820,116974.929,-17771.584,-22650.150,13803.564,41126.207,-0.185,0.880,-0.454,1.190,-4.578,2.808,73.333,102.000,1.000
-15028.606,147873.431,-13198.548,115470.892,-17715.553,-22594.833,14026.854,41607.504,-0.185,0.879,-0.455,0.824,-4.425,2.808,73.333,103.000,1.000
-14879.159,145959.709,-13396.762,114008.775,-17892.335,-22368.497,14446.536,41728.936,-0.187,0.879,-0.453,0.427,-4.181,2.960,73.333,104.000,1.000
-14559.255,143578.009,-13616.110,112685.027,-18272.246,-21987.105,15183.826,41689.583,-0.186,0.878,-0.450,0.122,-4.181,3.052,73.333,105.000,1.000
-14297.282,141359.575,-13781.653,111437.612,-18537.380,-21668.824,15915.880,41870.535,-0.186,0.876,-0.450,-0.092,-4.089,3.174,73.333,106.000,1.000
-14224.101,139695.616,-13871.669,110138.467,-18525.507,-21529.336,16343.953,42319.751,-0.182,0.873,-0.451,-0.488,-3.937,3.174,73.333,107.000,1.000
-14215.259,138248.215,-13940.594,108767.939,-18426.956,-21442.625,16585.030,42723.524,-0.183,0.872,-0.447,-0.641,-3.845,3.265,73.333,108.000,1.000
-14079.606,136463.674,-14041.056,107431.840,-18502.254,-21230.290,16977.362,42852.121,-0.184,0.873,-0.447,-0.946,-3.662,3.296,73.333,109.000,1.000
-13812.076,134314.939,-14157.960,106209.649,-18738.101,-20897.612,17614.537,42848.854,-0.183,0.873,-0.448,-1.160,-3.571,3.326,73.333,110.000,1.000
-13578.548,132279.177,-14237.840,105049.361,-18895.741,-20605.388,18249.071,43003.565,-0.184,0.873,-0.449,-1.373,-3.387,3.235,73.333,111.000,1.000
-13484.017,130661.704,-14263.326,103845.772,-18845.937,-20445.334,18652.894,43361.597,-0.184,0.873,-0.448,-1.587,-3.510,3.143,73.333,112.000,1.000
-13447.186,129218.743,-14271.326,102583.343,-18724.109,-20332.035,18912.095,43693.708,-0.182,0.873,-0.447,-1.862,-3.387,3.113,73.333,113.000,1.000
-13327.756,127535.589,-14299.457,101348.320,-18725.664,-20135.124,19277.381,43823.461,-0.181,0.874,-0.443,-2.136,-3.357,3.143,73.333,114.000,1.000
-13111.122,125581.368,-14339.162,100205.034,-18848.570,-19851.040,19817.759,43846.452,-0.181,0.872,-0.444,-2.319,-3.296,3.113,73.333,115.000,1.000
-12908.901,123700.804,-14353.987,99112.274,-18921.238,-19589.459,20353.988,43973.278,-0.182,0.870,-0.444,-2.472,-3.265,3.082,73.333,116.000,1.000
-12800.267,122123.406,-14329.967,97986.937,-18843.874,-19417.782,20724.261,44246.550,-0.182,0.872,-0.442,-2.625,-3.204,3.143,73.333,117.000,1.000
-12737.013,120684.344,-14289.740,96817.057,-18706.300,-19281.661,20993.541,44510.996,-0.183,0.871,-0.441,-2.777,-3.204,3.082,73.333,118.000,1.000
-12622.257,119087.714,-14258.963,95669.897,-18648.588,-19091.249,21340.466,44639.282,-0.182,0.870,-0.440,-2.899,-3.265,3.021,73.333,119.000,1.000
-12438.087,117300.378,-14235.266,94594.544,-18677.969,-18839.532,21811.167,44688.943,-0.182,0.871,-0.439,-2.991,-3.204,2.991,73.333,120.000,1.000
-12256.072,115554.568,-14197.460,93558.188,-18680.481,-18598.556,22278.045,44802.064,-0.183,0.870,-0.442,-3.143,-3.235,2.930,73.333,121.000,1.000
-12136.303,114013.621,-14135.669,92496.821,-18583.164,-18418.252,22628.158,45014.277,-0.182,0.870,-0.438,-3.235,-3.174,2.960,73.333,122.000,1.000
-12057.349,112576.756,-14061.411,91401.654,-18439.145,-18269.884,22904.672,45227.837,-0.181,0.870,-0.436,-3.326,-3.235,2.808,73.333,123.000,1.000
-11956.383,111047.773,-13989.869,90323.859,-18341.515,-18095.182,23226.891,45355.031,-0.180,0.873,-0.438,-3.418,-3.357,2.899,73.333,124.000,1.000
-11810.619,109394.946,-13921.872,89300.481,-18302.313,-17881.248,23626.837,45423.639,-0.180,0.872,-0.438,-3.540,-3.387,2.838,73.333,125.000,1.000
-11656.094,107760.433,-13846.857,88307.462,-18252.773,-17665.903,24024.961,45521.131,-0.182,0.872,-0.436,-3.693,-3.357,2.838,73.333,126.000,1.000
-11534.590,106252.802,-13757.881,87297.910,-18142.148,-17482.532,24351.008,45677.004,-0.180,0.873,-0.433,-3.876,-3.326,2.869,73.333,127.000,1.000
-11444.985,104821.051,-13658.352,86265.347,-17995.303,-17322.810,24629.777,45839.349,-0.180,0.875,-0.431,-3.876,-3.510,2.838,73.333,128.000,1.000
-11353.200,103348.635,-13555.859,85246.401,-17868.000,-17155.961,24930.082,45953.651,-0.179,0.875,-0.436,-3.998,-3.571,2.808,73.333,129.000,1.000
-11236.192,101805.940,-13453.979,84267.246,-17775.582,-16968.295,25269.762,46026.528,-0.177,0.876,-0.435,-4.089,-3.632,2.777,73.333,130.000,1.000
-11104.502,100264.168,-13350.490,83310.997,-17685.043,-16773.307,25606.568,46103.971,-0.178,0.877,-0.433,-4.150,-3.601,2.747,73.333,131.000,1.000
-10984.693,98787.991,-13240.766,82345.374,-17563.927,-16590.725,25905.916,46211.258,-0.179,0.877,-0.431,-4.333,-3.571,2.655,73.333,132.000,1.000
-10889.057,97364.612,-13122.050,81366.091,-17415.770,-16425.790,26180.898,46332.045,-0.179,0.879,-0.428,-4.364,-3.662,2.563,73.333,133.000,1.000
-10804.905,95939.992,-12996.168,80397.540,-17267.170,-16267.799,26462.097,46436.767,-0.179,0.880,-0.428,-4.395,-3.632,2.441,73.333,134.000,1.000
-10709.807,94487.725,-12868.699,79456.528,-17135.115,-16102.754,26755.486,46514.601,-0.176,0.880,-0.428,-4.578,-3.601,2.441,73.333,135.000,1.000
-10595.455,93025.270,-12743.771,78531.722,-17013.633,-15926.306,27044.904,46578.018,-0.177,0.880,-0.428,-4.730,-3.571,2.380,73.333,136.000,1.000
-10476.481,91582.523,-12618.954,77602.601,-16885.018,-15747.947,27320.125,46646.884,-0.176,0.880,-0.428,-4.913,-3.571,2.380,73.333,137.000,1.000
-10374.839,90173.591,-12487.377,76666.772,-16737.672,-15582.379,27584.608,46730.933,-0.175,0.878,-0.427,-4.974,-3.601,2.319,73.333,138.000,1.000
-10294.682,88790.979,-12346.421,75739.182,-16576.023,-15433.547,27841.910,46821.255,-0.175,0.878,-0.426,-5.096,-3.693,2.350,73.333,139.000,1.000
-10215.990,87412.136,-12202.323,74829.605,-16416.937,-15288.179,28091.519,46897.131,-0.174,0.878,-0.428,-5.280,-3.662,2.319,73.333,140.000,1.000
-10117.858,86016.127,-12063.079,73931.447,-16273.487,-15129.618,28338.247,46947.543,-0.176,0.878,-0.426,-5.280,-3.540,2.319,73.333,141.000,1.000
-10005.339,84607.024,-11927.695,73033.644,-16139.129,-14958.979,28590.348,46986.905,-0.175,0.878,-0.423,-5.371,-3.540,2.319,73.333,142.000,1.000
-9905.030,83217.218,-11786.668,72135.269,-15992.200,-14795.825,28843.862,47041.600,-0.174,0.879,-0.421,-5.463,-3.479,2.350,73.333,143.000,1.000
-9831.736,81872.339,-11634.581,71243.624,-15821.489,-14653.455,29081.850,47116.838,-0.174,0.877,-0.419,-5.402,-3.387,2.228,73.333,144.000,1.000
-9767.980,80553.562,-11478.328,70362.545,-15643.313,-14519.810,29297.912,47185.759,-0.174,0.879,-0.419,-5.341,-3.448,2.167,73.333,145.000,1.000
-9685.673,79213.694,-11328.868,69488.552,-15484.026,-14371.638,29510.408,47221.634,-0.171,0.876,-0.421,-5.310,-3.418,2.167,73.333,146.000,1.000
-9583.622,77837.941,-11186.803,68617.362,-15345.833,-14206.386,29739.754,47234.676,-0.171,0.875,-0.419,-5.280,-3.357,2.136,73.333,147.000,1.000
-9490.589,76469.461,-11041.483,67748.976,-15201.412,-14048.360,29976.993,47261.875,-0.173,0.875,-0.417,-5.157,-3.387,2.197,73.333,148.000,1.000
-9427.425,75156.042,-10885.396,66885.322,-15028.746,-13917.534,30191.874,47318.468,-0.172,0.875,-0.417,-5.096,-3.235,2.106,73.333,149.000,1.000
-9377.811,73883.466,-10724.445,66026.819,-14841.772,-13801.701,30374.762,47375.385,-0.171,0.876,-0.417,-4.974,-3.265,2.136,73.333,150.000,1.000
-9308.502,72589.716,-10569.912,65173.415,-14673.587,-13670.662,30553.913,47397.053,-0.170,0.877,-0.412,-4.974,-3.265,2.136,73.333,151.000,1.000
-9213.298,71248.015,-10422.936,64326.383,-14531.922,-13515.565,30759.169,47390.832,-0.171,0.876,-0.413,-4.730,-3.296,2.197,73.333,152.000,1.000
-9121.439,69906.570,-10272.860,63486.253,-14387.203,-13360.395,30980.110,47399.624,-0.173,0.878,-0.414,-4.700,-3.174,2.258,73.333,153.000,1.000
-9058.250,68625.563,-10111.902,62650.368,-14211.754,-13229.140,31179.041,47444.883,-0.172,0.877,-0.411,-4.608,-3.174,2.258,73.333,154.000,1.000
-9010.916,67393.926,-9946.023,61815.671,-14018.075,-13113.190,31343.365,47496.777,-0.174,0.879,-0.410,-4.578,-3.113,2.228,73.333,155.000,1.000
-8946.023,66141.747,-9786.961,60983.625,-13843.020,-12983.270,31504.411,47513.994,-0.171,0.879,-0.409,-4.517,-3.052,2.167,73.333,156.000,1.000
-8854.722,64834.914,-9636.354,60159.062,-13698.002,-12829.758,31694.485,47499.928,-0.171,0.881,-0.411,-4.425,-3.235,2.197,73.333,157.000,1.000
-8764.402,63522.816,-9483.737,59343.178,-13553.107,-12675.981,31901.272,47498.320,-0.172,0.883,-0.413,-4.303,-3.113,2.228,73.333,158.000,1.000
-8701.469,62271.626,-9321.027,58530.782,-13377.629,-12546.442,32083.873,47533.436,-0.171,0.885,-0.409,-4.303,-3.052,2.106,73.333,159.000,1.000
-8656.069,61073.416,-9153.603,57716.929,-13182.079,-12434.190,32228.765,47576.046,-0.172,0.885,-0.407,-4.211,-3.082,2.167,73.333,160.000,1.000
-8596.929,59856.258,-8993.059,56904.030,-13004.181,-12311.760,32367.943,47582.137,-0.170,0.886,-0.407,-4.303,-3.021,2.197,73.333,161.000,1.000
-8515.328,58581.995,-8841.895,56098.651,-12857.958,-12170.384,32533.678,47551.286,-0.170,0.887,-0.406,-4.211,-2.960,2.228,73.333,162.000,1.000
-8437.885,57297.502,-8690.914,55301.781,-12715.454,-12033.054,32713.257,47525.438,-0.169,0.884,-0.404,-4.303,-2.960,2.197,73.333,163.000,1.000
-8391.077,56069.492,-8532.275,54506.570,-12545.510,-11923.371,32867.016,47531.064,-0.169,0.884,-0.403,-4.303,-2.838,2.228,73.333,164.000,1.000
-8365.986,54892.156,-8369.981,53707.542,-12356.011,-11833.301,32984.247,47544.362,-0.166,0.885,-0.405,-4.272,-2.808,2.258,73.333,165.000,1.000
-8330.771,53686.642,-8213.787,52908.681,-12182.162,-11733.463,33099.111,47526.347,-0.165,0.884,-0.401,-4.333,-2.716,2.319,73.333,166.000,1.000
-8272.625,52373.516,-8065.558,52118.529,-12038.031,-11611.815,33244.261,47477.697,-0.162,0.883,-0.402,-4.303,-2.594,2.380,73.333,167.000,1.000
-8212.630,50900.384,-7916.905,51338.548,-11898.011,-11488.179,33406.593,47437.863,-0.162,0.883,-0.401,-4.272,-2.472,2.441,73.333,168.000,1.000
-8175.240,49187.867,-7760.810,50560.996,-11732.471,-11385.885,33546.123,47431.183,-0.163,0.882,-0.400,-4.242,-2.289,2.441,73.333,169.000,1.000
-8155.192,47098.573,-7600.977,49779.560,-11547.745,-11300.356,33650.971,47434.502,-0.164,0.881,-0.400,-4.120,-2.045,2.533,73.333,170.000,1.000
-8126.379,44527.347,-7446.422,48998.093,-11376.298,-11206.487,33752.424,47409.506,-0.162,0.885,-0.401,-3.937,-1.953,2.777,73.333,171.000,1.000
-8078.254,41541.266,-7299.194,48225.304,-11232.053,-11093.299,33880.748,47353.770,-0.162,0.883,-0.401,-3.876,-1.801,2.869,73.333,172.000,1.000
-8029.400,38392.388,-7152.010,47462.716,-11092.404,-10978.029,34024.194,47301.711,-0.164,0.885,-0.401,-3.784,-1.648,2.960,73.333,173.000,1.000
-8001.574,35351.989,-6998.514,46702.508,-10930.116,-10881.950,34146.462,47276.486,-0.162,0.885,-0.396,-3.693,-1.465,3.021,73.333,174.000,1.000
-7990.854,32528.157,-6841.804,45938.165,-10750.111,-10802.552,34236.438,47259.422,-0.164,0.883,-0.396,-3.662,-1.343,2.960,73.333,175.000,1.000
-7974.323,29852.846,-6689.903,45173.200,-10581.511,-10718.714,34322.188,47217.689,-0.163,0.883,-0.395,-3.662,-1.343,3.021,73.333,176.000,1.000
-7941.141,27222.517,-6545.007,44415.951,-10437.785,-10620.036,34431.902,47149.852,-0.162,0.885,-0.394,-3.662,-1.282,3.052,73.333,177.000,1.000
-7905.693,24611.664,-6401.186,43667.863,-10299.928,-10519.738,34556.702,47086.889,-0.164,0.884,-0.394,-3.540,-1.221,3.204,73.333,178.000,1.000
-7886.779,22047.494,-6252.980,42921.507,-10143.830,-10435.038,34664.844,47049.456,-0.164,0.887,-0.397,-3.296,-1.221,3.204,73.333,179.000,1.000
-7882.514,19522.603,-6102.701,42170.817,-9972.746,-10363.805,34745.089,47020.739,-0.163,0.888,-0.396,-3.174,-1.190,3.357,73.333,180.000,1.000
-7874.472,16983.008,-5956.794,41419.297,-9811.262,-10288.520,34819.810,46970.734,-0.163,0.891,-0.396,-3.113,-1.160,3.387,73.333,181.000,1.000
-7853.183,14402.288,-5816.910,40675.019,-9671.234,-10200.532,34912.342,46896.528,-0.163,0.889,-0.393,-3.052,-1.099,3.448,73.333,182.000,1.000
-7830.012,11830.479,-5678.010,39939.601,-9536.846,-10110.994,35015.473,46824.169,-0.159,0.889,-0.391,-3.113,-1.129,3.601,73.333,183.000,1.000
-7821.148,9345.960,-5535.502,39206.286,-9387.395,-10035.070,35103.120,46772.205,-0.157,0.886,-0.392,-3.021,-1.129,3.632,73.333,184.000,1.000
-7826.633,6971.366,-5391.292,38469.355,-9224.985,-9972.378,35166.522,46727.653,-0.156,0.886,-0.396,-2.991,-0.916,3.784,73.333,185.000,1.000
-7832.357,4660.249,-5250.880,37731.640,-9070.136,-9909.099,35224.946,46665.435,-0.157,0.882,-0.391,-2.930,-0.793,3.845,73.333,186.000,1.000
-7830.186,2361.884,-5116.107,37000.048,-8933.509,-9837.482,35297.969,46581.867,-0.158,0.883,-0.391,-2.838,-0.702,4.028,73.333,187.000,1.000
-7827.824,73.466,-4983.248,36275.908,-8802.802,-9765.393,35379.315,46497.238,-0.159,0.882,-0.395,-2.625,-0.671,4.028,73.333,188.000,1.000
-7836.046,-2180.143,-4848.257,35553.619,-8660.723,-9703.637,35447.540,46427.208,-0.158,0.886,-0.394,-2.533,-0.671,4.059,73.333,189.000,1.000
-7852.282,-4397.574,-4711.689,34828.921,-8507.853,-9650.162,35496.321,46363.155,-0.158,0.888,-0.394,-2.380,-0.549,4.089,73.333,190.000,1.000
-7863.327,-6608.267,-4577.088,34104.938,-8360.013,-9592.551,35542.324,46286.592,-0.156,0.889,-0.391,-2.258,-0.702,4.150,73.333,191.000,1.000
-7862.348,-8832.080,-4445.786,33387.801,-8225.948,-9524.492,35601.826,46195.262,-0.156,0.890,-0.395,-2.197,-0.641,4.150,73.333,192.000,1.000
-7857.044,-11052.126,-4315.318,32678.297,-8096.437,-9453.351,35669.869,46105.496,-0.154,0.890,-0.393,-2.014,-0.549,4.242,73.333,193.000,1.000
-7858.994,-13236.876,-4183.079,31971.080,-7958.012,-9389.584,35729.254,46029.851,-0.156,0.889,-0.392,-1.892,-0.488,4.242,73.333,194.000,1.000
-7869.203,-15379.175,-4049.833,31262.098,-7810.986,-9333.540,35774.629,45961.365,-0.156,0.889,-0.392,-1.801,-0.427,4.333,73.333,195.000,1.000
-7878.881,-17501.010,-3918.470,30553.817,-7667.772,-9276.431,35818.549,45884.494,-0.154,0.890,-0.395,-1.678,-0.336,4.364,73.333,196.000,1.000
-7882.472,-19623.015,-3790.126,29851.438,-7535.609,-9212.862,35872.912,45795.510,-0.157,0.893,-0.398,-1.617,-0.275,4.364,73.333,197.000,1.000
-7884.678,-21740.840,-3662.970,29155.784,-7407.745,-9147.456,35932.756,45705.163,-0.158,0.896,-0.395,-1.556,-0.336,4.303,73.333,198.000,1.000
-7892.959,-23834.818,-3534.968,28462.470,-7273.721,-9087.703,35983.729,45622.730,-0.160,0.898,-0.394,-1.526,-0.427,4.272,73.333,199.000,1.000
-7906.479,-25894.923,-3406.561,27768.006,-7133.336,-9033.977,36021.128,45544.358,-0.160,0.897,-0.393,-1.617,-0.458,4.181,73.333,200.000,1.000
-7916.399,-27927.844,-3279.715,27074.345,-6995.680,-8979.344,36054.989,45460.565,-0.159,0.896,-0.392,-1.648,-0.580,4.089,73.333,201.000,1.000
-7916.315,-29942.978,-3155.073,26385.946,-6866.229,-8918.688,36096.094,45370.209,-0.160,0.896,-0.396,-1.740,-0.641,4.028,73.333,202.000,1.000
-7909.110,-31939.893,-3031.219,25703.763,-6740.150,-8854.785,36142.719,45281.468,-0.158,0.896,-0.393,-1.740,-0.793,3.876,73.333,203.000,1.000
-7902.619,-33912.143,-2906.739,25024.327,-6609.760,-8794.011,36184.757,45199.814,-0.158,0.895,-0.392,-1.740,-0.824,3.784,73.333,204.000,1.000
-7900.960,-35859.488,-2782.092,24344.615,-6474.828,-8738.738,36217.524,45119.869,-0.157,0.896,-0.393,-1.740,-0.854,3.754,73.333,205.000,1.000
-7902.495,-37790.683,-2658.990,23665.715,-6342.178,-8686.068,36246.365,45031.824,-0.154,0.897,-0.393,-1.648,-0.946,3.876,73.333,206.000,1.000
-7904.694,-39714.290,-2538.368,22990.664,-6216.419,-8633.346,36277.552,44933.024,-0.152,0.899,-0.393,-1.556,-0.916,3.754,73.333,207.000,1.000
-7908.174,-41629.863,-2419.509,22320.099,-6094.574,-8581.869,36309.740,44830.062,-0.153,0.899,-0.391,-1.648,-0.946,3.754,73.333,208.000,1.000
-7914.952,-43528.899,-2301.098,21651.758,-5970.760,-8534.199,36337.069,44730.092,-0.154,0.899,-0.391,-1.770,-0.977,3.754,73.333,209.000,1.000
-7924.037,-45402.848,-2182.627,20984.067,-5843.613,-8489.910,36357.942,44633.167,-0.154,0.900,-0.392,-1.770,-1.038,3.540,73.333,210.000,1.000
-7931.192,-47249.000,-2064.510,20318.535,-5716.872,-8445.366,36377.196,44534.659,-0.154,0.900,-0.389,-1.831,-1.038,3.601,73.333,211.000,1.000
-7933.615,-49071.172,-1947.285,19657.633,-5593.766,-8397.973,36399.262,44432.163,-0.154,0.900,-0.393,-1.770,-1.068,3.540,73.333,212.000,1.000
-7933.534,-50876.016,-1831.173,19001.275,-5473.349,-8349.177,36422.363,44327.521,-0.153,0.901,-0.387,-1.862,-1.221,3.479,73.333,213.000,1.000
-7936.043,-52667.168,-1716.262,18346.786,-5352.819,-8302.282,36441.343,44223.112,-0.154,0.900,-0.389,-1.862,-1.221,3.448,73.333,214.000,1.000
-7943.809,-54442.800,-1602.727,17692.241,-5231.650,-8258.509,36454.348,44118.537,-0.155,0.900,-0.389,-1.923,-1.373,3.326,73.333,215.000,1.000
-7955.210,-56199.092,-1490.665,17038.677,-5111.942,-8215.863,36464.510,44012.105,-0.156,0.900,-0.389,-1.862,-1.312,3.448,73.333,216.000,1.000
-7967.040,-57936.292,-1379.871,16388.489,-4995.292,-8171.965,36475.199,43903.811,-0.154,0.898,-0.388,-1.984,-1.251,3.326,73.333,217.000,1.000
-7977.900,-59659.617,-1269.965,15742.455,-4880.780,-8126.816,36486.116,43795.594,-0.153,0.898,-0.391,-1.923,-1.373,3.296,73.333,218.000,1.000
-7988.855,-61373.038,-1160.683,15099.260,-4766.322,-8082.092,36495.031,43689.092,-0.151,0.898,-0.390,-1.831,-1.404,3.113,73.333,219.000,1.000
-8001.544,-63074.299,-1051.959,14457.655,-4651.092,-8038.928,36501.189,43583.579,-0.151,0.897,-0.390,-1.801,-1.556,2.960,73.333,220.000,1.000
-8016.479,-64757.553,-943.855,13818.067,-4536.065,-7996.888,36505.559,43476.611,-0.150,0.896,-0.391,-1.709,-1.373,3.021,73.333,221.000,1.000
-8032.743,-66420.934,-836.610,13181.645,-4422.651,-7955.048,36508.545,43366.125,-0.150,0.896,-0.389,-1.678,-1.465,2.930,73.333,222.000,1.000
-8049.060,-68069.078,-730.614,12548.457,-4311.336,-7913.126,36509.193,43251.895,-0.149,0.896,-0.391,-1.617,-1.404,2.869,73.333,223.000,1.000
-8064.953,-69706.200,-625.997,11917.476,-4201.452,-7871.301,36506.736,43135.547,-0.151,0.894,-0.391,-1.495,-1.343,2.716,73.333,224.000,1.000
-8080.515,-71329.084,-522.324,11288.129,-4091.945,-7829.847,36501.647,43019.238,-0.150,0.893,-0.389,-1.343,-1.373,2.686,73.333,225.000,1.000
-8095.528,-72929.624,-418.929,10661.105,-3982.289,-7788.717,36495.133,42904.306,-0.151,0.894,-0.386,-1.282,-1.282,2.594,73.333,226.000,1.000
-8109.134,-74504.877,-315.575,10037.448,-3872.868,-7747.388,36488.160,42790.556,-0.151,0.891,-0.386,-1.160,-1.282,2.533,73.333,227.000,1.000
-8120.916,-76061.729,-212.687,9417.287,-3764.547,-7705.286,36481.222,42676.908,-0.149,0.888,-0.386,-0.916,-1.160,2.533,73.333,228.000,1.000
-8132.164,-77609.105,-110.866,8799.784,-3657.793,-7662.634,36474.353,42562.803,-0.147,0.886,-0.386,-0.641,-1.129,2.563,73.333,229.000,1.000
-8145.274,-79147.781,-10.379,8184.069,-3552.284,-7620.969,36466.741,42448.419,-0.148,0.886,-0.388,-0.427,-1.038,2.625,73.333,230.000,1.000
-8161.877,-80670.750,88.826,7569.967,-3447.505,-7581.854,36456.910,42333.755,-0.146,0.887,-0.388,-0.153,-0.885,2.594,73.333,231.000,1.000
-8181.420,-82173.685,186.806,6957.890,-3343.582,-7545.259,36443.893,42217.786,-0.147,0.886,-0.391,0.153,-0.702,2.533,73.333,232.000,1.000
-8201.877,-83660.912,283.541,6348.297,-3241.220,-7509.521,36428.363,42099.181,-0.147,0.887,-0.388,0.366,-0.610,2.502,73.333,233.000,1.000
-8222.055,-85138.562,379.123,5741.342,-3140.695,-7473.098,36412.028,41977.963,-0.145,0.887,-0.388,0.671,-0.610,2.350,73.333,234.000,1.000
-8242.702,-86605.099,473.882,5136.926,-3041.200,-7436.306,36395.661,41855.789,-0.146,0.887,-0.390,1.007,-0.519,2.258,73.333,235.000,1.000
-8265.297,-88052.341,568.157,4534.948,-2941.589,-7400.492,36378.411,41734.506,-0.146,0.889,-0.389,1.190,-0.458,2.289,73.333,236.000,1.000
-8289.949,-89476.283,661.901,3935.403,-2841.821,-7366.217,36358.974,41614.099,-0.146,0.889,-0.390,1.343,-0.275,2.289,73.333,237.000,1.000
-8314.864,-90882.624,754.746,3338.380,-2743.108,-7332.695,36337.237,41492.800,-0.147,0.889,-0.389,1.465,-0.122,2.258,73.333,238.000,1.000
-8337.989,-92278.967,846.586,2744.059,-2646.316,-7298.780,36314.389,41369.584,-0.144,0.892,-0.392,1.740,-0.031,2.289,73.333,239.000,1.000
-8358.975,-93665.345,937.827,2152.558,-2550.690,-7264.553,36291.202,41245.357,-0.146,0.895,-0.390,1.892,-0.031,2.167,73.333,240.000,1.000
-8379.549,-95035.518,1028.897,1563.738,-2454.778,-7231.154,36267.083,41121.358,-0.146,0.897,-0.391,1.953,0.183,2.167,73.333,241.000,1.000
-8401.655,-96386.739,1119.577,977.239,-2358.464,-7199.448,36241.068,40996.766,-0.147,0.896,-0.392,1.892,0.305,2.228,73.333,242.000,1.000
-8425.758,-97724.224,1209.088,392.802,-2263.366,-7169.316,36213.368,40869.119,-0.147,0.898,-0.395,2.014,0.519,2.045,73.333,243.000,1.000
-8451.354,-99054.060,1296.930,-189.490,-2170.862,-7140.207,36185.240,40737.461,-0.147,0.897,-0.395,2.136,0.580,2.014,73.333,244.000,1.000
-8478.354,-100374.927,1383.430,-769.386,-2080.281,-7112.375,36157.007,40603.772,-0.149,0.899,-0.394,2.289,0.641,1.862,73.333,245.000,1.000
-8507.225,-101679.447,1469.352,-1346.785,-1989.712,-7086.621,36127.252,40470.903,-0.151,0.899,-0.395,2.228,0.702,1.678,73.333,246.000,1.000
-8537.461,-102963.484,1555.056,-1921.744,-1898.403,-7062.781,36094.766,40339.566,-0.151,0.898,-0.393,2.228,0.671,1.740,73.333,247.000,1.000
-8567.010,-104230.964,1640.278,-2494.184,-1807.554,-7039.013,36060.628,40208.371,-0.151,0.897,-0.389,2.319,0.763,1.648,73.333,248.000,1.000
-8594.152,-105488.034,1724.721,-3063.798,-1718.506,-7013.336,36026.949,40076.474,-0.150,0.896,-0.394,2.411,0.793,1.587,73.333,249.000,1.000
-8619.430,-106735.422,1808.493,-3630.452,-1630.911,-6985.919,35993.860,39944.665,-0.149,0.894,-0.395,2.472,0.885,1.495,73.333,250.000,1.000
-8645.002,-107968.534,1891.824,-4194.499,-1543.324,-6958.595,35959.361,39813.822,-0.146,0.893,-0.395,2.625,0.977,1.556,73.333,251.000,1.000
-8671.909,-109184.618,1974.560,-4756.478,-1455.319,-6932.638,35921.968,39683.005,-0.148,0.894,-0.393,2.838,1.129,1.465,73.333,252.000,1.000
-8698.953,-110386.958,2056.237,-5316.523,-1368.162,-6907.607,35882.752,39550.261,-0.148,0.893,-0.396,2.869,1.221,1.495,73.333,253.000,1.000
-8724.590,-111580.209,2136.680,-5874.216,-1283.103,-6882.316,35844.175,39415.339,-0.145,0.893,-0.398,2.991,1.312,1.373,73.333,254.000,1.000
-8748.997,-112764.008,2216.235,-6429.174,-1199.701,-6856.912,35806.762,39280.166,-0.145,0.890,-0.400,3.174,1.434,1.373,73.333,255.000,1.000
-8773.992,-113933.357,2295.305,-6981.580,-1116.463,-6832.870,35768.106,39146.563,-0.141,0.886,-0.403,3.448,1.648,1.404,73.333,256.000,1.000
-8800.900,-115085.398,2373.829,-7531.946,-1032.893,-6811.160,35725.461,39013.895,-0.142,0.886,-0.403,3.662,1.801,1.495,73.333,257.000,1.000
-8829.134,-116223.048,2451.388,-8080.412,-950.135,-6791.026,35678.697,38879.749,-0.141,0.886,-0.402,3.845,2.045,1.526,73.333,258.000,1.000
-8857.324,-117350.492,2527.844,-8626.502,-869.335,-6770.728,35630.195,38742.951,-0.146,0.885,-0.401,4.120,2.197,1.587,73.333,259.000,1.000
-8885.228,-118467.638,2603.591,-9169.709,-790.025,-6749.524,35582.012,38604.806,-0.147,0.887,-0.401,4.211,2.228,1.556,73.333,260.000,1.000
-8914.022,-119570.392,2679.020,-9710.182,-710.785,-6728.168,35534.092,38467.376,-0.152,0.890,-0.403,4.486,2.380,1.495,73.333,261.000,1.000
-8944.566,-120656.080,2753.950,-10248.542,-631.176,-6707.845,35485.244,38330.928,-0.153,0.887,-0.402,4.486,2.441,1.404,73.333,262.000,1.000
-8976.256,-121726.733,2827.826,-10785.083,-552.303,-6689.144,35435.005,38193.846,-0.153,0.886,-0.402,4.669,2.411,1.343,73.333,263.000,1.000
-9008.064,-122786.152,2900.369,-11319.470,-475.341,-6672.025,35383.838,38054.922,-0.151,0.884,-0.404,4.761,2.350,1.190,73.333,264.000,1.000
-9039.784,-123835.509,2971.922,-11851.243,-399.993,-6656.527,35331.843,37914.726,-0.149,0.884,-0.406,4.944,2.319,1.190,73.333,265.000,1.000
-9071.638,-124872.577,3043.157,-12380.275,-324.818,-6642.454,35278.535,37774.785,-0.152,0.881,-0.408,5.219,2.197,1.160,73.333,266.000,1.000
-9102.990,-125895.464,3114.476,-12906.676,-248.973,-6628.673,35224.044,37635.641,-0.150,0.884,-0.405,5.371,2.350,1.160,73.333,267.000,1.000
-9132.570,-126905.754,3185.726,-13430.450,-173.102,-6613.355,35169.973,37496.384,-0.148,0.883,-0.409,5.463,2.350,1.099,73.333,268.000,1.000
-9160.151,-127906.533,3256.472,-13951.466,-98.336,-6595.400,35118.183,37356.194,-0.150,0.884,-0.408,5.676,2.441,0.946,73.333,269.000,1.000
-9187.216,-128898.631,3326.442,-14469.784,-24.876,-6575.706,35068.552,37215.386,-0.150,0.882,-0.408,5.890,2.411,1.007,73.333,270.000,1.000
-9215.909,-129879.869,3395.618,-14985.806,48.000,-6556.294,35018.771,37074.834,-0.152,0.884,-0.411,5.890,2.472,1.038,73.333,271.000,1.000
-9247.164,-130848.267,3463.968,-15499.990,120.678,-6538.808,34966.138,36934.315,-0.152,0.884,-0.410,6.012,2.411,1.007,73.333,272.000,1.000
-9279.903,-131804.416,3531.320,-16012.407,192.543,-6523.736,34909.475,36792.397,-0.149,0.884,-0.409,6.134,2.533,1.038,73.333,273.000,1.000
-9312.286,-132749.756,3597.587,-16522.718,262.793,-6510.406,34849.653,36648.401,-0.149,0.882,-0.410,6.195,2.502,1.099,73.333,274.000,1.000
-9343.559,-133684.196,3662.922,-17030.609,331.524,-6498.085,34788.175,36503.243,-0.148,0.883,-0.412,6.317,2.655,1.190,73.333,275.000,1.000
-9374.517,-134605.926,3727.591,-17536.122,399.610,-6486.609,34725.663,36358.234,-0.149,0.882,-0.412,6.439,2.625,1.312,73.333,276.000,1.000
-9406.045,-135513.759,3791.728,-18039.469,467.609,-6476.062,34661.885,36213.481,-0.149,0.883,-0.412,6.439,2.747,1.282,73.333,277.000,1.000
-9437.884,-136408.905,3855.303,-18540.627,535.190,-6466.136,34597.004,36068.093,-0.149,0.884,-0.413,6.592,2.747,1.373,73.333,278.000,1.000
-9469.196,-137293.449,3918.279,-19039.286,601.792,-6455.982,34532.034,35921.761,-0.147,0.886,-0.410,6.622,2.747,1.434,73.333,279.000,1.000
-9499.710,-138168.123,3980.766,-19535.189,667.528,-6445.023,34467.804,35775.280,-0.150,0.886,-0.412,6.683,2.655,1.434,73.333,280.000,1.000
-9530.163,-139032.081,4042.940,-20028.411,733.092,-6433.345,34404.219,35629.685,-0.152,0.883,-0.408,6.653,2.563,1.556,73.333,281.000,1.000
-9561.477,-139884.911,4104.784,-20519.256,798.782,-6421.567,34340.629,35484.896,-0.154,0.881,-0.412,6.714,2.625,1.587,73.333,282.000,1.000
-9593.816,-140727.584,4166.031,-21007.927,864.042,-6410.353,34276.672,35339.722,-0.157,0.880,-0.412,6.714,2.411,1.617,73.333,283.000,1.000
-9626.816,-141560.975,4226.420,-21494.363,928.131,-6399.926,34212.379,35193.316,-0.159,0.876,-0.412,6.653,2.258,1.678,73.333,284.000,1.000
-9660.368,-142384.947,4285.904,-21978.476,990.932,-6390.370,34147.392,35045.932,-0.161,0.873,-0.405,6.744,2.167,1.678,73.333,285.000,1.000
-9694.713,-143198.527,4344.612,-22460.362,1052.953,-6381.678,34080.949,34898.539,-0.164,0.869,-0.404,6.897,1.892,1.556,73.333,286.000,1.000
-9729.607,-144000.937,4402.735,-22940.118,1114.682,-6373.614,34012.714,34751.744,-0.166,0.867,-0.405,6.927,1.556,1.526,73.333,287.000,1.000
-9764.051,-144792.344,4460.473,-23417.552,1176.180,-6365.671,33943.299,34605.498,-0.167,0.866,-0.409,7.141,1.251,1.404,73.333,288.000,1.000
-9797.231,-145573.251,4518.031,-23892.218,1237.311,-6357.249,33873.695,34459.740,-0.172,0.864,-0.409,7.324,0.885,1.312,73.333,289.000,1.000
-9829.339,-146344.020,4575.506,-24363.864,1298.096,-6348.359,33804.137,34314.441,-0.175,0.858,-0.407,7.477,0.458,1.160,73.333,290.000,1.000
-9861.520,-147104.817,4632.744,-24832.776,1358.616,-6339.653,33733.960,34169.184,-0.175,0.856,-0.408,7.751,-0.092,0.916,73.333,291.000,1.000
-9895.167,-147856.543,4689.292,-25299.626,1418.594,-6332.034,33662.327,34022.742,-0.175,0.855,-0.410,8.057,-0.397,0.702,73.333,292.000,1.000
-9931.269,-148601.298,4744.579,-25765.006,1477.335,-6326.071,33589.049,33873.716,-0.173,0.855,-0.411,8.362,-0.763,0.397,73.333,293.000,1.000
-9969.876,-149340.575,4798.344,-26228.995,1534.359,-6321.290,33514.722,33722.036,-0.170,0.858,-0.414,8.728,-1.099,0.092,73.333,294.000,1.000
-10009.769,-150073.426,4850.916,-26691.164,1589.990,-6316.378,33440.064,33569.217,-0.168,0.864,-0.418,9.033,-1.373,-0.366,73.333,295.000,1.000
-10049.028,-150796.304,4902.991,-27150.932,1645.136,-6309.745,33365.641,33417.253,-0.167,0.867,-0.424,9.155,-1.587,-0.763,73.333,296.000,1.000
-10085.947,-151505.046,4955.154,-27607.890,1700.533,-6300.312,33291.924,33267.211,-0.165,0.872,-0.427,9.247,-1.678,-1.129,73.333,297.000,1.000
-10119.766,-152197.226,5007.601,-28061.877,1756.280,-6287.982,33219.279,33119.026,-0.162,0.876,-0.433,9.460,-1.740,-1.373,73.333,298.000,1.000
-10150.930,-152872.740,5060.173,-28512.948,1812.016,-6273.297,33147.864,32972.351,-0.162,0.877,-0.432,9.491,-1.709,-1.526,73.333,299.000,1.000
-10180.595,-153533.394,5112.538,-28961.339,1867.374,-6257.271,33077.260,32826.809,-0.161,0.882,-0.434,9.583,-1.709,-1.709,73.333,300.000,1.000
-10210.154,-154181.954,5164.385,-29407.381,1922.201,-6241.229,33006.363,32681.746,-0.157,0.884,-0.436,9.521,-1.648,-1.953,73.333,301.000,1.000
-10240.874,-154821.719,5215.469,-29851.402,1976.384,-6226.684,32933.713,32535.917,-0.155,0.886,-0.438,9.430,-1.587,-2.197,73.333,302.000,1.000
-10273.498,-155456.069,5265.565,-30293.631,2029.649,-6214.851,32858.251,32388.049,-0.154,0.886,-0.436,9.338,-1.343,-2.319,73.333,303.000,1.000
-10307.934,-156086.983,5314.575,-30734.092,2081.738,-6205.806,32779.959,32238.042,-0.155,0.886,-0.437,9.338,-1.068,-2.380,73.333,304.000,1.000
-10343.295,-156714.142,5362.672,-31172.597,2132.739,-6198.588,32699.623,32087.021,-0.155,0.886,-0.437,9.247,-0.885,-2.563,73.333,305.000,1.000
-10378.574,-157335.037,5410.254,-31608.852,2183.124,-6191.872,32618.317,31936.421,-0.154,0.885,-0.438,9.216,-0.641,-2.533,73.333,306.000,1.000
-10413.206,-157946.427,5457.640,-32042.652,2233.341,-6184.814,32536.995,31786.901,-0.155,0.883,-0.439,9.216,-0.488,-2.502,73.333,307.000,1.000
-10447.064,-158546.048,5504.841,-32473.969,2283.453,-6177.284,32456.343,31638.282,-0.156,0.882,-0.439,9.094,-0.153,-2.350,73.333,308.000,1.000
-10480.040,-159132.876,5551.702,-32902.826,2333.271,-6169.223,32376.831,31490.630,-0.158,0.881,-0.440,8.972,0.092,-2.350,73.333,309.000,1.000
-10511.737,-159706.998,5598.169,-33329.188,2382.689,-6160.536,32298.490,31344.569,-0.159,0.881,-0.440,8.820,0.427,-2.197,73.333,310.000,1.000
-10542.235,-160269.715,5644.312,-33753.040,2431.735,-6151.604,32220.484,31200.281,-0.162,0.879,-0.438,8.759,0.610,-2.045,73.333,311.000,1.000
-10572.678,-160823.809,5690.156,-34174.486,2480.407,-6143.772,32141.067,31056.275,-0.164,0.880,-0.437,8.728,0.885,-1.862,73.333,312.000,1.000
-10604.224,-161371.906,5735.670,-34593.639,2528.674,-6138.365,32058.920,30910.369,-0.165,0.877,-0.438,8.636,1.038,-1.556,73.333,313.000,1.000
-10636.455,-161913.266,5780.912,-35010.428,2576.623,-6134.725,31974.746,30762.413,-0.168,0.877,-0.440,8.698,1.129,-1.282,73.333,314.000,1.000
-10667.610,-162444.138,5825.986,-35424.676,2624.384,-6130.493,31890.602,30614.499,-0.169,0.875,-0.438,8.606,1.312,-1.099,73.333,315.000,1.000
-10697.123,-162962.273,5870.735,-35836.470,2671.794,-6124.380,31807.571,30467.888,-0.172,0.874,-0.440,8.606,1.556,-0.671,73.333,316.000,1.000
-10727.087,-163470.761,5914.648,-36246.304,2718.331,-6118.329,31724.579,30320.624,-0.171,0.876,-0.442,8.575,1.617,-0.214,73.333,317.000,1.000
-10760.365,-163975.625,5957.269,-36654.665,2763.556,-6115.711,31639.913,30169.690,-0.173,0.875,-0.440,8.453,1.770,0.153,73.333,318.000,1.000
-10797.317,-164478.807,5998.709,-37061.514,2807.605,-6117.073,31553.489,30015.354,-0.173,0.874,-0.443,8.484,1.862,0.458,73.333,319.000,1.000
-10834.999,-164975.817,6039.616,-37466.286,2851.115,-6119.111,31466.955,29861.566,-0.172,0.875,-0.444,8.514,1.953,0.885,73.333,320.000,1.000
-10870.098,-165460.566,6080.614,-37868.417,2894.660,-6117.830,31381.902,29712.043,-0.168,0.877,-0.443,8.514,2.014,1.343,73.333,321.000,1.000
-10901.700,-165930.826,6121.823,-38267.790,2938.349,-6112.035,31298.231,29566.805,-0.168,0.877,-0.442,8.362,2.136,1.770,73.333,322.000,1.000
-10931.027,-166388.398,6162.938,-38664.659,2981.921,-6103.544,31214.488,29422.905,-0.170,0.877,-0.443,8.331,2.197,2.197,73.333,323.000,1.000
-10959.732,-166835.632,6203.576,-39059.325,3025.036,-6094.961,31129.311,29277.598,-0.168,0.879,-0.444,8.148,2.289,2.777,73.333,324.000,1.000
-10988.871,-167273.612,6243.503,-39451.947,3067.426,-6088.134,31042.124,29129.884,-0.166,0.881,-0.445,8.057,2.502,3.326,73.333,325.000,1.000
-11018.994,-167702.194,6282.719,-39842.496,3109.031,-6083.497,30953.302,28980.212,-0.160,0.881,-0.445,7.874,2.625,3.815,73.333,326.000,1.000
-11050.252,-168120.883,6321.451,-40230.791,3150.069,-6080.293,30863.888,28829.600,-0.158,0.884,-0.446,7.660,2.869,4.395,73.333,327.000,1.000
-11082.428,-168529.939,6360.000,-40616.635,3190.908,-6077.438,30774.790,28678.969,-0.155,0.884,-0.449,7.538,3.143,5.005,73.333,328.000,1.000
-11115.151,-168930.701,6398.502,-40999.992,3231.743,-6074.223,30686.127,28528.870,-0.151,0.885,-0.448,7.355,3.418,5.646,73.333,329.000,1.000
-11148.065,-169325.367,6436.716,-41381.129,3272.334,-6070.793,30597.170,28379.133,-0.146,0.886,-0.447,7.050,3.754,6.256,73.333,330.000,1.000
-11181.047,-169715.609,6474.147,-41760.508,3312.137,-6067.715,30507.193,28229.232,-0.143,0.890,-0.449,6.744,4.150,6.775,73.333,331.000,1.000
-11213.916,-170101.172,6510.514,-42138.374,3350.836,-6065.134,30416.438,28079.147,-0.141,0.894,-0.448,6.317,4.517,7.324,73.333,332.000,1.000
-11246.090,-170480.007,6546.107,-42514.429,3388.731,-6062.486,30325.925,27929.544,-0.137,0.895,-0.449,5.829,4.700,7.812,73.333,333.000,1.000
-11277.032,-170849.690,6581.558,-42888.054,3426.459,-6059.203,30236.039,27780.822,-0.133,0.893,-0.448,5.341,5.096,8.270,73.333,334.000,1.000
-11306.902,-171209.322,6617.231,-43258.888,3464.341,-6055.732,30145.753,27632.228,-0.129,0.894,-0.446,4.974,5.463,8.850,73.333,335.000,1.000
-11336.588,-171559.622,6652.943,-43627.101,3502.167,-6052.926,30053.831,27482.767,-0.121,0.894,-0.443,4.395,5.829,9.277,73.333,336.000,1.000
-11366.661,-171901.180,6688.265,-43993.120,3539.546,-6050.710,29960.185,27332.557,-0.120,0.895,-0.448,4.059,6.287,9.491,73.333,337.000,1.000
-11396.872,-172233.488,6722.905,-44357.256,3576.276,-6047.997,29865.849,27182.685,-0.117,0.895,-0.447,3.662,6.683,9.796,73.333,338.000,1.000
-11427.182,-172556.238,6756.771,-44719.613,3612.320,-6043.994,29771.965,27033.737,-0.115,0.892,-0.450,3.326,7.111,9.979,73.333,339.000,1.000
-11458.077,-172870.841,6789.918,-45080.127,3647.696,-6039.168,29679.041,26885.085,-0.111,0.890,-0.450,2.960,7.599,10.162,73.333,340.000,1.000
-11489.400,-173178.634,6822.614,-45438.507,3682.602,-6034.137,29587.288,26736.453,-0.106,0.887,-0.451,2.594,8.118,10.345,73.333,341.000,1.000
-11519.722,-173478.771,6855.280,-45794.358,3717.414,-6028.816,29496.662,26588.946,-0.103,0.886,-0.445,2.258,8.545,10.376,73.333,342.000,1.000
-11547.627,-173769.289,6888.142,-46147.527,3752.359,-6023.162,29406.377,26443.504,-0.101,0.885,-0.443,1.953,9.125,10.406,73.333,343.000,1.000
-11573.431,-174049.767,6920.965,-46498.295,3787.234,-6017.948,29315.086,26298.951,-0.096,0.885,-0.447,1.678,9.613,10.437,73.333,344.000,1.000
-11599.093,-174322.785,6953.229,-46847.159,3821.534,-6014.595,29221.663,26152.416,-0.094,0.883,-0.446,1.434,10.071,10.529,73.333,345.000,1.000
-11626.399,-174591.590,6984.634,-47194.362,3854.947,-6013.634,29126.108,26002.462,-0.092,0.883,-0.446,1.221,10.498,10.529,73.333,346.000,1.000
-11655.048,-174856.179,7015.414,-47539.653,3887.696,-6013.502,29029.717,25851.063,-0.090,0.881,-0.444,0.946,11.047,10.437,73.333,347.000,1.000
-11683.052,-175112.985,7046.100,-47882.530,3920.340,-6011.571,28934.207,25701.704,-0.088,0.881,-0.444,0.763,11.505,10.406,73.333,348.000,1.000
-11709.598,-175359.410,7076.933,-48222.787,3953.153,-6006.759,28840.208,25555.518,-0.084,0.879,-0.443,0.641,11.932,10.345,73.333,349.000,1.000
-11736.544,-175597.915,7107.564,-48560.799,3985.765,-6001.085,28746.419,25409.696,-0.085,0.878,-0.442,0.580,12.329,10.162,73.333,350.000,1.000
-11766.316,-175832.990,7137.417,-48897.140,4017.549,-5997.626,28650.925,25260.687,-0.082,0.878,-0.442,0.366,12.817,9.918,73.333,351.000,1.000
-11798.672,-176065.028,7166.322,-49231.977,4048.300,-5997.252,28553.356,25108.378,-0.082,0.878,-0.438,0.244,13.214,9.705,73.333,352.000,1.000
-11830.414,-176289.275,7194.715,-49564.883,4078.473,-5997.712,28455.666,24956.298,-0.083,0.877,-0.434,0.183,13.519,9.583,73.333,353.000,1.000
-11858.525,-176500.725,7223.247,-49895.229,4108.775,-5995.908,28360.586,24807.862,-0.082,0.877,-0.437,0.122,13.733,9.216,73.333,354.000,1.000
-11883.058,-176699.372,7252.189,-50222.760,4139.529,-5991.052,28269.018,24663.076,-0.082,0.875,-0.436,0.122,13.947,8.759,73.333,355.000,1.000
-11906.668,-176889.234,7281.296,-50547.708,4170.494,-5984.746,28179.424,24519.648,-0.083,0.877,-0.437,0.061,14.191,8.545,73.333,356.000,1.000
-11931.649,-177073.391,7310.144,-50870.473,4201.228,-5978.828,28089.451,24375.986,-0.083,0.877,-0.437,0.092,14.252,8.179,73.333,357.000,1.000
-11958.351,-177251.718,7338.382,-51191.396,4231.361,-5974.213,27997.475,24231.935,-0.082,0.877,-0.434,0.000,14.313,7.629,73.333,358.000,1.000
-11986.332,-177423.010,7365.778,-51510.739,4260.626,-5971.447,27902.756,24087.339,-0.083,0.878,-0.435,0.122,14.221,7.111,73.333,359.000,1.000
-12015.574,-177588.008,7392.282,-51828.585,4288.910,-5971.306,27805.237,23941.304,-0.085,0.878,-0.436,0.092,14.160,6.683,73.333,360.000,1.000
-12045.986,-177748.568,7418.117,-52144.719,4316.380,-5973.581,27706.180,23793.785,-0.086,0.879,-0.436,0.092,14.008,6.134,73.333,361.000,1.000
-12076.396,-177905.004,7443.644,-52458.760,4343.413,-5976.279,27607.887,23646.461,-0.089,0.879,-0.430,0.092,13.947,5.615,73.333,362.000,1.000
-12105.253,-178056.097,7469.058,-52770.522,4370.287,-5977.203,27511.767,23501.020,-0.091,0.878,-0.430,0.122,13.702,5.188,73.333,363.000,1.000
-12132.557,-178201.528,7494.190,-53080.213,4396.930,-5976.142,27416.875,23357.048,-0.090,0.879,-0.431,0.092,13.397,4.669,73.333,364.000,1.000
-12160.033,-178343.332,7518.679,-53388.223,4423.027,-5975.086,27320.842,23212.234,-0.096,0.879,-0.434,0.092,13.031,4.181,73.333,365.000,1.000
-12189.149,-178483.639,7542.416,-53694.647,4448.456,-5975.717,27222.455,23065.106,-0.097,0.878,-0.432,0.275,12.634,3.632,73.333,366.000,1.000
-12219.470,-178622.076,7565.738,-53999.117,4473.513,-5977.758,27122.455,22916.535,-0.098,0.878,-0.431,0.275,12.238,2.930,73.333,367.000,1.000
-12249.340,-178756.094,7589.121,-54301.155,4498.623,-5980.006,27022.032,22768.395,-0.100,0.876,-0.432,0.366,11.688,2.411,73.333,368.000,1.000
-12277.675,-178882.845,7612.748,-54600.607,4523.922,-5981.695,26921.719,22621.767,-0.103,0.878,-0.432,0.336,11.139,1.740,73.333,369.000,1.000
-12304.574,-179000.949,7636.471,-54897.642,4549.229,-5982.648,26821.762,22476.542,-0.105,0.881,-0.432,0.458,10.529,1.129,73.333,370.000,1.000
-12330.904,-179110.820,7660.061,-55192.494,4574.308,-5982.692,26722.675,22332.143,-0.104,0.882,-0.432,0.488,9.949,0.763,73.333,371.000,1.000
-12357.796,-179214.436,7683.288,-55485.366,4598.969,-5982.092,26624.451,22187.649,-0.104,0.884,-0.436,0.549,9.430,0.397,73.333,372.000,1.000
-12385.997,-179314.148,7705.933,-55776.459,4623.065,-5981.835,26526.041,22042.098,-0.103,0.885,-0.435,0.519,8.881,-0.061,73.333,373.000,1.000
-12415.024,-179410.039,7727.946,-56065.846,4646.576,-5982.174,26426.561,21895.828,-0.103,0.888,-0.432,0.305,8.301,-0.519,73.333,374.000,1.000
-12443.136,-179499.497,7749.509,-56353.402,4669.655,-5982.099,26326.226,21750.526,-0.102,0.890,-0.434,0.183,7.721,-0.854,73.333,375.000,1.000
-12468.933,-179580.073,7770.841,-56638.932,4692.471,-5980.842,26225.658,21607.323,-0.102,0.886,-0.436,0.183,7.294,-1.099,73.333,376.000,1.000
-12492.871,-179652.958,7791.983,-56922.386,4715.042,-5979.431,26124.710,21465.049,-0.102,0.887,-0.434,0.000,6.836,-1.404,73.333,377.000,1.000
-12516.762,-179722.779,7812.783,-57203.896,4737.226,-5979.875,26022.694,21321.238,-0.104,0.885,-0.437,0.061,6.226,-1.648,73.333,378.000,1.000
-12541.744,-179792.992,7833.110,-57483.589,4758.917,-5982.618,25919.763,21175.103,-0.101,0.884,-0.434,0.122,5.890,-1.831,73.333,379.000,1.000
-12567.239,-179862.841,7853.035,-57761.413,4780.202,-5985.824,25817.170,21028.391,-0.102,0.887,-0.438,0.092,5.646,-1.770,73.333,380.000,1.000
-12592.379,-179929.049,7872.720,-58037.237,4801.229,-5987.249,25716.072,20883.258,-0.105,0.888,-0.438,-0.031,5.188,-1.984,73.333,381.000,1.000
-12617.654,-179989.620,7892.115,-58311.118,4821.943,-5986.656,25616.179,20739.785,-0.106,0.887,-0.434,0.061,4.761,-2.014,73.333,382.000,1.000
-12644.416,-180044.692,7910.971,-58583.291,4842.103,-5985.936,25515.965,20596.304,-0.107,0.884,-0.431,0.000,4.395,-1.984,73.333,383.000,1.000
-12672.752,-180093.502,7929.217,-58853.807,4861.660,-5986.576,25414.467,20452.229,-0.107,0.882,-0.430,-0.092,4.059,-1.923,73.333,384.000,1.000
-12700.466,-180132.981,7947.167,-59122.349,4880.953,-5987.911,25312.437,20309.251,-0.104,0.877,-0.430,-0.214,3.754,-1.831,73.333,385.000,1.000
-12725.164,-180160.462,7965.273,-59388.476,4900.445,-5988.015,25211.428,20169.330,-0.105,0.874,-0.432,-0.061,3.357,-1.648,73.333,386.000,1.000
-12747.042,-180177.659,7983.697,-59652.048,4920.275,-5986.236,25111.799,20031.861,-0.104,0.872,-0.434,0.092,3.021,-1.526,73.333,387.000,1.000
-12768.751,-180190.359,8002.220,-59913.314,4940.179,-5983.994,25012.381,19893.931,-0.106,0.871,-0.435,0.275,2.808,-1.343,73.333,388.000,1.000
-12792.430,-180202.737,8020.560,-60172.588,4959.835,-5982.584,24912.237,19753.695,-0.109,0.872,-0.435,0.366,2.563,-1.190,73.333,389.000,1.000
-12817.565,-180213.329,8038.617,-60429.985,4979.127,-5981.689,24811.495,19611.981,-0.111,0.876,-0.437,0.610,2.319,-0.946,73.333,390.000,1.000
-12842.334,-180216.903,8056.409,-60685.485,4998.078,-5980.411,24710.466,19470.427,-0.110,0.881,-0.441,0.732,2.136,-0.916,73.333,391.000,1.000
-12866.051,-180209.628,8073.924,-60939.100,5016.699,-5979.043,24608.925,19329.104,-0.111,0.886,-0.440,0.885,1.801,-0.763,73.333,392.000,1.000
-12889.312,-180191.625,8091.155,-61190.838,5035.015,-5978.814,24506.834,19187.058,-0.111,0.885,-0.438,0.793,1.434,-0.458,73.333,393.000,1.000
-12911.964,-180164.356,8108.272,-61440.522,5053.205,-5979.706,24405.326,19044.979,-0.109,0.884,-0.441,0.793,1.190,-0.214,73.333,394.000,1.000
-12932.081,-180127.920,8125.511,-61687.889,5071.512,-5979.903,24305.978,18905.392,-0.109,0.885,-0.441,0.702,0.946,0.122,73.333,395.000,1.000
-12948.197,-180082.333,8142.779,-61932.986,5089.877,-5977.849,24209.014,18769.450,-0.111,0.886,-0.439,0.641,0.732,0.244,73.333,396.000,1.000
-12962.153,-180031.134,8159.481,-62176.388,5107.747,-5974.776,24112.395,18634.274,-0.111,0.889,-0.437,0.763,0.458,0.610,73.333,397.000,1.000
-12978.547,-179981.290,8174.958,-62418.798,5124.478,-5974.225,24013.167,18495.098,-0.112,0.888,-0.437,0.641,0.305,0.732,73.333,398.000,1.000
-13000.103,-179936.162,8189.244,-62660.255,5140.072,-5977.776,23910.405,18351.119,-0.115,0.887,-0.439,0.580,0.061,0.946,73.333,399.000,1.000
-13023.834,-179889.330,8203.223,-62899.931,5155.339,-5982.291,23806.198,18207.552,-0.113,0.890,-0.438,0.458,-0.275,1.129,73.333,400.000,1.000
-13044.261,-179829.377,8217.824,-63136.921,5171.122,-5983.268,23702.931,18069.926,-0.113,0.891,-0.438,0.397,-0.580,1.282,73.333,401.000,1.000
-13060.778,-179753.662,8233.023,-63371.230,5187.362,-5981.263,23600.113,17936.478,-0.111,0.892,-0.440,0.214,-0.824,1.465,73.333,402.000,1.000
-13079.294,-179674.239,8247.814,-63603.833,5203.085,-5982.688,23495.196,17798.855,-0.111,0.892,-0.442,0.061,-1.038,1.617,73.333,403.000,1.000
-13104.277,-179604.106,8261.396,-63835.502,5217.566,-5991.722,23387.994,17652.800,-0.107,0.891,-0.438,-0.031,-1.282,1.801,73.333,404.000,1.000
-13130.769,-179538.694,8274.333,-64065.678,5231.430,-6002.981,23282.733,17505.898,-0.106,0.888,-0.436,-0.122,-1.465,1.892,73.333,405.000,1.000
-13148.800,-179458.051,8288.053,-64292.968,5246.114,-6005.945,23183.842,17370.069,-0.101,0.886,-0.438,-0.336,-1.617,2.106,73.333,406.000,1.000
-13156.596,-179351.368,8302.987,-64516.997,5262.019,-5998.390,23089.461,17245.445,-0.101,0.885,-0.437,-0.305,-1.709,2.350,73.333,407.000,1.000
-13165.997,-179235.071,8317.610,-64739.303,5277.627,-5992.489,22991.338,17116.010,-0.098,0.885,-0.440,-0.427,-1.709,2.533,73.333,408.000,1.000
-13190.584,-179137.817,8330.037,-64961.730,5291.105,-6002.733,22883.669,16966.417,-0.099,0.885,-0.440,-0.488,-1.801,2.563,73.333,409.000,1.000
-13228.431,-179066.080,8340.440,-65184.061,5302.643,-6027.992,22771.094,16801.857,-0.098,0.883,-0.440,-0.549,-1.862,2.808,73.333,410.000,1.000
-13262.298,-178993.682,8351.065,-65404.056,5314.434,-6050.988,22664.531,16644.453,-0.096,0.880,-0.439,-0.519,-1.953,3.052,73.333,411.000,1.000
-13278.532,-178890.678,8363.702,-65619.971,5328.178,-6057.557,22568.725,16508.641,-0.098,0.879,-0.435,-0.397,-1.953,3.204,73.333,412.000,1.000
-13281.334,-178755.558,8377.780,-65832.411,5343.254,-6051.735,22477.095,16386.111,-0.099,0.877,-0.432,-0.488,-1.953,3.357,73.333,413.000,1.000
-13285.837,-178612.338,8391.313,-66043.352,5357.705,-6048.583,22380.169,16257.926,-0.097,0.878,-0.434,-0.458,-1.984,3.418,73.333,414.000,1.000
-13300.270,-178480.511,8403.279,-66253.790,5370.575,-6055.933,22276.177,16116.601,-0.096,0.878,-0.431,-0.427,-2.136,3.479,73.333,415.000,1.000
-13319.803,-178356.500,8414.372,-66463.016,5382.601,-6068.083,22170.682,15970.840,-0.098,0.875,-0.435,-0.153,-2.197,3.510,73.333,416.000,1.000
-13336.288,-178224.928,8425.629,-66670.011,5394.811,-6075.939,22068.249,15831.240,-0.097,0.877,-0.437,-0.092,-2.319,3.479,73.333,417.000,1.000
-13348.700,-178079.614,8437.093,-66874.767,5407.216,-6077.830,21968.018,15698.064,-0.097,0.873,-0.436,0.061,-2.502,3.510,73.333,418.000,1.000
-13362.472,-177928.079,8448.031,-67078.053,5419.066,-6078.890,21866.601,15564.078,-0.098,0.871,-0.435,0.153,-2.625,3.479,73.333,419.000,1.000
-13381.115,-177778.924,8458.061,-67280.286,5429.981,-6083.052,21762.735,15425.084,-0.097,0.873,-0.433,0.305,-2.747,3.418,73.333,420.000,1.000
-13401.992,-177631.039,8467.620,-67481.031,5440.413,-6088.573,21658.436,15284.356,-0.098,0.873,-0.438,0.610,-2.899,3.448,73.333,421.000,1.000
-13420.207,-177476.946,8477.332,-67679.646,5450.992,-6091.317,21556.190,15147.541,-0.098,0.872,-0.436,0.824,-3.052,3.418,73.333,422.000,1.000
-13434.425,-177313.128,8487.215,-67876.113,5461.718,-6090.153,21455.912,15015.945,-0.098,0.872,-0.436,0.977,-3.235,3.204,73.333,423.000,1.000
-13447.862,-177144.001,8496.727,-68070.999,5472.012,-6087.864,21355.180,14885.880,-0.097,0.871,-0.435,1.099,-3.326,3.113,73.333,424.000,1.000
-13464.063,-176976.415,8505.469,-68264.707,5481.468,-6087.712,21251.977,14753.386,-0.097,0.872,-0.437,1.373,-3.571,3.052,73.333,425.000,1.000
-13483.462,-176812.250,8513.624,-68457.012,5490.304,-6090.113,21146.647,14618.106,-0.098,0.872,-0.434,1.556,-3.632,2.747,73.333,426.000,1.000
-13503.612,-176646.707,8521.808,-68647.264,5499.185,-6092.458,21041.470,14483.038,-0.099,0.870,-0.437,1.709,-3.784,2.563,73.333,427.000,1.000
-13521.743,-176472.870,8530.582,-68834.890,5508.699,-6091.737,20938.465,14351.391,-0.097,0.870,-0.438,1.862,-3.845,2.350,73.333,428.000,1.000
-13537.568,-176288.228,8539.923,-69019.916,5518.822,-6087.750,20837.243,14223.232,-0.096,0.868,-0.438,2.014,-3.937,2.350,73.333,429.000,1.000
-13553.465,-176097.351,8549.143,-69203.056,5528.841,-6083.776,20735.344,14095.150,-0.095,0.870,-0.438,2.289,-4.028,2.136,73.333,430.000,1.000
-13571.969,-175907.508,8557.476,-69385.124,5537.969,-6083.419,20631.031,13963.739,-0.096,0.872,-0.438,2.472,-4.150,1.892,73.333,431.000,1.000
-13592.724,-175721.048,8564.789,-69566.294,5546.068,-6086.663,20525.441,13829.574,-0.097,0.874,-0.442,2.655,-4.364,1.770,73.333,432.000,1.000
-13612.327,-175532.677,8571.582,-69746.071,5553.648,-6089.612,20421.566,13697.013,-0.096,0.873,-0.441,2.686,-4.425,1.556,73.333,433.000,1.000
-13628.110,-175335.566,8578.299,-69923.995,5561.164,-6088.961,20320.772,13569.052,-0.094,0.873,-0.443,2.838,-4.517,1.373,73.333,434.000,1.000
-13641.300,-175129.699,8584.811,-70100.197,5568.488,-6086.243,20220.822,13443.226,-0.093,0.875,-0.440,3.052,-4.547,1.251,73.333,435.000,1.000
-13655.715,-174921.933,8590.644,-70275.181,5575.126,-6086.036,20118.354,13314.270,-0.092,0.874,-0.441,3.174,-4.791,0.885,73.333,436.000,1.000
-13673.003,-174717.205,8595.665,-70449.109,5580.919,-6089.961,20013.006,13180.858,-0.093,0.874,-0.443,3.265,-4.669,0.793,73.333,437.000,1.000
-13690.330,-174511.837,8600.456,-70621.413,5586.424,-6094.119,19907.900,13047.779,-0.094,0.874,-0.441,3.357,-4.730,0.580,73.333,438.000,1.000
-13704.157,-174298.252,8605.807,-70791.295,5592.431,-6093.631,19805.876,12919.979,-0.097,0.872,-0.447,3.448,-4.761,0.366,73.333,439.000,1.000
-13715.073,-174075.383,8611.831,-70958.632,5599.075,-6088.846,19706.256,12796.011,-0.097,0.873,-0.444,3.448,-4.913,0.244,73.333,440.000,1.000
-13727.341,-173850.460,8617.860,-71124.081,5605.719,-6085.040,19606.104,12669.856,-0.100,0.875,-0.449,3.540,-4.913,0.061,73.333,441.000,1.000
-13743.262,-173629.243,8623.351,-71288.170,5611.839,-6085.828,19504.232,12539.050,-0.101,0.874,-0.447,3.571,-4.944,-0.183,73.333,442.000,1.000
-13759.923,-173407.889,8628.533,-71450.664,5617.650,-6089.107,19402.382,12407.978,-0.103,0.875,-0.447,3.662,-5.066,-0.366,73.333,443.000,1.000
-13773.204,-173177.909,8633.850,-71611.128,5623.566,-6090.988,19301.949,12281.465,-0.105,0.878,-0.448,3.784,-5.157,-0.488,73.333,444.000,1.000
-13783.127,-172937.470,8639.184,-71769.714,5629.451,-6091.807,19201.499,12157.839,-0.108,0.878,-0.448,3.815,-5.280,-0.732,73.333,445.000,1.000
-13793.706,-172693.732,8643.970,-71927.013,5634.759,-6095.634,19098.813,12031.142,-0.109,0.875,-0.449,3.784,-5.371,-0.977,73.333,446.000,1.000
-13807.617,-172453.352,8647.982,-72083.258,5639.296,-6104.215,18994.168,11899.272,-0.112,0.874,-0.448,3.754,-5.676,-1.251,73.333,447.000,1.000
-13822.703,-172213.578,8651.698,-72237.955,5643.566,-6113.588,18890.421,11767.101,-0.113,0.871,-0.448,3.723,-5.859,-1.465,73.333,448.000,1.000
-13835.180,-171966.040,8655.741,-72390.468,5648.198,-6118.233,18789.746,11640.276,-0.112,0.870,-0.444,3.784,-6.042,-1.678,73.333,449.000,1.000
-13844.827,-171708.417,8660.119,-72540.791,5653.199,-6117.614,18691.025,11517.941,-0.110,0.868,-0.447,3.845,-6.165,-1.953,73.333,450.000,1.000
-13855.479,-171448.218,8664.256,-72689.515,5658.001,-6116.375,18591.202,11393.954,-0.111,0.870,-0.450,3.998,-6.348,-2.136,73.333,451.000,1.000
-13869.931,-171193.406,8667.822,-72836.992,5662.282,-6118.110,18488.970,11265.023,-0.110,0.872,-0.451,4.150,-6.470,-2.319,73.333,452.000,1.000
-13885.949,-170942.028,8671.245,-72982.797,5666.457,-6121.039,18386.221,11134.954,-0.112,0.875,-0.452,4.181,-6.409,-2.350,73.333,453.000,1.000
-13899.303,-170684.906,8675.112,-73126.329,5671.063,-6121.318,18285.248,11009.174,-0.114,0.874,-0.452,4.303,-6.622,-2.441,73.333,454.000,1.000
-13909.329,-170417.493,8679.285,-73267.713,5675.904,-6119.126,18185.466,10887.331,-0.115,0.875,-0.451,4.364,-6.744,-2.563,73.333,455.000,1.000
-13919.443,-170144.332,8683.044,-73407.665,5680.253,-6118.652,18084.385,10764.289,-0.115,0.874,-0.453,4.303,-6.775,-2.686,73.333,456.000,1.000
-13932.003,-169871.081,8686.059,-73546.557,5683.817,-6122.155,17981.328,10637.741,-0.115,0.872,-0.454,4.364,-6.744,-2.625,73.333,457.000,1.000
-13944.850,-169596.234,8688.721,-73684.078,5687.022,-6126.689,17878.411,10511.559,-0.115,0.870,-0.451,4.578,-6.866,-2.594,73.333,458.000,1.000
-13954.605,-169314.272,8691.453,-73819.858,5690.296,-6128.013,17777.482,10390.216,-0.118,0.870,-0.450,4.669,-6.836,-2.594,73.333,459.000,1.000
-13961.640,-169025.239,8694.112,-73954.023,5693.498,-6126.175,17677.584,10272.316,-0.122,0.871,-0.449,4.730,-6.897,-2.716,73.333,460.000,1.000
-13969.989,-168736.289,8696.227,-74086.991,5696.159,-6125.320,17576.273,10152.068,-0.124,0.868,-0.452,4.883,-7.141,-2.808,73.333,461.000,1.000
-13982.008,-168452.194,8697.684,-74218.832,5698.160,-6128.275,17472.875,10026.675,-0.127,0.871,-0.451,4.791,-7.324,-2.991,73.333,462.000,1.000
-13994.837,-168167.442,8699.031,-74348.970,5700.047,-6132.728,17369.752,9900.135,-0.125,0.869,-0.453,4.913,-7.446,-3.143,73.333,463.000,1.000
-14003.761,-167871.303,8700.951,-74476.706,5702.510,-6134.000,17269.724,9778.429,-0.126,0.867,-0.456,4.944,-7.446,-3.052,73.333,464.000,1.000
-14007.843,-167560.250,8703.475,-74602.023,5705.585,-6131.110,17172.540,9662.346,-0.125,0.868,-0.458,5.005,-7.568,-3.204,73.333,465.000,1.000
-14010.915,-167242.134,8705.883,-74725.677,5708.556,-6127.948,17075.177,9547.090,-0.123,0.865,-0.457,5.188,-7.721,-3.174,73.333,466.000,1.000
-14016.751,-166927.281,8707.483,-74848.412,5710.738,-6128.071,16975.570,9428.701,-0.123,0.862,-0.457,5.432,-7.751,-3.143,73.333,467.000,1.000
-14024.810,-166617.988,8708.328,-74970.234,5712.183,-6130.325,16874.551,9308.461,-0.125,0.860,-0.454,5.493,-7.874,-3.174,73.333,468.000,1.000
-14032.018,-166308.858,8709.002,-75090.592,5713.462,-6131.000,16773.861,9189.728,-0.126,0.859,-0.454,5.707,-7.874,-3.204,73.333,469.000,1.000
-14037.160,-165995.451,8709.867,-75209.096,5714.923,-6128.966,16673.721,9072.597,-0.126,0.861,-0.453,5.951,-7.935,-3.204,73.333,470.000,1.000
-14042.244,-165678.929,8710.731,-75325.881,5716.360,-6126.815,16573.116,8953.878,-0.126,0.862,-0.458,6.104,-7.965,-3.082,73.333,471.000,1.000
-14049.271,-165361.606,8711.317,-75441.194,5717.485,-6126.997,16471.949,8832.002,-0.126,0.862,-0.460,6.256,-8.087,-3.052,73.333,472.000,1.000
-14057.117,-165041.036,8711.824,-75554.835,5718.503,-6128.394,16371.885,8709.842,-0.127,0.862,-0.459,6.256,-8.057,-3.082,73.333,473.000,1.000
-14063.292,-164712.115,8712.643,-75666.438,5719.817,-6128.123,16274.272,8591.118,-0.126,0.862,-0.460,6.439,-8.118,-3.052,73.333,474.000,1.000
-14067.508,-164374.282,8713.635,-75776.170,5721.309,-6125.826,16177.967,8475.300,-0.126,0.863,-0.458,6.622,-8.087,-2.838,73.333,475.000,1.000
-14072.081,-164033.176,8714.125,-75884.739,5722.294,-6124.179,16080.343,8358.086,-0.125,0.863,-0.459,6.653,-8.026,-2.747,73.333,476.000,1.000
-14078.530,-163694.319,8713.679,-75992.599,5722.294,-6125.055,15980.373,8236.968,-0.126,0.863,-0.457,6.714,-7.935,-2.655,73.333,477.000,1.000
-14084.843,-163356.714,8712.653,-76099.384,5721.633,-6126.524,15880.036,8114.692,-0.126,0.863,-0.460,6.683,-7.965,-2.563,73.333,478.000,1.000
-14087.374,-163014.085,8711.818,-76204.301,5721.114,-6124.742,15782.209,7996.159,-0.126,0.863,-0.461,6.714,-7.874,-2.533,73.333,479.000,1.000
-14084.594,-162661.767,8711.598,-76306.920,5721.240,-6118.248,15687.599,7883.135,-0.126,0.865,-0.461,6.561,-7.843,-2.441,73.333,480.000,1.000
-14078.266,-162300.450,8711.837,-76407.418,5721.907,-6109.121,15594.348,7773.312,-0.125,0.866,-0.461,6.622,-7.751,-2.289,73.333,481.000,1.000
-14070.726,-161932.913,8712.241,-76506.116,5722.811,-6100.078,15500.292,7663.984,-0.124,0.866,-0.459,6.500,-7.782,-2.167,73.333,482.000,1.000
-14062.099,-161558.989,8712.795,-76603.055,5723.882,-6091.464,15404.854,7554.992,-0.125,0.866,-0.462,6.439,-7.751,-2.045,73.333,483.000,1.000
-14051.388,-161175.926,8713.621,-76698.146,5725.173,-6081.743,15308.663,7447.369,-0.127,0.867,-0.462,6.287,-7.477,-2.045,73.333,484.000,1.000
-14039.210,-160783.323,8714.581,-76791.548,5726.500,-6070.369,15212.083,7340.453,-0.125,0.867,-0.464,6.134,-7.446,-1.831,73.333,485.000,1.000
-14028.661,-160385.630,8715.144,-76883.777,5727.327,-6059.119,15114.602,7231.652,-0.123,0.865,-0.465,5.981,-7.355,-1.709,73.333,486.000,1.000
-14022.922,-159988.967,8714.717,-76975.358,5727.124,-6050.318,15015.628,7119.165,-0.122,0.865,-0.463,5.920,-7.202,-1.587,73.333,487.000,1.000
-14022.304,-159595.956,8713.152,-77066.370,5725.843,-6044.213,14915.548,7004.183,-0.122,0.867,-0.467,5.707,-7.019,-1.526,73.333,488.000,1.000
-14024.600,-159204.872,8710.812,-77156.410,5723.927,-6039.089,14815.319,6889.518,-0.124,0.867,-0.468,5.646,-6.897,-1.404,73.333,489.000,1.000
-14027.641,-158813.644,8708.234,-77244.961,5721.923,-6033.782,14715.275,6776.628,-0.124,0.867,-0.465,5.554,-6.744,-1.373,73.333,490.000,1.000
-14030.906,-158422.678,8705.788,-77331.710,5720.140,-6028.805,14615.145,6664.805,-0.123,0.868,-0.464,5.310,-6.592,-1.190,73.333,491.000,1.000
-14034.563,-158033.112,8703.611,-77416.593,5718.607,-6025.013,14515.061,6553.046,-0.122,0.866,-0.469,5.096,-6.439,-1.068,73.333,492.000,1.000
-14038.125,-157643.984,8701.703,-77499.689,5717.234,-6022.122,14415.850,6441.658,-0.121,0.866,-0.467,4.913,-6.165,-0.977,73.333,493.000,1.000
-14041.217,-157253.081,8699.962,-77581.164,5715.897,-6019.221,14317.978,6331.179,-0.121,0.864,-0.467,4.700,-6.012,-1.007,73.333,494.000,1.000
-14044.643,-156860.067,8698.163,-77661.242,5714.411,-6016.295,14220.624,6220.542,-0.120,0.864,-0.467,4.547,-5.768,-0.946,73.333,495.000,1.000
-14050.156,-156467.231,8696.001,-77740.164,5712.529,-6014.360,14122.406,6107.525,-0.119,0.866,-0.468,4.395,-5.646,-0.732,73.333,496.000,1.000
-14058.752,-156077.002,8693.288,-77818.057,5710.113,-6014.058,14023.005,5991.194,-0.118,0.866,-0.469,4.364,-5.280,-0.702,73.333,497.000,1.000
-14069.284,-155689.091,8690.108,-77894.821,5707.261,-6014.488,13923.795,5873.328,-0.117,0.867,-0.467,4.089,-5.096,-0.702,73.333,498.000,1.000
-14079.687,-155300.840,8686.651,-77970.289,5704.155,-6014.109,13826.449,5756.776,-0.116,0.868,-0.471,3.815,-4.913,-0.671,73.333,499.000,1.000
-14089.212,-154910.544,8682.966,-78044.444,5700.824,-6012.873,13730.894,5642.720,-0.118,0.870,-0.468,3.723,-4.608,-0.732,73.333,500.000,1.000
-14099.260,-154519.497,8678.945,-78117.401,5697.173,-6012.593,13635.167,5529.938,-0.116,0.871,-0.468,3.418,-4.333,-0.641,73.333,501.000,1.000
-14111.579,-154130.387,8674.533,-78189.192,5693.174,-6015.011,13537.387,5416.547,-0.113,0.871,-0.471,3.204,-4.028,-0.580,73.333,502.000,1.000
-14125.848,-153744.065,8669.930,-78259.619,5689.012,-6019.927,13437.521,5302.074,-0.114,0.871,-0.471,2.869,-3.754,-0.427,73.333,503.000,1.000
-14139.917,-153358.809,8665.470,-78328.374,5684.979,-6025.353,13337.260,5187.546,-0.115,0.872,-0.470,2.625,-3.510,-0.366,73.333,504.000,1.000
-14151.739,-152972.525,8661.353,-78395.279,5681.253,-6029.150,13238.679,5074.203,-0.115,0.872,-0.468,2.411,-3.235,-0.244,73.333,505.000,1.000
-14160.790,-152584.505,8657.474,-78460.445,5677.740,-6030.368,13142.839,4962.484,-0.112,0.872,-0.469,2.106,-2.960,-0.366,73.333,506.000,1.000
-14167.795,-152195.088,8653.423,-78524.277,5674.053,-6029.670,13048.937,4851.833,-0.112,0.874,-0.469,1.862,-2.594,-0.366,73.333,507.000,1.000
-14173.758,-151804.517,8648.730,-78587.236,5669.733,-6028.745,12954.748,4741.172,-0.112,0.875,-0.468,1.587,-2.289,-0.366,73.333,508.000,1.000
-14179.714,-151412.789,8643.209,-78649.500,5664.577,-6029.231,12858.279,4629.538,-0.113,0.878,-0.466,1.221,-2.106,-0.427,73.333,509.000,1.000
-14186.373,-151020.005,8637.075,-78710.866,5658.781,-6031.964,12759.318,4516.739,-0.116,0.879,-0.466,0.885,-1.770,-0.458,73.333,510.000,1.000
-14193.855,-150626.076,8630.769,-78770.916,5652.783,-6036.729,12659.446,4403.618,-0.117,0.877,-0.468,0.458,-1.495,-0.397,73.333,511.000,1.000
-14201.750,-150230.612,8624.713,-78829.255,5647.017,-6042.653,12560.639,4291.615,-0.119,0.875,-0.467,0.122,-1.312,-0.488,73.333,512.000,1.000
-14209.497,-149833.432,8619.088,-78885.708,5641.690,-6048.821,12463.933,4182.044,-0.120,0.876,-0.465,-0.153,-1.099,-0.580,73.333,513.000,1.000
-14216.831,-149434.798,8613.741,-78940.409,5636.683,-6054.553,12369.152,4075.472,-0.118,0.874,-0.463,-0.305,-0.977,-0.671,73.333,514.000,1.000
-14223.294,-149034.799,8608.388,-78993.632,5631.729,-6059.198,12275.690,3971.707,-0.119,0.873,-0.462,-0.641,-0.854,-0.671,73.333,515.000,1.000
-14228.181,-148632.924,8602.873,-79045.545,5626.652,-6061.947,12183.309,3870.035,-0.119,0.872,-0.464,-0.885,-0.610,-0.793,73.333,516.000,1.000
-14231.247,-148228.898,8597.211,-79096.151,5621.422,-6062.304,12092.033,3769.272,-0.118,0.873,-0.462,-1.099,-0.549,-0.946,73.333,517.000,1.000
-14233.009,-147823.304,8591.473,-79145.375,5616.067,-6060.582,12001.615,3668.016,-0.117,0.874,-0.463,-1.343,-0.458,-1.038,73.333,518.000,1.000
-14234.459,-147416.892,8585.702,-79193.167,5610.609,-6057.846,11911.311,3565.105,-0.119,0.874,-0.456,-1.495,-0.458,-1.129,73.333,519.000,1.000
-14236.112,-147009.483,8579.922,-79239.523,5605.080,-6055.273,11820.266,3460.148,-0.119,0.873,-0.459,-1.587,-0.305,-1.099,73.333,520.000,1.000
-14237.765,-146599.764,8574.117,-79284.501,5599.488,-6053.306,11728.108,3353.654,-0.120,0.873,-0.462,-1.801,-0.183,-1.221,73.333,521.000,1.000
-14239.029,-146186.495,8568.163,-79328.235,5593.752,-6051.759,11634.825,3246.425,-0.119,0.873,-0.459,-1.923,-0.122,-1.129,73.333,522.000,1.000
-14239.793,-145769.731,8561.880,-79370.881,5587.731,-6050.565,11540.392,3139.029,-0.119,0.873,-0.459,-2.014,-0.031,-1.160,73.333,523.000,1.000
-14240.275,-145350.580,8555.173,-79412.491,5581.366,-6049.711,11445.215,3032.025,-0.121,0.871,-0.458,-2.197,0.092,-1.099,73.333,524.000,1.000
-14240.329,-144929.832,8548.173,-79452.912,5574.787,-6048.596,11350.630,2926.416,-0.119,0.870,-0.456,-2.411,0.153,-1.221,73.333,525.000,1.000
-14239.598,-144507.373,8541.188,-79491.858,5568.272,-6046.483,11257.885,2823.037,-0.122,0.871,-0.456,-2.502,0.305,-1.251,73.333,526.000,1.000
-14238.354,-144083.242,8534.477,-79529.124,5562.046,-6043.777,11166.698,2721.382,-0.123,0.871,-0.458,-2.533,0.366,-1.099,73.333,527.000,1.000
-14237.578,-143658.399,8528.048,-79564.750,5556.100,-6041.997,11075.530,2619.711,-0.122,0.869,-0.455,-2.625,0.366,-1.190,73.333,528.000,1.000
-14238.245,-143233.817,8521.651,-79599.007,5550.173,-6042.291,10983.114,2516.541,-0.122,0.866,-0.452,-2.686,0.458,-1.038,73.333,529.000,1.000
-14240.207,-142809.024,8515.031,-79632.143,5543.997,-6044.258,10889.503,2412.059,-0.121,0.869,-0.454,-2.716,0.458,-0.916,73.333,530.000,1.000
-14242.282,-142381.953,8508.159,-79664.169,5537.524,-6046.284,10795.680,2307.853,-0.121,0.870,-0.451,-2.655,0.549,-0.854,73.333,531.000,1.000
-14243.383,-141950.717,8501.177,-79694.934,5530.880,-6047.115,10702.241,2205.230,-0.123,0.870,-0.449,-2.747,0.519,-0.824,73.333,532.000,1.000
-14243.432,-141515.428,8494.169,-79724.352,5524.147,-6046.830,10608.886,2104.121,-0.124,0.869,-0.449,-2.838,0.702,-0.763,73.333,533.000,1.000
-14243.498,-141078.193,8487.057,-79752.509,5517.255,-6046.458,10514.972,2003.434,-0.123,0.866,-0.451,-2.899,0.641,-0.580,73.333,534.000,1.000
-14244.544,-140641.183,8479.743,-79779.509,5510.133,-6046.943,10420.227,1902.341,-0.124,0.865,-0.453,-2.777,0.671,-0.519,73.333,535.000,1.000
-14246.480,-140204.781,8472.249,-79805.313,5502.851,-6048.231,10325.132,1800.993,-0.123,0.862,-0.452,-2.777,0.671,-0.397,73.333,536.000,1.000
-14248.525,-139768.093,8464.658,-79829.810,5495.543,-6049.487,10230.650,1699.878,-0.122,0.863,-0.450,-2.625,0.793,-0.305,73.333,537.000,1.000
-14250.023,-139330.510,8456.984,-79852.988,5488.250,-6050.022,10137.656,1599.112,-0.124,0.865,-0.451,-2.472,0.793,-0.275,73.333,538.000,1.000
-14250.827,-138891.905,8449.174,-79874.945,5480.886,-6049.671,10046.523,1498.654,-0.124,0.862,-0.452,-2.319,0.854,-0.183,73.333,539.000,1.000
-14250.814,-138451.830,8441.226,-79895.737,5473.375,-6048.515,9956.905,1398.866,-0.123,0.862,-0.454,-2.106,0.824,0.000,73.333,540.000,1.000
-14249.995,-138009.538,8433.211,-79915.326,5465.712,-6046.585,9867.914,1300.271,-0.122,0.861,-0.451,-2.075,0.916,0.122,73.333,541.000,1.000
-14248.778,-137564.762,8425.187,-79933.660,5457.925,-6043.954,9778.767,1202.895,-0.123,0.863,-0.451,-1.923,0.885,0.122,73.333,542.000,1.000
-14247.431,-137117.607,8417.197,-79950.677,5450.092,-6040.804,9689.250,1106.305,-0.124,0.863,-0.450,-1.770,0.854,0.305,73.333,543.000,1.000
-14245.815,-136668.050,8409.293,-79966.290,5442.344,-6037.409,9599.426,1010.024,-0.125,0.863,-0.448,-1.709,0.824,0.244,73.333,544.000,1.000
-14243.447,-136216.138,8401.470,-79980.461,5434.752,-6034.015,9509.303,913.837,-0.124,0.864,-0.448,-1.587,0.854,0.366,73.333,545.000,1.000
-14239.999,-135762.437,8393.588,-79993.318,5427.198,-6030.661,9418.931,817.692,-0.124,0.864,-0.448,-1.343,0.763,0.366,73.333,546.000,1.000
-14235.758,-135308.324,8385.427,-80005.110,5419.438,-6027.547,9328.341,721.294,-0.123,0.863,-0.448,-1.221,0.854,0.336,73.333,547.000,1.000
-14231.636,-134855.647,8376.850,-80016.038,5411.297,-6025.456,9237.384,623.994,-0.123,0.863,-0.449,-1.007,0.702,0.427,73.333,548.000,1.000
-14228.797,-134405.606,8367.847,-80026.174,5402.730,-6025.286,9145.934,525.238,-0.124,0.863,-0.450,-0.763,0.793,0.366,73.333,549.000,1.000
-14227.546,-133957.588,8358.508,-80035.441,5393.810,-6027.013,9054.257,425.424,-0.126,0.863,-0.449,-0.671,0.549,0.488,73.333,550.000,1.000
-14226.808,-133509.036,8349.019,-80043.617,5384.714,-6029.219,8963.069,326.097,-0.127,0.865,-0.446,-0.580,0.488,0.519,73.333,551.000,1.000
-14224.659,-133056.976,8339.627,-80050.400,5375.673,-6029.859,8873.190,229.012,-0.126,0.864,-0.449,-0.427,0.519,0.519,73.333,552.000,1.000
-14219.404,-132599.736,8330.511,-80055.579,5366.847,-6027.535,8785.058,135.043,-0.125,0.864,-0.447,-0.153,0.427,0.580,73.333,553.000,1.000
-14210.504,-132137.154,8321.672,-80059.152,5358.244,-6022.072,8698.436,43.913,-0.124,0.864,-0.448,-0.061,0.305,0.397,73.333,554.000,1.000
-14198.179,-131669.569,8313.028,-80061.228,5349.823,-6014.057,8612.650,-45.149,-0.124,0.864,-0.451,0.183,0.458,0.397,73.333,555.000,1.000
-14183.079,-131197.241,8304.507,-80061.906,5341.568,-6004.143,8527.052,-132.961,-0.124,0.865,-0.450,0.183,0.366,0.519,73.333,556.000,1.000
-14166.523,-130720.791,8296.003,-80061.307,5333.414,-5993.118,8441.131,-220.634,-0.123,0.865,-0.453,0.275,0.153,0.458,73.333,557.000,1.000
-14150.244,-130241.214,8287.362,-80059.595,5325.217,-5982.152,8354.488,-309.457,-0.124,0.866,-0.453,0.366,0.122,0.458,73.333,558.000,1.000
-14135.570,-129759.161,8278.489,-80056.877,5316.865,-5972.294,8267.093,-399.988,-0.124,0.868,-0.451,0.519,-0.031,0.458,73.333,559.000,1.000
-14122.407,-129274.528,8269.481,-80053.074,5308.407,-5963.760,8179.468,-491.273,-0.123,0.868,-0.449,0.641,-0.031,0.397,73.333,560.000,1.000
-14109.775,-128786.994,8260.490,-80048.039,5299.947,-5956.160,8092.174,-581.623,-0.123,0.870,-0.451,0.763,-0.061,0.397,73.333,561.000,1.000
-14097.221,-128297.168,8251.436,-80041.854,5291.382,-5949.387,8005.139,-670.234,-0.122,0.870,-0.451,0.793,-0.092,0.458,73.333,562.000,1.000
-14084.939,-127806.519,8242.044,-80034.797,5282.438,-5943.578,7917.981,-757.470,-0.122,0.871,-0.454,0.763,-0.153,0.458,73.333,563.000,1.000
-14073.003,-127315.929,8232.181,-80027.007,5272.985,-5938.336,7830.745,-843.917,-0.123,0.871,-0.455,0.732,-0.122,0.458,73.333,564.000,1.000
-14060.804,-126824.891,8221.998,-80018.335,5263.183,-5932.646,7743.992,-929.771,-0.121,0.869,-0.456,0.824,-0.244,0.458,73.333,565.000,1.000
-14047.666,-126332.234,8211.773,-80008.500,5253.338,-5925.634,7658.242,-1015.154,-0.120,0.868,-0.454,0.793,-0.305,0.427,73.333,566.000,1.000
-14033.598,-125837.517,8201.726,-79997.290,5243.684,-5917.351,7573.366,-1100.593,-0.121,0.868,-0.452,0.916,-0.427,0.427,73.333,567.000,1.000
-14019.224,-125341.530,8191.966,-79984.608,5234.299,-5908.662,7488.659,-1186.793,-0.119,0.866,-0.452,0.946,-0.458,0.519,73.333,568.000,1.000
-14005.373,-124845.426,8182.533,-79970.418,5225.191,-5900.361,7403.540,-1274.049,-0.118,0.868,-0.453,0.977,-0.275,0.458,73.333,569.000,1.000
-13992.320,-124349.371,8173.463,-79954.687,5216.405,-5892.564,7318.044,-1361.923,-0.118,0.866,-0.456,1.099,-0.366,0.519,73.333,570.000,1.000
-13979.756,-123852.153,8164.761,-79937.424,5207.985,-5884.788,7232.638,-1449.643,-0.119,0.867,-0.459,1.068,-0.458,0.580,73.333,571.000,1.000
-13967.138,-123352.187,8156.317,-79918.745,5199.851,-5876.389,7147.830,-1536.785,-0.119,0.869,-0.462,1.099,-0.397,0.732,73.333,572.000,1.000
-13953.848,-122848.708,8147.884,-79898.884,5191.759,-5867.012,7063.826,-1623.465,-0.120,0.867,-0.457,1.129,-0.366,0.671,73.333,573.000,1.000
-13939.852,-122342.501,8139.114,-79878.151,5183.353,-5857.060,6980.157,-1710.191,-0.119,0.868,-0.456,1.190,-0.519,0.641,73.333,574.000,1.000
-13925.731,-121835.693,8129.718,-79856.809,5174.347,-5847.638,6895.916,-1797.324,-0.121,0.865,-0.454,1.312,-0.580,0.702,73.333,575.000,1.000
-13912.056,-121330.170,8119.609,-79834.964,5164.647,-5839.683,6810.629,-1884.510,-0.120,0.866,-0.455,1.190,-0.519,0.732,73.333,576.000,1.000
-13898.836,-120826.090,8108.875,-79812.591,5154.328,-5833.331,6724.626,-1970.804,-0.120,0.867,-0.456,1.160,-0.671,0.671,73.333,577.000,1.000
-13885.620,-120321.970,8097.699,-79789.543,5143.562,-5827.875,6638.771,-2055.262,-0.121,0.870,-0.457,1.251,-0.671,0.519,73.333,578.000,1.000
-13872.224,-119816.098,8086.326,-79765.580,5132.593,-5822.071,6554.002,-2137.670,-0.122,0.872,-0.460,1.312,-0.671,0.519,73.333,579.000,1.000
-13858.686,-119307.479,8075.004,-79740.447,5121.670,-5814.827,6470.808,-2218.756,-0.120,0.873,-0.459,1.373,-0.854,0.610,73.333,580.000,1.000
-13845.106,-118795.788,8063.915,-79713.965,5110.967,-5805.888,6388.936,-2299.656,-0.117,0.871,-0.459,1.373,-0.885,0.549,73.333,581.000,1.000
-13831.658,-118281.579,8053.151,-79686.031,5100.592,-5796.061,6307.492,-2381.198,-0.117,0.868,-0.456,1.343,-0.946,0.549,73.333,582.000,1.000
-13818.242,-117766.368,8042.703,-79656.621,5090.585,-5786.620,6225.460,-2463.567,-0.117,0.865,-0.456,1.312,-0.946,0.641,73.333,583.000,1.000
-13804.373,-117251.918,8032.446,-79625.847,5080.852,-5778.329,6142.487,-2546.433,-0.116,0.858,-0.456,1.282,-1.007,0.519,73.333,584.000,1.000
-13789.417,-116739.498,8022.199,-79593.931,5071.177,-5771.111,6059.125,-2629.178,-0.117,0.856,-0.453,1.343,-0.946,0.427,73.333,585.000,1.000
-13773.295,-116229.528,8011.780,-79561.131,5061.299,-5764.436,5976.099,-2711.310,-0.116,0.857,-0.458,1.648,-1.038,0.397,73.333,586.000,1.000
-13756.520,-115721.252,8001.016,-79527.652,5051.009,-5757.728,5893.675,-2792.725,-0.116,0.858,-0.459,1.831,-1.068,0.366,73.333,587.000,1.000
-13739.489,-115212.538,7989.880,-79493.498,5040.297,-5750.346,5811.853,-2873.486,-0.116,0.861,-0.457,1.953,-1.190,0.427,73.333,588.000,1.000
-13722.486,-114700.722,7978.574,-79458.410,5029.415,-5741.691,5730.600,-2953.771,-0.118,0.862,-0.458,2.197,-1.160,0.397,73.333,589.000,1.000
-13705.925,-114184.198,7967.369,-79422.055,5018.666,-5731.798,5649.705,-3033.958,-0.118,0.864,-0.458,2.380,-1.282,0.336,73.333,590.000,1.000
-13690.345,-113663.244,7956.385,-79384.291,5008.164,-5721.394,5568.869,-3114.378,-0.116,0.864,-0.456,2.411,-1.312,0.275,73.333,591.000,1.000
-13675.834,-113139.615,7945.588,-79345.186,4997.853,-5711.163,5488.128,-3194.871,-0.117,0.863,-0.458,2.563,-1.434,0.214,73.333,592.000,1.000
-13661.631,-112615.518,7934.897,-79304.892,4987.627,-5701.259,5407.822,-3274.838,-0.116,0.863,-0.459,2.625,-1.404,0.092,73.333,593.000,1.000
-13646.968,-112092.984,7924.171,-79263.608,4977.332,-5691.787,5327.891,-3354.084,-0.115,0.863,-0.461,2.838,-1.404,0.061,73.333,594.000,1.000
-13631.682,-111573.340,7913.228,-79221.556,4966.796,-5683.253,5247.624,-3433.277,-0.119,0.864,-0.463,2.991,-1.526,0.000,73.333,595.000,1.000
-13616.034,-111056.262,7901.906,-79178.907,4955.883,-5675.989,5166.406,-3513.339,-0.118,0.864,-0.464,3.174,-1.617,-0.061,73.333,596.000,1.000
-13600.140,-110539.609,7890.110,-79135.734,4944.535,-5669.627,5084.346,-3594.572,-0.122,0.868,-0.464,3.296,-1.770,-0.244,73.333,597.000,1.000
-13583.706,-110020.622,7877.906,-79091.939,4932.840,-5663.416,5002.005,-3676.461,-0.123,0.871,-0.461,3.387,-1.953,-0.458,73.333,598.000,1.000
-13566.531,-109497.539,7865.582,-79047.213,4921.070,-5656.728,4919.951,-3758.136,-0.123,0.870,-0.459,3.357,-2.136,-0.580,73.333,599.000,1.000
-13548.641,-108970.407,7853.537,-79001.147,4909.574,-5649.317,4838.761,-3838.690,-0.120,0.871,-0.458,3.418,-2.319,-0.641,73.333,600.000,1.000
-13530.434,-108440.781,7841.963,-78953.526,4898.501,-5641.595,4758.831,-3917.532,-0.122,0.872,-0.459,3.357,-2.441,-0.763,73.333,601.000,1.000
-13512.539,-107910.758,7830.661,-78904.541,4887.631,-5634.652,4679.980,-3994.825,-0.120,0.875,-0.462,3.265,-2.625,-0.824,73.333,602.000,1.000
-13495.126,-107381.739,7819.197,-78854.645,4876.543,-5629.337,4601.726,-4071.267,-0.121,0.872,-0.460,3.143,-2.808,-0.977,73.333,603.000,1.000
-13477.857,-106853.903,7807.216,-78804.220,4864.917,-5625.502,4523.815,-4147.499,-0.121,0.870,-0.458,3.082,-2.777,-1.068,73.333,604.000,1.000
-13460.112,-106326.675,7794.683,-78753.309,4852.759,-5622.424,4446.252,-4223.872,-0.119,0.869,-0.462,3.021,-3.052,-1.038,73.333,605.000,1.000
-13441.488,-105799.359,7781.868,-78701.641,4840.348,-5619.624,4368.913,-4300.735,-0.118,0.868,-0.463,2.991,-3.143,-1.068,73.333,606.000,1.000
-13422.190,-105271.674,7769.074,-78648.914,4827.974,-5617.222,4291.378,-4378.485,-0.118,0.869,-0.462,3.052,-3.204,-1.068,73.333,607.000,1.000
-13402.784,-104743.916,7756.427,-78595.021,4815.763,-5615.491,4213.373,-4457.056,-0.117,0.866,-0.462,2.991,-3.326,-1.221,73.333,608.000,1.000
-13383.941,-104216.714,7743.886,-78540.035,4803.692,-5614.423,4135.046,-4535.871,-0.118,0.866,-0.463,2.960,-3.387,-1.251,73.333,609.000,1.000
-13365.992,-103690.661,7731.329,-78484.102,4791.665,-5613.866,4056.642,-4614.393,-0.121,0.867,-0.457,3.021,-3.387,-1.373,73.333,610.000,1.000
-13348.885,-103165.818,7718.654,-78427.331,4779.576,-5613.577,3978.308,-4692.448,-0.122,0.867,-0.461,3.052,-3.540,-1.434,73.333,611.000,1.000
-13332.177,-102641.275,7705.926,-78369.648,4767.447,-5613.032,3900.440,-4769.884,-0.123,0.867,-0.462,3.082,-3.571,-1.434,73.333,612.000,1.000
-13314.974,-102115.076,7693.349,-78310.838,4755.428,-5611.537,3823.777,-4846.282,-0.123,0.868,-0.459,2.960,-3.693,-1.495,73.333,613.000,1.000
-13296.724,-101585.386,7680.964,-78250.853,4743.528,-5608.903,3748.522,-4921.640,-0.125,0.866,-0.461,2.991,-3.906,-1.465,73.333,614.000,1.000
-13277.633,-101052.098,7668.556,-78189.908,4731.555,-5605.741,3673.585,-4996.891,-0.125,0.866,-0.460,2.869,-3.998,-1.526,73.333,615.000,1.000
-13258.280,-100516.746,7655.958,-78128.172,4719.394,-5602.537,3597.416,-5073.137,-0.124,0.865,-0.459,2.838,-4.181,-1.526,73.333,616.000,1.000
-13238.906,-99981.122,7643.276,-78065.531,4707.214,-5598.660,3519.619,-5150.410,-0.124,0.865,-0.458,2.960,-4.303,-1.678,73.333,617.000,1.000
-13219.228,-99446.401,7630.757,-78001.715,4695.296,-5592.644,3441.413,-5227.361,-0.125,0.863,-0.457,2.991,-4.456,-1.801,73.333,618.000,1.000
-13199.251,-98913.373,7618.436,-77936.679,4683.668,-5583.517,3364.534,-5302.398,-0.125,0.865,-0.459,3.052,-4.608,-1.892,73.333,619.000,1.000
-13179.390,-98382.592,7606.014,-77870.760,4671.981,-5571.749,3289.891,-5374.859,-0.125,0.866,-0.460,3.052,-4.547,-2.045,73.333,620.000,1.000
-13159.902,-97853.733,7593.135,-77804.374,4659.823,-5558.763,3217.138,-5445.115,-0.126,0.866,-0.457,3.052,-4.700,-1.953,73.333,621.000,1.000
-13140.602,-97325.402,7579.745,-77737.618,4647.089,-5545.935,3144.990,-5514.107,-0.127,0.864,-0.458,2.930,-4.883,-2.075,73.333,622.000,1.000
-13121.162,-96795.947,7566.118,-77670.227,4634.021,-5534.188,3071.746,-5582.943,-0.128,0.865,-0.453,2.838,-4.974,-1.953,73.333,623.000,1.000
-13101.685,-96264.481,7552.568,-77601.863,4620.959,-5524.037,2996.033,-5652.547,-0.128,0.863,-0.455,2.808,-5.096,-1.892,73.333,624.000,1.000
-13082.285,-95731.137,7539.219,-77532.364,4608.104,-5515.438,2917.758,-5723.054,-0.125,0.862,-0.458,2.777,-5.127,-1.923,73.333,625.000,1.000
-13062.790,-95196.637,7525.967,-77461.809,4595.436,-5507.595,2838.363,-5793.601,-0.125,0.861,-0.458,2.747,-5.249,-1.862,73.333,626.000,1.000
-13043.156,-94662.191,7512.636,-77390.384,4582.825,-5499.487,2759.759,-5862.929,-0.124,0.859,-0.458,2.838,-5.310,-1.801,73.333,627.000,1.000
-13023.474,-94128.999,7499.199,-77318.142,4570.218,-5490.519,2683.142,-5930.050,-0.126,0.859,-0.460,2.899,-5.280,-1.740,73.333,628.000,1.000
-13003.674,-93597.183,7485.799,-77244.961,4557.674,-5480.491,2608.838,-5994.570,-0.124,0.859,-0.459,2.899,-5.280,-1.709,73.333,629.000,1.000
-12983.245,-93065.681,7472.574,-77170.703,4545.236,-5469.350,2536.637,-6056.721,-0.125,0.860,-0.460,3.082,-5.402,-1.892,73.333,630.000,1.000
-12961.737,-92533.323,7459.500,-77095.383,4532.823,-5457.204,2465.792,-6117.377,-0.126,0.859,-0.460,3.174,-5.463,-1.862,73.333,631.000,1.000
-12939.149,-91999.668,7446.436,-77019.133,4520.298,-5444.439,2395.075,-6177.838,-0.127,0.857,-0.457,3.296,-5.463,-1.862,73.333,632.000,1.000
-12915.603,-91464.661,7433.306,-76942.030,4507.628,-5431.466,2323.463,-6239.272,-0.125,0.855,-0.457,3.235,-5.463,-1.953,73.333,633.000,1.000
-12891.436,-90928.294,7420.098,-76864.092,4494.859,-5418.530,2250.699,-6302.459,-0.125,0.854,-0.459,3.357,-5.615,-1.923,73.333,634.000,1.000
-12867.154,-90390.941,7406.755,-76785.370,4481.991,-5405.866,2177.216,-6367.687,-0.127,0.854,-0.461,3.479,-5.676,-1.953,73.333,635.000,1.000
-12843.096,-89853.300,7393.204,-76705.943,4468.994,-5393.611,2103.795,-6434.579,-0.128,0.855,-0.459,3.632,-5.768,-1.953,73.333,636.000,1.000
-12819.045,-89315.944,7379.464,-76625.804,4455.913,-5381.656,2031.203,-6502.185,-0.125,0.855,-0.458,3.754,-5.890,-1.892,73.333,637.000,1.000
-12794.410,-88779.208,7365.665,-76544.861,4442.862,-5369.749,1959.834,-6569.471,-0.126,0.853,-0.457,3.876,-5.951,-1.953,73.333,638.000,1.000
-12769.171,-88243.554,7351.883,-76463.086,4429.857,-5357.867,1889.235,-6636.052,-0.125,0.853,-0.459,4.059,-5.890,-1.923,73.333,639.000,1.000
-12743.828,-87709.617,7338.026,-76380.603,4416.741,-5346.387,1818.182,-6702.374,-0.126,0.852,-0.461,4.211,-5.981,-1.953,73.333,640.000,1.000
-12718.837,-87177.579,7323.925,-76297.572,4403.310,-5335.615,1745.749,-6769.098,-0.129,0.850,-0.460,4.486,-6.042,-2.045,73.333,641.000,1.000
-12694.349,-86646.782,7309.494,-76214.018,4389.494,-5325.397,1672.076,-6836.524,-0.129,0.850,-0.459,4.608,-6.073,-2.136,73.333,642.000,1.000
-12670.110,-86115.716,7294.844,-76129.770,4375.449,-5315.288,1598.029,-6904.437,-0.131,0.852,-0.461,4.761,-6.134,-2.197,73.333,643.000,1.000
-12645.888,-85582.640,7280.238,-76044.546,4361.472,-5305.010,1524.425,-6972.372,-0.131,0.851,-0.464,4.944,-6.256,-2.258,73.333,644.000,1.000
-12621.826,-85046.748,7265.929,-75958.126,4347.822,-5294.812,1451.651,-7039.924,-0.133,0.849,-0.462,5.096,-6.287,-2.228,73.333,645.000,1.000
-12598.586,-84508.540,7251.926,-75870.554,4334.505,-5285.282,1379.774,-7106.841,-0.134,0.848,-0.459,5.157,-6.409,-2.380,73.333,646.000,1.000
-12576.930,-83969.319,7237.932,-75782.161,4321.236,-5276.884,1308.764,-7172.833,-0.132,0.848,-0.459,5.371,-6.592,-2.380,73.333,647.000,1.000
-12556.927,-83430.554,7223.618,-75693.284,4307.682,-5269.536,1238.631,-7237.331,-0.133,0.848,-0.462,5.432,-6.592,-2.411,73.333,648.000,1.000
-12537.764,-82893.235,7208.942,-75603.956,4293.779,-5262.423,1169.463,-7299.759,-0.132,0.848,-0.462,5.524,-6.653,-2.380,73.333,649.000,1.000
-12517.918,-82357.486,7194.215,-75513.851,4279.818,-5254.321,1101.393,-7359.985,-0.132,0.850,-0.464,5.676,-6.653,-2.380,73.333,650.000,1.000
-12496.185,-81822.861,7179.813,-75422.578,4266.167,-5244.305,1034.470,-7418.507,-0.133,0.854,-0.468,5.859,-6.775,-2.258,73.333,651.000,1.000
-12472.641,-81289.047,7165.884,-75329.997,4252.971,-5232.489,968.379,-7476.288,-0.133,0.855,-0.468,5.920,-6.836,-2.258,73.333,652.000,1.000
-12448.370,-80755.860,7152.269,-75236.289,4240.072,-5220.238,902.207,-7534.305,-0.133,0.858,-0.470,5.829,-6.958,-2.197,73.333,653.000,1.000
-12424.659,-80222.726,7138.576,-75141.856,4227.084,-5209.565,834.685,-7593.192,-0.131,0.858,-0.469,5.798,-6.897,-2.258,73.333,654.000,1.000
-12401.936,-79688.612,7124.416,-75047.060,4213.652,-5201.820,765.077,-7652.884,-0.133,0.857,-0.472,5.859,-6.958,-2.106,73.333,655.000,1.000
-12379.617,-79152.623,7109.691,-74951.973,4199.727,-5196.608,693.884,-7712.551,-0.132,0.854,-0.475,5.768,-6.927,-2.014,73.333,656.000,1.000
-12356.811,-78614.901,7094.594,-74856.426,4185.506,-5192.095,622.526,-7771.186,-0.133,0.856,-0.474,5.920,-6.927,-1.923,73.333,657.000,1.000
-12333.018,-78076.876,7079.352,-74760.251,4171.166,-5186.256,552.323,-7828.322,-0.136,0.854,-0.475,5.951,-7.019,-1.923,73.333,658.000,1.000
-12308.591,-77540.338,7064.048,-74663.412,4156.729,-5177.813,483.694,-7884.396,-0.139,0.855,-0.471,5.920,-7.080,-1.953,73.333,659.000,1.000
-12284.134,-77005.712,7048.709,-74565.894,4142.196,-5166.382,416.490,-7940.230,-0.140,0.856,-0.475,5.859,-7.202,-2.045,73.333,660.000,1.000
-12259.991,-76471.103,7033.481,-74467.532,4127.719,-5152.303,350.618,-7996.276,-0.140,0.854,-0.474,5.798,-7.233,-1.953,73.333,661.000,1.000
-12236.320,-75933.471,7018.573,-74368.080,4113.541,-5136.887,285.527,-8052.632,-0.141,0.852,-0.476,5.768,-7.416,-1.984,73.333,662.000,1.000
-12213.133,-75390.820,7004.023,-74267.463,4099.758,-5122.182,219.744,-8109.473,-0.141,0.851,-0.476,5.768,-7.416,-2.075,73.333,663.000,1.000
-12190.560,-74843.893,6989.615,-74165.881,4086.189,-5109.763,151.865,-8167.218,-0.139,0.848,-0.476,5.768,-7.477,-2.136,73.333,664.000,1.000
-12168.703,-74296.353,6975.072,-74063.610,4072.536,-5099.856,81.658,-8226.201,-0.138,0.847,-0.474,5.890,-7.507,-2.197,73.333,665.000,1.000
-12147.412,-73752.750,6960.280,-73960.780,4058.624,-5091.483,10.000,-8286.342,-0.138,0.845,-0.477,6.042,-7.599,-2.228,73.333,666.000,1.000
-12126.270,-73215.841,6945.338,-73857.328,4044.516,-5083.156,-61.683,-8347.230,-0.138,0.844,-0.478,6.073,-7.660,-2.075,73.333,667.000,1.000
-12104.721,-72685.368,6930.445,-73753.121,4030.418,-5073.627,-131.871,-8408.351,-0.138,0.845,-0.480,6.195,-7.721,-2.075,73.333,668.000,1.000
-12082.497,-72158.797,6915.683,-73648.125,4016.445,-5062.525,-199.639,-8469.292,-0.137,0.846,-0.479,6.287,-7.782,-2.106,73.333,669.000,1.000
-12059.501,-71633.071,6900.946,-73542.445,4002.520,-5050.555,-265.282,-8529.744,-0.136,0.846,-0.479,6.409,-7.660,-2.106,73.333,670.000,1.000
-12035.876,-71106.272,6886.049,-73436.219,3988.481,-5038.955,-330.052,-8589.523,-0.136,0.847,-0.476,6.439,-7.629,-2.136,73.333,671.000,1.000
-12012.113,-70578.294,6870.877,-73329.505,3974.214,-5028.693,-395.152,-8648.667,-0.138,0.848,-0.479,6.470,-7.721,-1.953,73.333,672.000,1.000
-11988.575,-70049.747,6855.434,-73222.258,3959.711,-5019.890,-460.894,-8707.261,-0.139,0.850,-0.478,6.561,-7.568,-2.014,73.333,673.000,1.000
-11965.328,-69520.416,6839.797,-73114.389,3945.033,-5011.893,-526.721,-8765.303,-0.139,0.849,-0.479,6.561,-7.507,-2.014,73.333,674.000,1.000
-11942.145,-68988.995,6824.133,-73005.761,3930.324,-5003.970,-591.988,-8822.724,-0.140,0.850,-0.480,6.592,-7.416,-1.953,73.333,675.000,1.000
-11918.844,-68453.789,6808.688,-72896.180,3915.806,-4995.806,-656.708,-8879.420,-0.140,0.850,-0.479,6.470,-7.324,-1.953,73.333,676.000,1.000
-11895.538,-67913.673,6793.605,-72785.552,3901.605,-4987.469,-721.528,-8935.280,-0.139,0.852,-0.481,6.409,-7.233,-1.923,73.333,677.000,1.000
-11872.436,-67368.833,6778.779,-72674.001,3887.621,-4979.060,-787.032,-8990.046,-0.138,0.853,-0.480,6.348,-7.202,-1.801,73.333,678.000,1.000
-11849.809,-66821.020,6763.976,-72561.756,3873.650,-4970.433,-853.163,-9043.349,-0.138,0.851,-0.480,6.256,-7.233,-1.862,73.333,679.000,1.000
-11827.683,-66273.189,6749.063,-72448.950,3859.599,-4961.299,-919.267,-9095.034,-0.139,0.850,-0.482,6.256,-7.080,-1.892,73.333,680.000,1.000
-11805.920,-65728.506,6734.038,-72335.588,3845.482,-4951.556,-984.688,-9145.683,-0.140,0.850,-0.484,6.226,-7.050,-1.892,73.333,681.000,1.000
-11784.269,-65189.073,6718.922,-72221.624,3831.317,-4941.282,-1049.142,-9196.510,-0.141,0.850,-0.483,6.165,-6.836,-1.801,73.333,682.000,1.000
-11762.060,-64654.954,6703.751,-72106.991,3817.119,-4930.194,-1112.287,-9248.310,-0.140,0.850,-0.481,6.073,-6.897,-1.801,73.333,683.000,1.000
-11738.692,-64124.628,6688.566,-71991.638,3802.913,-4917.598,-1173.586,-9300.893,-0.142,0.850,-0.485,6.012,-6.866,-2.014,73.333,684.000,1.000
-11714.020,-63596.378,6673.425,-71875.514,3788.750,-4903.139,-1232.989,-9353.531,-0.142,0.845,-0.485,5.951,-6.744,-2.014,73.333,685.000,1.000
-11688.344,-63068.986,6658.377,-71758.578,3774.667,-4887.162,-1291.349,-9405.713,-0.143,0.844,-0.484,5.829,-6.653,-2.075,73.333,686.000,1.000
-11662.183,-62541.609,6643.297,-71640.975,3760.532,-4870.622,-1350.082,-9457.621,-0.142,0.844,-0.485,5.829,-6.561,-2.045,73.333,687.000,1.000
-11635.995,-62013.507,6627.900,-71523.029,3746.081,-4854.819,-1410.528,-9509.967,-0.142,0.841,-0.486,5.829,-6.439,-2.167,73.333,688.000,1.000
-11610.237,-61484.139,6612.022,-71404.932,3731.183,-4840.847,-1473.337,-9563.366,-0.142,0.841,-0.482,5.951,-6.287,-2.075,73.333,689.000,1.000
-11584.908,-60953.189,6595.809,-71286.551,3716.000,-4828.942,-1538.052,-9617.595,-0.141,0.842,-0.485,6.012,-6.226,-2.075,73.333,690.000,1.000
-11559.453,-60420.428,6579.577,-71167.575,3700.840,-4818.372,-1603.378,-9671.485,-0.142,0.842,-0.486,6.012,-6.104,-2.106,73.333,691.000,1.000
-11533.349,-59886.111,6563.590,-71047.712,3685.947,-4808.273,-1668.229,-9723.779,-0.144,0.842,-0.490,6.042,-5.890,-2.197,73.333,692.000,1.000
-11506.315,-59350.958,6548.012,-70926.763,3671.455,-4798.350,-1732.347,-9773.942,-0.143,0.844,-0.488,5.859,-5.615,-2.228,73.333,693.000,1.000
-11478.249,-58815.405,6532.877,-70804.670,3657.360,-4788.690,-1795.907,-9822.323,-0.143,0.844,-0.489,5.798,-5.524,-2.319,73.333,694.000,1.000
-11449.073,-58279.481,6518.030,-70681.578,3643.487,-4779.398,-1858.995,-9869.796,-0.144,0.846,-0.489,5.737,-5.402,-2.319,73.333,695.000,1.000
-11419.093,-57743.465,6503.161,-70557.827,3629.531,-4770.362,-1921.456,-9917.178,-0.145,0.845,-0.489,5.615,-5.249,-2.289,73.333,696.000,1.000
-11388.986,-57208.139,6487.998,-70433.758,3615.244,-4761.027,-1982.816,-9964.684,-0.145,0.845,-0.488,5.524,-5.035,-2.258,73.333,697.000,1.000
-11359.142,-56674.165,6472.523,-70309.429,3600.667,-4750.265,-2042.296,-10011.649,-0.145,0.842,-0.493,5.493,-4.913,-2.380,73.333,698.000,1.000
-11329.821,-56141.808,6456.985,-70184.574,3586.115,-4736.835,-2099.241,-10057.044,-0.144,0.843,-0.495,5.493,-4.700,-2.258,73.333,699.000,1.000
-11301.411,-55611.172,6441.630,-70058.894,3571.861,-4720.313,-2153.760,-10100.323,-0.145,0.844,-0.494,5.341,-4.547,-2.380,73.333,700.000,1.000
-11274.388,-55081.896,6426.434,-69932.367,3557.847,-4701.450,-2206.858,-10141.762,-0.146,0.846,-0.492,5.249,-4.364,-2.289,73.333,701.000,1.000
-11248.925,-54552.968,6411.164,-69805.203,3543.787,-4681.682,-2259.843,-10182.053,-0.147,0.846,-0.497,5.219,-4.242,-2.258,73.333,702.000,1.000
-11224.362,-54023.182,6395.691,-69677.561,3529.498,-4662.154,-2313.478,-10221.589,-0.147,0.848,-0.496,5.035,-4.059,-2.228,73.333,703.000,1.000
-11199.395,-53491.510,6380.094,-69549.434,3515.033,-4643.153,-2367.815,-10260.366,-0.146,0.848,-0.498,4.852,-3.967,-2.167,73.333,704.000,1.000
-11172.503,-52957.024,6364.519,-69420.744,3500.553,-4624.503,-2422.779,-10298.450,-0.148,0.850,-0.500,4.547,-3.784,-2.136,73.333,705.000,1.000
-11142.813,-52419.070,6349.035,-69291.455,3486.153,-4606.241,-2478.676,-10336.525,-0.149,0.849,-0.497,4.364,-3.540,-2.045,73.333,706.000,1.000
-11110.756,-51878.149,6333.624,-69161.568,3471.836,-4588.759,-2536.007,-10375.908,-0.148,0.849,-0.498,4.181,-3.448,-1.953,73.333,707.000,1.000
-11077.532,-51336.162,6318.270,-69031.049,3457.579,-4572.272,-2594.727,-10417.628,-0.149,0.848,-0.498,3.876,-3.418,-2.045,73.333,708.000,1.000
-11044.322,-50795.376,6302.962,-68899.875,3443.356,-4556.519,-2654.070,-10461.673,-0.149,0.849,-0.496,3.632,-3.143,-1.892,73.333,709.000,1.000
-11011.542,-50257.167,6287.626,-68768.123,3429.095,-4541.263,-2713.306,-10507.147,-0.148,0.847,-0.494,3.448,-2.869,-1.862,73.333,710.000,1.000
-10978.949,-49721.590,6272.141,-68635.931,3414.704,-4526.548,-2772.235,-10552.847,-0.147,0.847,-0.496,3.174,-2.686,-1.770,73.333,711.000,1.000
-10946.287,-49188.100,6256.435,-68503.365,3400.149,-4512.419,-2830.910,-10597.784,-0.149,0.850,-0.499,2.991,-2.502,-1.709,73.333,712.000,1.000
-10913.525,-48656.046,6240.575,-68370.335,3385.512,-4498.752,-2889.452,-10641.444,-0.149,0.848,-0.501,2.869,-2.350,-1.648,73.333,713.000,1.000
-10881.016,-48124.524,6224.715,-68236.657,3370.919,-4485.514,-2948.177,-10683.929,-0.149,0.849,-0.499,2.777,-2.197,-1.495,73.333,714.000,1.000
-10849.340,-47592.744,6208.950,-68102.236,3356.420,-4472.922,-3007.306,-10725.816,-0.150,0.851,-0.498,2.441,-1.892,-1.343,73.333,715.000,1.000
-10819.240,-47060.886,6193.185,-67967.215,3341.903,-4461.039,-3066.474,-10767.893,-0.150,0.850,-0.499,2.197,-1.709,-1.282,73.333,716.000,1.000
-10791.257,-46530.334,6177.206,-67831.876,3327.166,-4449.496,-3124.910,-10810.890,-0.151,0.846,-0.496,1.984,-1.587,-1.282,73.333,717.000,1.000
-10764.944,-46002.636,6160.921,-67696.352,3312.125,-4437.622,-3181.945,-10854.992,-0.150,0.848,-0.497,1.801,-1.465,-1.160,73.333,718.000,1.000
-10739.189,-45478.445,6144.437,-67560.521,3296.873,-4424.793,-3237.307,-10899.607,-0.152,0.851,-0.497,1.495,-1.221,-1.160,73.333,719.000,1.000
-10713.166,-44957.480,6127.922,-67424.170,3281.565,-4410.878,-3291.259,-10943.724,-0.151,0.851,-0.494,1.251,-1.129,-1.068,73.333,720.000,1.000
-10686.999,-44438.852,6111.500,-67287.140,3266.350,-4396.292,-3344.486,-10986.495,-0.152,0.850,-0.494,1.068,-0.977,-1.007,73.333,721.000,1.000
-10661.373,-43921.348,6095.257,-67149.335,3251.358,-4381.607,-3397.607,-11027.523,-0.153,0.851,-0.497,1.007,-0.916,-0.885,73.333,722.000,1.000
-10636.514,-43403.764,6079.216,-67010.740,3236.630,-4367.044,-3450.762,-11066.844,-0.153,0.853,-0.499,0.519,-0.763,-0.854,73.333,723.000,1.000
-10612.236,-42885.696,6063.264,-66871.498,3222.027,-4352.468,-3503.877,-11105.103,-0.152,0.848,-0.497,0.122,-0.732,-0.854,73.333,724.000,1.000
-10588.373,-42368.358,6047.221,-66731.828,3207.335,-4337.844,-3557.132,-11143.457,-0.153,0.848,-0.497,0.061,-0.549,-0.824,73.333,725.000,1.000
-10564.906,-41853.984,6030.970,-66591.880,3192.417,-4323.280,-3610.717,-11182.915,-0.154,0.848,-0.495,-0.031,-0.397,-0.732,73.333,726.000,1.000
-10541.766,-41344.339,6014.481,-66451.693,3177.226,-4308.837,-3664.365,-11223.927,-0.153,0.848,-0.495,-0.397,-0.244,-0.641,73.333,727.000,1.000
-10518.782,-40839.731,5997.767,-66311.269,3161.752,-4294.600,-3717.532,-11266.406,-0.153,0.846,-0.496,-0.427,-0.244,-0.641,73.333,728.000,1.000
-10496.089,-40339.213,5980.848,-66170.602,3146.002,-4280.892,-3769.931,-11309.870,-0.155,0.846,-0.494,-0.580,-0.031,-0.702,73.333,729.000,1.000
-10473.828,-39841.590,5963.753,-66029.641,3130.028,-4268.327,-3821.719,-11353.587,-0.155,0.846,-0.494,-0.732,0.000,-0.610,73.333,730.000,1.000
-10451.953,-39346.506,5946.520,-65888.284,3113.908,-4257.635,-3873.473,-11397.099,-0.153,0.843,-0.495,-0.885,0.031,-0.580,73.333,731.000,1.000
-10430.619,-38855.136,5929.129,-65746.471,3097.673,-4249.593,-3926.106,-11440.761,-0.154,0.844,-0.493,-1.038,0.031,-0.519,73.333,732.000,1.000
-10410.259,-38369.598,5911.508,-65604.243,3081.293,-4244.829,-3980.478,-11485.455,-0.156,0.844,-0.495,-0.977,0.122,-0.549,73.333,733.000,1.000
-10391.322,-37891.153,5893.593,-65461.706,3064.737,-4243.241,-4036.840,-11531.853,-0.156,0.843,-0.493,-1.129,0.122,-0.519,73.333,734.000,1.000
-10373.393,-37418.593,5875.465,-65318.859,3048.070,-4243.389,-4094.266,-11579.608,-0.154,0.844,-0.494,-1.190,0.183,-0.580,73.333,735.000,1.000
-10354.933,-36948.028,5857.382,-65175.507,3031.485,-4242.706,-4150.780,-11627.034,-0.154,0.842,-0.494,-1.251,0.183,-0.458,73.333,736.000,1.000
-10334.156,-36474.686,5839.621,-65031.400,3015.185,-4239.134,-4204.938,-11672.095,-0.156,0.840,-0.495,-1.251,0.153,-0.488,73.333,737.000,1.000
-10309.957,-35995.325,5822.311,-64886.422,2999.255,-4232.565,-4257.276,-11713.805,-0.155,0.837,-0.489,-1.282,0.183,-0.427,73.333,738.000,1.000
-10282.369,-35509.462,5805.420,-64740.625,2983.668,-4224.253,-4309.582,-11752.567,-0.156,0.838,-0.488,-1.221,0.214,-0.610,73.333,739.000,1.000
-10251.948,-35018.873,5788.890,-64594.039,2968.414,-4215.025,-4362.911,-11789.344,-0.157,0.837,-0.488,-1.190,0.275,-0.519,73.333,740.000,1.000
-10219.261,-34525.945,5772.706,-64446.613,2953.534,-4204.386,-4416.642,-11824.882,-0.156,0.836,-0.490,-1.099,0.183,-0.519,73.333,741.000,1.000
-10184.965,-34032.473,5756.809,-64298.352,2939.001,-4191.372,-4469.232,-11859.562,-0.156,0.834,-0.489,-1.068,0.153,-0.549,73.333,742.000,1.000
-10149.856,-33539.360,5741.043,-64149.418,2924.657,-4175.639,-4519.433,-11893.402,-0.156,0.834,-0.486,-1.068,0.092,-0.610,73.333,743.000,1.000
-10114.972,-33046.837,5725.187,-64000.061,2910.262,-4157.689,-4567.035,-11926.252,-0.156,0.833,-0.490,-0.885,0.061,-0.519,73.333,744.000,1.000
-10081.142,-32554.796,5709.058,-63850.491,2895.589,-4138.552,-4612.878,-11958.086,-0.156,0.834,-0.489,-0.671,0.061,-0.610,73.333,745.000,1.000
-10048.638,-32062.801,5692.614,-63700.771,2880.552,-4119.240,-4658.278,-11989.144,-0.156,0.833,-0.486,-0.549,0.122,-0.610,73.333,746.000,1.000
-10017.211,-31570.244,5675.986,-63550.777,2865.273,-4100.352,-4704.402,-12019.916,-0.156,0.835,-0.486,-0.549,0.061,-0.671,73.333,747.000,1.000
-9986.263,-31076.805,5659.383,-63400.281,2850.019,-4082.037,-4751.928,-12051.006,-0.156,0.835,-0.487,-0.488,-0.031,-0.732,73.333,748.000,1.000
-9955.439,-30582.658,5642.938,-63249.135,2835.002,-4064.148,-4800.887,-12082.942,-0.156,0.836,-0.490,-0.488,-0.092,-0.671,73.333,749.000,1.000
-9924.645,-30088.197,5626.684,-63097.330,2820.282,-4046.323,-4850.586,-12115.781,-0.157,0.838,-0.488,-0.336,-0.153,-0.824,73.333,750.000,1.000
-9893.786,-29593.707,5610.618,-62944.922,2805.804,-4028.062,-4899.898,-12148.945,-0.157,0.838,-0.489,-0.366,-0.183,-0.854,73.333,751.000,1.000
-9862.484,-29099.293,5594.740,-62791.949,2791.489,-4009.061,-4947.909,-12181.643,-0.158,0.838,-0.490,-0.427,-0.214,-0.946,73.333,752.000,1.000
-9829.910,-28604.702,5579.033,-62638.426,2777.270,-3989.331,-4994.231,-12213.296,-0.156,0.836,-0.487,-0.275,-0.244,-0.946,73.333,753.000,1.000
-9795.598,-28109.631,5563.394,-62484.426,2763.043,-3969.220,-5039.242,-12243.972,-0.156,0.836,-0.487,-0.305,-0.275,-0.946,73.333,754.000,1.000
-9759.963,-27614.370,5547.644,-62330.091,2748.668,-3949.675,-5084.378,-12274.594,-0.156,0.836,-0.488,-0.244,-0.366,-1.038,73.333,755.000,1.000
-9724.009,-27119.599,5531.624,-62175.568,2734.034,-3931.965,-5131.469,-12306.394,-0.155,0.837,-0.486,-0.275,-0.427,-1.038,73.333,756.000,1.000
-9688.662,-26625.815,5515.244,-62020.959,2719.075,-3916.800,-5181.380,-12340.046,-0.156,0.841,-0.487,-0.275,-0.488,-0.854,73.333,757.000,1.000
-9654.236,-26133.226,5498.516,-61866.267,2703.809,-3903.732,-5233.379,-12375.247,-0.155,0.840,-0.492,-0.336,-0.519,-0.854,73.333,758.000,1.000
-9620.631,-25641.985,5481.582,-61711.346,2688.391,-3891.299,-5285.559,-12410.925,-0.156,0.840,-0.492,-0.275,-0.519,-0.793,73.333,759.000,1.000
-9587.319,-25152.263,5464.700,-61555.925,2673.111,-3877.786,-5335.832,-12445.652,-0.156,0.844,-0.487,-0.244,-0.519,-0.824,73.333,760.000,1.000
-9553.660,-24663.924,5448.113,-61399.763,2658.204,-3862.145,-5383.106,-12478.275,-0.156,0.845,-0.491,-0.214,-0.427,-0.763,73.333,761.000,1.000
-9519.509,-24176.465,5431.858,-61242.846,2643.650,-3844.683,-5427.905,-12508.617,-0.156,0.845,-0.488,-0.275,-0.397,-0.793,73.333,762.000,1.000
-9485.288,-23689.390,5415.718,-61085.394,2629.179,-3826.917,-5471.812,-12537.488,-0.156,0.848,-0.490,-0.458,-0.488,-0.793,73.333,763.000,1.000
-9451.869,-23202.654,5399.367,-60927.717,2614.456,-3810.586,-5516.381,-12566.044,-0.156,0.848,-0.490,-0.519,-0.458,-0.854,73.333,764.000,1.000
-9419.757,-22716.346,5382.602,-60770.015,2599.311,-3796.554,-5562.305,-12594.971,-0.155,0.851,-0.490,-0.732,-0.488,-0.702,73.333,765.000,1.000
-9388.560,-22229.885,5365.442,-60612.293,2583.799,-3784.296,-5609.215,-12624.226,-0.155,0.851,-0.487,-0.885,-0.519,-0.702,73.333,766.000,1.000
-9357.382,-21742.380,5348.071,-60454.416,2568.093,-3772.439,-5656.222,-12653.450,-0.156,0.851,-0.488,-1.007,-0.549,-0.732,73.333,767.000,1.000
-9325.323,-21253.475,5330.735,-60296.182,2552.385,-3759.783,-5702.826,-12682.364,-0.158,0.850,-0.491,-1.160,-0.519,-0.732,73.333,768.000,1.000
-9291.984,-20763.260,5313.637,-60137.392,2536.825,-3745.948,-5749.496,-12711.068,-0.159,0.850,-0.488,-1.404,-0.580,-0.702,73.333,769.000,1.000
-9257.608,-20272.059,5296.844,-59977.945,2521.500,-3731.303,-5797.150,-12739.968,-0.159,0.849,-0.486,-1.556,-0.641,-0.671,73.333,770.000,1.000
-9223.130,-19780.817,5280.279,-59817.879,2506.413,-3716.281,-5845.855,-12769.203,-0.161,0.851,-0.487,-1.740,-0.641,-0.702,73.333,771.000,1.000
-9189.612,-19291.186,5263.818,-59657.311,2491.512,-3700.781,-5894.319,-12798.175,-0.160,0.851,-0.491,-1.801,-0.702,-0.793,73.333,772.000,1.000
-9157.110,-18804.544,5247.380,-59496.321,2476.743,-3684.118,-5940.713,-12825.689,-0.162,0.853,-0.487,-2.014,-0.793,-0.885,73.333,773.000,1.000
-9124.770,-18321.228,5230.945,-59334.908,2462.083,-3665.648,-5983.971,-12850.896,-0.161,0.851,-0.486,-2.289,-0.854,-0.977,73.333,774.000,1.000
-9091.609,-17840.747,5214.568,-59173.010,2447.540,-3645.504,-6024.468,-12874.076,-0.160,0.851,-0.487,-2.563,-0.977,-1.129,73.333,775.000,1.000
-9057.293,-17362.142,5198.309,-59010.592,2433.106,-3624.588,-6063.702,-12896.473,-0.161,0.850,-0.482,-2.716,-1.007,-1.251,73.333,776.000,1.000
-9022.341,-16884.451,5182.149,-58847.708,2418.713,-3604.062,-6103.511,-12919.554,-0.164,0.844,-0.482,-2.899,-1.129,-1.434,73.333,777.000,1.000
-8987.467,-16407.038,5166.044,-58684.437,2404.309,-3584.708,-6145.113,-12944.170,-0.163,0.841,-0.480,-3.082,-1.282,-1.556,73.333,778.000,1.000
-8953.104,-15929.607,5149.980,-58520.833,2389.890,-3566.586,-6188.516,-12970.283,-0.161,0.837,-0.482,-3.143,-1.434,-1.801,73.333,779.000,1.000
-8919.079,-15452.155,5133.924,-58356.946,2375.443,-3549.432,-6232.945,-12997.332,-0.158,0.833,-0.481,-3.052,-1.343,-2.045,73.333,780.000,1.000
-8884.965,-14975.006,5117.785,-58192.849,2360.923,-3533.101,-6277.755,-13024.838,-0.154,0.832,-0.482,-2.960,-1.404,-2.136,73.333,781.000,1.000
-8850.737,-14499.047,5101.428,-58028.619,2346.252,-3517.565,-6322.885,-13052.751,-0.150,0.827,-0.484,-2.899,-1.221,-2.258,73.333,782.000,1.000
-8816.752,-14025.600,5084.720,-57864.329,2331.332,-3502.563,-6368.500,-13081.235,-0.146,0.823,-0.482,-2.716,-1.099,-2.411,73.333,783.000,1.000
-8783.481,-13555.657,5067.632,-57699.983,2316.110,-3487.383,-6414.296,-13110.174,-0.144,0.820,-0.484,-2.533,-0.854,-2.502,73.333,784.000,1.000
-8750.932,-13089.138,5050.356,-57535.401,2300.718,-3471.113,-6459.338,-13138.838,-0.141,0.815,-0.485,-2.319,-0.458,-2.533,73.333,785.000,1.000
-8718.636,-12624.858,5033.212,-57370.302,2285.420,-3453.163,-6502.788,-13166.244,-0.139,0.810,-0.482,-2.045,-0.183,-2.533,73.333,786.000,1.000
-8686.113,-12161.483,5016.370,-57204.573,2270.367,-3433.767,-6544.722,-13192.042,-0.139,0.803,-0.479,-1.801,0.366,-2.533,73.333,787.000,1.000
-8653.025,-11698.375,4999.746,-57038.362,2255.479,-3413.997,-6586.020,-13216.857,-0.144,0.798,-0.480,-1.221,0.732,-2.533,73.333,788.000,1.000
-8619.256,-11235.501,4983.142,-56871.928,2240.569,-3395.165,-6627.529,-13241.809,-0.149,0.793,-0.482,-0.702,1.068,-2.716,73.333,789.000,1.000
-8584.638,-10772.946,4966.453,-56705.385,2225.549,-3378.107,-6669.493,-13267.615,-0.155,0.789,-0.481,-0.031,1.282,-2.747,73.333,790.000,1.000
-8549.243,-10310.799,4949.726,-56538.626,2210.492,-3362.923,-6711.735,-13294.290,-0.161,0.786,-0.484,0.641,1.373,-2.930,73.333,791.000,1.000
-8513.856,-9849.087,4933.035,-56371.469,2195.509,-3349.337,-6754.125,-13321.536,-0.167,0.786,-0.487,1.282,1.434,-3.113,73.333,792.000,1.000
-8479.466,-9387.167,4916.411,-56203.800,2180.659,-3336.919,-6796.542,-13348.840,-0.171,0.781,-0.486,1.953,1.434,-3.265,73.333,793.000,1.000
-8446.808,-8923.799,4899.829,-56035.631,2165.919,-3325.097,-6838.643,-13375.461,-0.172,0.776,-0.488,2.777,1.373,-3.540,73.333,794.000,1.000
-8416.002,-8458.368,4883.199,-55867.106,2151.181,-3313.342,-6879.976,-13400.703,-0.172,0.773,-0.492,3.479,1.343,-3.693,73.333,795.000,1.000
-8386.625,-7991.722,4866.399,-55698.425,2136.288,-3301.154,-6920.247,-13424.262,-0.169,0.768,-0.490,4.242,1.221,-3.998,73.333,796.000,1.000
-8358.084,-7526.057,4849.319,-55529.775,2121.087,-3288.020,-6959.532,-13446.469,-0.164,0.764,-0.493,5.157,1.221,-4.089,73.333,797.000,1.000
-8329.811,-7064.151,4831.894,-55361.252,2105.504,-3273.524,-6998.295,-13468.132,-0.159,0.762,-0.498,6.073,1.282,-4.242,73.333,798.000,1.000
-8301.649,-6608.448,4814.154,-55192.817,2089.591,-3257.526,-7037.191,-13490.199,-0.157,0.760,-0.504,7.080,1.434,-4.425,73.333,799.000,1.000
-8273.543,-6159.979,4796.260,-55024.278,2073.536,-3240.376,-7076.761,-13513.281,-0.160,0.760,-0.509,8.087,1.648,-4.578,73.333,800.000,1.000
-8245.065,-5717.362,4778.460,-54855.351,2057.601,-3222.899,-7117.101,-13537.353,-0.158,0.763,-0.514,9.125,1.892,-4.700,73.333,801.000,1.000
-8215.540,-5277.320,4760.986,-54685.780,2042.015,-3206.145,-7157.762,-13561.951,-0.160,0.767,-0.518,10.132,2.228,-4.791,73.333,802.000,1.000
-8184.391,-4836.377,4743.941,-54515.444,2026.888,-3190.967,-7197.987,-13586.559,-0.158,0.770,-0.524,11.108,2.502,-4.883,73.333,803.000,1.000
-8151.600,-4392.034,4727.231,-54344.435,2012.130,-3177.720,-7237.145,-13610.895,-0.156,0.776,-0.527,11.993,2.777,-4.974,73.333,804.000,1.000
-8117.496,-3943.121,4710.594,-54173.038,1997.463,-3166.336,-7275.023,-13634.903,-0.153,0.782,-0.530,12.787,2.991,-5.035,73.333,805.000,1.000
-8082.591,-3489.978,4693.718,-54001.606,1982.542,-3156.565,-7311.984,-13658.912,-0.149,0.786,-0.536,13.489,3.479,-4.791,73.333,806.000,1.000
-8047.575,-3034.429,4676.423,-53830.349,1967.169,-3148.291,-7349.101,-13683.976,-0.149,0.790,-0.536,14.069,3.845,-4.639,73.333,807.000,1.000
-8012.876,-2578.952,4658.788,-53659.204,1951.430,-3141.516,-7387.641,-13711.312,-0.150,0.794,-0.540,14.618,4.333,-4.578,73.333,808.000,1.000
-7978.574,-2125.683,4641.067,-53487.920,1935.611,-3135.897,-7427.994,-13741.049,-0.152,0.799,-0.541,15.198,4.822,-4.486,73.333,809.000,1.000
-7944.358,-1675.789,4623.521,-53316.223,1920.011,-3130.590,-7469.320,-13771.687,-0.151,0.807,-0.542,15.472,5.341,-4.272,73.333,810.000,1.000
-7909.781,-1228.991,4606.302,-53143.925,1904.797,-3124.698,-7510.311,-13800.982,-0.154,0.817,-0.543,15.594,5.768,-4.211,73.333,811.000,1.000
-7874.462,-783.644,4589.414,-52971.001,1889.946,-3117.922,-7549.939,-13827.245,-0.156,0.828,-0.544,15.564,6.165,-4.150,73.333,812.000,1.000
-7837.904,-337.267,4572.780,-52797.528,1875.325,-3110.490,-7587.464,-13849.737,-0.158,0.837,-0.545,15.411,6.470,-3.937,73.333,813.000,1.000
-7799.960,112.637,4556.313,-52623.608,1860.805,-3102.505,-7622.674,-13868.613,-0.160,0.850,-0.547,15.015,6.897,-3.754,73.333,814.000,1.000
-7761.028,567.930,4539.958,-52449.298,1846.333,-3093.671,-7656.587,-13884.945,-0.161,0.859,-0.547,14.221,7.233,-3.479,73.333,815.000,1.000
-7721.620,1029.980,4523.751,-52274.571,1832.009,-3083.395,-7691.197,-13900.479,-0.163,0.869,-0.548,13.550,7.477,-3.448,73.333,816.000,1.000
-7681.826,1499.636,4507.822,-52099.330,1818.055,-3070.933,-7727.997,-13916.771,-0.165,0.876,-0.545,12.543,7.629,-3.326,73.333,817.000,1.000
-7641.296,1976.630,4492.252,-51923.527,1804.603,-3055.479,-7766.946,-13934.308,-0.166,0.882,-0.545,11.353,7.812,-3.082,73.333,818.000,1.000
-7600.371,2459.057,4476.876,-51747.322,1791.445,-3036.470,-7806.973,-13952.721,-0.170,0.889,-0.544,10.132,7.904,-2.991,73.333,819.000,1.000
-7560.501,2943.814,4461.353,-51571.034,1778.136,-3013.948,-7846.826,-13971.256,-0.170,0.896,-0.543,8.789,7.904,-2.899,73.333,820.000,1.000
-7523.160,3428.242,4445.465,-51394.871,1764.378,-2988.381,-7885.225,-13988.544,-0.176,0.904,-0.539,7.294,7.843,-2.869,73.333,821.000,1.000
-7488.500,3911.387,4429.302,-51218.746,1750.253,-2960.462,-7921.108,-14002.751,-0.177,0.906,-0.536,5.676,7.690,-2.838,73.333,822.000,1.000
-7455.194,4393.698,4413.155,-51042.394,1736.080,-2931.142,-7954.346,-14012.823,-0.180,0.911,-0.536,3.845,7.568,-2.930,73.333,823.000,1.000
-7421.819,4875.522,4397.215,-50865.645,1722.078,-2901.531,-7986.015,-14019.690,-0.181,0.911,-0.538,2.106,7.324,-2.960,73.333,824.000,1.000
-7387.646,5355.585,4381.424,-50688.567,1708.232,-2872.559,-8017.689,-14025.729,-0.181,0.913,-0.531,0.244,7.019,-2.899,73.333,825.000,1.000
-7352.537,5830.809,4365.589,-50511.338,1694.397,-2844.501,-8050.218,-14032.834,-0.183,0.912,-0.527,-1.740,6.714,-3.021,73.333,826.000,1.000
-7316.574,6297.621,4349.550,-50334.090,1680.432,-2817.020,-8082.886,-14040.987,-0.186,0.913,-0.523,-3.601,6.348,-3.082,73.333,827.000,1.000
-7279.614,6753.857,4333.270,-50156.836,1666.275,-2789.678,-8113.795,-14048.356,-0.184,0.912,-0.521,-5.493,5.859,-3.235,73.333,828.000,1.000
-7241.517,7199.792,4316.904,-49979.422,1652.043,-2762.350,-8141.542,-14052.976,-0.186,0.911,-0.520,-7.416,5.493,-3.357,73.333,829.000,1.000
-7202.562,7637.379,4300.741,-49801.574,1637.998,-2735.544,-8167.134,-14054.978,-0.183,0.906,-0.514,-9.186,5.096,-3.479,73.333,830.000,1.000
-7163.864,8068.451,4284.925,-49623.151,1624.274,-2710.402,-8194.358,-14057.455,-0.179,0.897,-0.511,-10.803,4.669,-3.418,73.333,831.000,1.000
-7126.767,8493.450,4269.375,-49444.241,1610.802,-2687.657,-8227.279,-14064.533,-0.177,0.889,-0.508,-12.390,4.395,-3.479,73.333,832.000,1.000
-7091.375,8911.784,4253.962,-49264.990,1597.472,-2666.306,-8266.643,-14078.112,-0.174,0.882,-0.503,-13.794,4.333,-3.448,73.333,833.000,1.000
-7056.637,9322.692,4238.510,-49085.599,1584.126,-2644.029,-8309.022,-14096.682,-0.169,0.877,-0.500,-15.076,4.059,-3.601,73.333,834.000,1.000
-7021.424,9725.368,4222.726,-48906.365,1570.488,-2618.972,-8349.026,-14116.577,-0.167,0.871,-0.498,-16.174,3.876,-3.754,73.333,835.000,1.000
-6985.243,10119.414,4206.364,-48727.510,1556.314,-2590.743,-8382.448,-14133.992,-0.164,0.865,-0.498,-16.998,3.693,-3.784,73.333,836.000,1.000
