EEG 1,EEG 2,EEG 3,EEG 4,EEG 5,EEG 6,EEG 7,EEG 8,Accelerometer X,Accelerometer Y,Accelerometer Z,Gyroscope X,Gyroscope Y,Gyroscope Z,Battery Level,Counter,Validation Indicator
5027.926,-2456.325,19477.448,-3500.369,-3846.806,4941.099,-4824.441,5083.268,0.018,0.976,-0.178,0.000,0.000,0.000,73.333,1.000,1.000
34551.049,-25973.563,9499.780,-27414.991,-27461.292,28238.957,-31931.405,35404.761,0.016,0.984,-0.187,0.000,0.000,0.000,73.333,2.000,1.000
110920.217,-103740.851,-18733.612,-100048.921,-92021.056,80251.930,-99952.876,118236.577,0.013,0.985,-0.194,0.000,0.000,0.000,73.333,3.000,1.000
213075.576,-260357.350,-69807.007,-239760.320,-197140.225,144883.449,-198364.993,257681.153,0.011,0.986,-0.193,0.000,0.000,0.000,73.333,4.000,1.000
256551.043,-475426.588,-136330.052,-432754.221,-307376.565,192319.189,-282431.760,423224.417,0.012,0.987,-0.192,-0.458,0.488,0.763,73.333,5.000,1.000
157951.070,-679949.620,-196984.695,-627438.250,-373460.103,209657.948,-302484.184,569800.516,0.010,0.988,-0.191,-3.357,5.920,5.371,73.333,6.000,1.000
-65806.367,-789026.607,-220234.365,-745532.449,-364565.340,211443.534,-234677.071,661554.975,0.008,0.989,-0.192,-0.977,4.669,1.343,73.333,7.000,1.000
-282678.056,-748168.037,-179984.447,-716784.733,-283268.714,229076.891,-93726.375,685700.232,0.007,0.990,-0.195,-0.244,4.272,0.031,73.333,8.000,1.000
-342276.644,-565361.811,-73883.936,-524880.869,-160211.403,289457.195,73352.322,656933.608,0.007,0.990,-0.193,-0.092,4.181,-0.244,73.333,9.000,1.000
-181687.277,-304058.660,73989.827,-224581.627,-38625.170,394274.292,209296.990,608021.124,0.008,0.988,-0.194,0.122,4.028,-0.488,73.333,10.000,1.000
143838.060,-40766.802,226238.662,88295.420,45719.157,515727.846,275367.204,567090.516,0.006,0.987,-0.190,0.061,4.028,-0.458,73.333,11.000,1.000
497427.320,177556.975,348840.658,328760.369,81773.513,612611.241,269418.319,538063.668,0.007,0.988,-0.193,-0.122,3.906,-0.519,73.333,12.000,1.000
733923.430,344098.527,423400.133,459057.104,83678.325,655349.221,219399.315,503501.369,0.007,0.985,-0.194,-0.153,3.723,-0.427,73.333,13.000,1.000
780641.762,472114.171,451091.928,492475.590,73034.123,641330.968,158915.919,446433.706,0.007,0.984,-0.194,0.000,3.662,-0.366,73.333,14.000,1.000
672920.471,570404.308,447062.192,471506.077,61815.454,589092.707,107482.160,367080.475,0.008,0.984,-0.190,0.000,3.540,-0.366,73.333,15.000,1.000
509883.105,634330.131,429582.671,438663.151,51643.708,519407.213,69553.149,279983.002,0.008,0.983,-0.190,0.122,3.448,-0.366,73.333,16.000,1.000
370717.141,654533.608,411731.425,417361.459,43465.418,442153.288,44566.135,200450.491,0.008,0.982,-0.188,0.153,3.326,-0.366,73.333,17.000,1.000
272786.365,631980.745,399627.633,410845.997,41542.274,359476.762,32255.152,136304.811,0.008,0.980,-0.189,0.366,3.265,-0.458,73.333,18.000,1.000
199853.493,583093.999,394690.594,413236.387,47658.136,277659.894,29770.496,89490.613,0.008,0.983,-0.188,0.458,3.052,-0.458,73.333,19.000,1.000
147646.597,529048.679,395610.692,419283.576,56371.932,210580.063,29784.022,60175.465,0.006,0.984,-0.186,0.580,2.960,-0.458,73.333,20.000,1.000
128021.634,481007.566,399086.935,425874.754,59805.768,169426.472,25563.938,46761.403,0.009,0.982,-0.189,0.519,2.869,-0.427,73.333,21.000,1.000
139541.328,438098.693,401136.041,429631.059,56209.759,152104.431,17254.234,43973.727,0.009,0.984,-0.190,0.732,2.777,-0.549,73.333,22.000,1.000
155796.815,398461.937,399468.240,427453.041,51103.450,145964.962,10736.941,44272.718,0.008,0.986,-0.189,0.702,2.625,-0.519,73.333,23.000,1.000
150850.480,366635.060,394859.760,419820.911,49913.975,140073.122,10092.880,42353.140,0.008,0.987,-0.188,0.793,2.563,-0.549,73.333,24.000,1.000
126772.379,347609.240,389861.679,411325.061,51947.323,132381.008,13043.292,37700.731,0.010,0.986,-0.190,0.763,2.472,-0.549,73.333,25.000,1.000
106576.749,337766.116,386181.447,406462.885,52783.192,125559.066,14491.084,32570.296,0.010,0.982,-0.190,0.824,2.411,-0.519,73.333,26.000,1.000
103643.935,326766.390,383551.162,405427.828,50724.583,119655.919,12765.619,28334.317,0.009,0.981,-0.189,0.885,2.258,-0.671,73.333,27.000,1.000
107863.143,308510.332,380912.089,404879.079,48523.041,111520.195,10585.842,24417.527,0.007,0.982,-0.191,1.007,2.167,-0.702,73.333,28.000,1.000
102991.692,286873.186,378004.262,402347.948,48981.169,100029.907,10518.957,20066.770,0.008,0.981,-0.196,1.099,2.136,-0.580,73.333,29.000,1.000
88551.704,269381.038,375404.410,398674.669,51106.954,88575.751,11604.214,15808.201,0.008,0.980,-0.196,1.221,2.075,-0.732,73.333,30.000,1.000
77842.834,257786.738,373377.212,395986.201,51776.198,81167.224,11204.609,12686.243,0.008,0.980,-0.195,1.343,1.953,-0.671,73.333,31.000,1.000
78366.138,247319.031,371338.104,394534.871,49991.967,77656.945,8806.299,10736.758,0.008,0.979,-0.195,1.556,1.892,-0.641,73.333,32.000,1.000
82536.252,234023.843,368609.318,392586.551,47880.554,74341.111,6519.896,8908.886,0.010,0.979,-0.196,1.678,1.740,-0.763,73.333,33.000,1.000
79205.132,219679.481,365317.085,389024.318,47609.209,68671.600,6111.136,6370.501,0.009,0.978,-0.195,1.770,1.678,-0.763,73.333,34.000,1.000
68238.212,208500.873,362209.052,384882.540,48737.262,61817.032,6869.009,3357.978,0.008,0.979,-0.197,2.045,1.495,-0.854,73.333,35.000,1.000
59112.442,201149.468,359713.187,381901.490,49239.665,56377.097,6871.004,641.022,0.009,0.979,-0.198,2.167,1.465,-0.916,73.333,36.000,1.000
57732.977,194140.267,357498.369,380283.292,48276.778,52910.541,5501.955,-1449.693,0.008,0.979,-0.197,2.289,1.343,-0.977,73.333,37.000,1.000
59857.529,184646.001,355006.129,378606.031,46961.608,49688.773,3907.347,-3214.990,0.008,0.980,-0.197,2.319,1.312,-1.160,73.333,38.000,1.000
58126.074,173852.491,352153.008,375755.874,46592.092,45295.320,3249.752,-5042.898,0.010,0.980,-0.200,2.441,1.129,-1.282,73.333,39.000,1.000
51527.930,164881.018,349326.130,372217.849,47051.049,40312.074,3342.548,-6990.670,0.009,0.981,-0.200,2.594,1.160,-1.251,73.333,40.000,1.000
45272.630,158690.713,346813.094,369227.943,47273.520,36234.102,3197.611,-8880.578,0.008,0.981,-0.197,2.594,1.190,-1.343,73.333,41.000,1.000
43232.588,153293.624,344468.025,367149.476,46720.947,33502.898,2363.117,-10563.317,0.008,0.981,-0.202,2.808,1.068,-1.495,73.333,42.000,1.000
43675.369,146627.968,341970.505,365177.426,45857.435,31179.721,1288.697,-12014.325,0.008,0.983,-0.204,2.899,1.099,-1.587,73.333,43.000,1.000
42575.618,138958.063,339244.773,362511.007,45355.308,28265.766,586.049,-13318.266,0.005,0.982,-0.202,2.991,1.129,-1.648,73.333,44.000,1.000
38732.700,132063.884,336505.194,359326.256,45320.734,24782.826,348.157,-14638.530,0.007,0.981,-0.204,3.021,1.038,-1.740,73.333,45.000,1.000
34343.937,126849.375,333953.788,356409.975,45377.338,21498.800,221.174,-16093.579,0.007,0.981,-0.205,3.113,1.129,-1.740,73.333,46.000,1.000
31725.550,122473.643,331555.952,354124.799,45184.988,18962.369,-137.465,-17579.664,0.005,0.977,-0.200,3.174,1.007,-1.831,73.333,47.000,1.000
30933.470,117633.444,329128.371,352049.634,44703.787,17008.274,-784.875,-18819.358,0.008,0.976,-0.199,3.448,0.793,-1.862,73.333,48.000,1.000
30380.752,112062.079,326565.975,349595.527,44126.601,15053.396,-1507.889,-19703.729,0.009,0.978,-0.200,3.510,0.702,-1.740,73.333,49.000,1.000
28703.392,106582.724,323933.045,346707.730,43719.063,12704.336,-2001.297,-20504.956,0.008,0.980,-0.202,3.601,0.732,-1.923,73.333,50.000,1.000
25823.914,102025.764,321363.138,343839.874,43621.624,10111.596,-2139.524,-21579.407,0.010,0.981,-0.210,3.815,0.763,-1.831,73.333,51.000,1.000
22843.496,98369.651,318914.595,341365.017,43663.215,7806.196,-2161.147,-22877.520,0.011,0.982,-0.210,3.815,1.099,-1.862,73.333,52.000,1.000
21097.112,94871.316,316524.014,339175.166,43457.315,6141.192,-2473.696,-23955.270,0.008,0.981,-0.208,3.937,1.312,-1.953,73.333,53.000,1.000
20829.202,90876.168,314079.905,336868.601,42847.658,4856.530,-3159.468,-24557.442,0.006,0.976,-0.203,4.089,1.312,-2.075,73.333,54.000,1.000
20660.569,86480.938,311539.310,334227.273,42191.899,3308.000,-3788.556,-25002.263,0.004,0.974,-0.202,4.395,1.038,-2.014,73.333,55.000,1.000
18926.658,82422.258,308977.175,331437.227,41981.668,1224.969,-3913.049,-25787.414,0.008,0.969,-0.208,4.791,0.885,-2.014,73.333,56.000,1.000
15803.841,79264.528,306509.190,328850.243,42173.064,-891.098,-3689.800,-26905.765,0.008,0.967,-0.209,5.219,0.854,-1.984,73.333,57.000,1.000
13437.964,76709.380,304156.225,326579.754,42157.830,-2339.345,-3750.720,-27824.979,0.008,0.969,-0.209,5.554,0.793,-2.014,73.333,58.000,1.000
13339.614,73870.483,301807.282,324377.584,41543.289,-3142.822,-4379.947,-28206.634,0.004,0.970,-0.207,5.859,0.763,-2.289,73.333,59.000,1.000
14193.404,70324.580,299347.026,321925.721,40732.525,-4096.497,-5081.976,-28390.668,0.001,0.971,-0.207,5.981,0.793,-2.533,73.333,60.000,1.000
13309.696,66693.302,296806.363,319215.116,40438.302,-5762.291,-5204.276,-28952.174,0.001,0.971,-0.203,6.256,0.702,-2.655,73.333,61.000,1.000
10202.887,63914.789,294336.113,316565.085,40709.926,-7692.108,-4834.645,-29915.541,0.003,0.971,-0.208,6.531,0.671,-2.716,73.333,62.000,1.000
7471.419,62016.148,292006.652,314229.549,40807.359,-8977.879,-4726.879,-30712.492,0.001,0.969,-0.209,6.714,0.702,-2.930,73.333,63.000,1.000
7438.964,59998.044,289655.446,312023.796,40134.387,-9468.852,-5290.788,-30957.783,0.001,0.968,-0.211,6.927,0.671,-3.021,73.333,64.000,1.000
8914.102,57101.090,286968.802,309423.594,38950.702,-10015.026,-6009.432,-30979.719,0.003,0.969,-0.215,7.202,0.854,-3.143,73.333,65.000,1.000
8634.852,53840.188,283725.538,306063.774,37867.670,-11347.862,-6119.808,-31371.355,0.000,0.970,-0.210,7.416,1.129,-3.265,73.333,66.000,1.000
5672.748,51371.530,279928.875,302058.295,36833.729,-13080.943,-5657.718,-32178.328,-0.001,0.970,-0.204,7.874,0.732,-2.960,73.333,67.000,1.000
2800.679,49951.832,275694.524,297758.719,35068.538,-14212.066,-5426.373,-32842.243,0.002,0.971,-0.209,8.270,0.519,-2.991,73.333,68.000,1.000
2789.340,48551.768,271103.637,293304.071,32131.906,-14480.318,-5906.890,-32972.252,-0.002,0.972,-0.214,8.392,0.336,-3.082,73.333,69.000,1.000
4599.637,46205.737,266252.597,288584.440,28697.913,-14733.695,-6597.929,-32877.737,-0.002,0.974,-0.215,8.545,0.244,-2.869,73.333,70.000,1.000
4739.402,43314.523,261385.276,283634.538,25904.916,-15787.934,-6698.773,-33137.035,0.000,0.974,-0.216,8.698,0.244,-2.869,73.333,71.000,1.000
2012.456,41118.612,256826.742,278845.983,24063.471,-17322.998,-6203.087,-33808.556,-0.003,0.973,-0.216,8.820,0.061,-2.869,73.333,72.000,1.000
-837.578,40021.165,252721.021,274626.146,22413.980,-18324.220,-5903.096,-34367.189,-0.003,0.975,-0.217,8.881,0.061,-2.899,73.333,73.000,1.000
-870.490,39031.216,248898.199,270919.170,20234.086,-18464.758,-6304.226,-34433.170,-0.005,0.977,-0.220,8.911,-0.061,-2.869,73.333,74.000,1.000
1043.863,37097.422,245075.007,267250.860,17791.193,-18542.078,-6943.973,-34280.822,-0.002,0.980,-0.222,8.881,-0.092,-2.716,73.333,75.000,1.000
1440.806,34526.106,241166.307,263291.134,15889.780,-19384.474,-7037.927,-34445.320,-0.003,0.979,-0.219,8.759,-0.122,-2.625,73.333,76.000,1.000
-1001.415,32556.616,237331.646,259228.555,14701.823,-20732.834,-6548.779,-34991.602,-0.005,0.979,-0.217,8.698,-0.153,-2.533,73.333,77.000,1.000
-3706.202,31677.955,233720.966,255478.937,13513.296,-21614.591,-6216.470,-35447.241,-0.005,0.976,-0.220,8.698,-0.305,-2.441,73.333,78.000,1.000
-3768.920,30978.729,230267.646,252121.933,11709.881,-21672.695,-6535.620,-35462.389,-0.004,0.973,-0.220,8.789,-0.458,-2.289,73.333,79.000,1.000
-1894.359,29396.692,226794.054,248810.295,9615.545,-21629.861,-7096.809,-35274.920,-0.006,0.973,-0.221,8.698,-0.610,-2.258,73.333,80.000,1.000
-1348.224,27146.584,223266.244,245253.993,8036.754,-22285.495,-7171.448,-35363.803,-0.005,0.973,-0.223,8.728,-0.641,-2.136,73.333,81.000,1.000
-3476.767,25394.815,219842.518,241613.278,7164.750,-23443.193,-6706.039,-35796.606,-0.008,0.975,-0.227,8.606,-0.916,-2.075,73.333,82.000,1.000
-5961.367,24661.620,216653.875,238273.197,6341.364,-24215.290,-6368.446,-36163.656,-0.011,0.978,-0.224,8.575,-0.977,-1.984,73.333,83.000,1.000
-6074.130,24139.714,213621.701,235316.579,4972.210,-24242.122,-6621.269,-36153.880,-0.012,0.976,-0.229,8.606,-1.068,-1.862,73.333,84.000,1.000
-4358.788,22819.616,210560.135,232411.929,3311.100,-24150.693,-7111.136,-35963.732,-0.012,0.979,-0.230,8.453,-1.282,-1.709,73.333,85.000,1.000
-3761.364,20847.217,207419.202,229258.606,2069.285,-24671.031,-7180.747,-36003.241,-0.012,0.981,-0.231,8.209,-1.556,-1.556,73.333,86.000,1.000
-5572.619,19281.900,204339.960,225980.050,1433.962,-25656.313,-6761.990,-36335.790,-0.014,0.983,-0.233,7.935,-1.801,-1.434,73.333,87.000,1.000
-7779.328,18641.952,201455.646,222941.658,843.789,-26323.516,-6434.108,-36616.945,-0.015,0.983,-0.231,7.690,-1.953,-1.282,73.333,88.000,1.000
-7923.349,18236.065,198713.855,220254.845,-220.051,-26331.257,-6614.617,-36580.610,-0.016,0.985,-0.235,7.416,-2.075,-1.251,73.333,89.000,1.000
-6410.063,17139.552,195953.853,217638.147,-1545.725,-26211.400,-7014.044,-36387.769,-0.014,0.986,-0.233,7.141,-2.258,-1.068,73.333,90.000,1.000
-5812.167,15433.224,193122.557,214804.949,-2520.728,-26614.296,-7066.401,-36383.742,-0.011,0.983,-0.230,6.866,-2.319,-0.916,73.333,91.000,1.000
-7318.374,14040.363,190335.404,211840.037,-2976.166,-27439.934,-6699.653,-36628.161,-0.011,0.982,-0.234,6.561,-2.563,-0.916,73.333,92.000,1.000
-9234.686,13453.098,187710.587,209065.921,-3385.300,-28017.323,-6397.972,-36838.341,-0.009,0.982,-0.234,6.195,-2.594,-0.732,73.333,93.000,1.000
-9415.304,13104.433,185209.888,206601.276,-4194.029,-28028.840,-6520.604,-36789.147,-0.008,0.982,-0.234,6.042,-2.563,-0.549,73.333,94.000,1.000
-8139.933,12183.451,182696.480,204212.560,-5233.914,-27905.396,-6834.456,-36604.301,-0.006,0.982,-0.234,5.737,-2.686,-0.366,73.333,95.000,1.000
-7580.707,10723.158,180119.383,201639.600,-5992.535,-28205.494,-6866.610,-36564.725,-0.004,0.984,-0.235,5.341,-2.716,-0.275,73.333,96.000,1.000
-8796.194,9499.761,177572.371,198937.810,-6319.783,-28871.552,-6549.219,-36727.987,-0.002,0.984,-0.235,5.035,-2.716,0.031,73.333,97.000,1.000
-10414.264,8953.869,175157.869,196383.465,-6600.709,-29355.152,-6279.823,-36875.983,0.000,0.984,-0.234,4.761,-2.686,0.031,73.333,98.000,1.000
-10626.879,8629.390,172849.163,194093.653,-7207.130,-29379.014,-6361.163,-36827.789,-0.002,0.984,-0.235,4.456,-2.563,0.122,73.333,99.000,1.000
-9608.324,7838.064,170532.983,191880.520,-8010.734,-29280.208,-6609.231,-36671.488,-0.001,0.988,-0.238,4.089,-2.533,0.183,73.333,100.000,1.000
-9127.330,6583.377,168162.955,189516.724,-8595.981,-29516.718,-6633.963,-36620.197,-0.001,0.984,-0.237,3.845,-2.502,0.122,73.333,101.000,1.000
-10088.777,5503.887,165813.529,187034.933,-8832.806,-30056.733,-6367.968,-36720.178,0.000,0.982,-0.236,3.540,-2.380,0.214,73.333,102.000,1.000
-11417.593,4983.618,163571.229,184664.966,-9023.320,-30463.656,-6127.128,-36809.180,-0.001,0.983,-0.234,3.204,-2.380,0.305,73.333,103.000,1.000
-11641.297,4666.696,161419.080,182517.010,-9467.588,-30503.669,-6163.875,-36751.623,-0.001,0.981,-0.237,2.991,-2.228,0.244,73.333,104.000,1.000
-10855.564,3983.204,159266.145,180445.143,-10072.586,-30432.405,-6344.401,-36612.759,0.000,0.982,-0.237,2.808,-2.167,0.153,73.333,105.000,1.000
-10457.520,2911.775,157071.019,178256.288,-10513.415,-30615.837,-6360.710,-36552.338,0.003,0.981,-0.235,2.563,-1.984,0.061,73.333,106.000,1.000
-11199.406,1959.325,154889.996,175964.540,-10681.484,-31043.186,-6147.847,-36607.161,0.001,0.981,-0.237,2.380,-1.862,0.092,73.333,107.000,1.000
-12269.355,1452.277,152793.730,173754.633,-10804.875,-31377.877,-5941.592,-36657.588,-0.002,0.982,-0.236,2.258,-1.801,0.153,73.333,108.000,1.000
-12503.168,1126.510,150772.559,171725.600,-11118.025,-31427.739,-5939.987,-36599.879,-0.001,0.982,-0.237,2.319,-1.923,0.153,73.333,109.000,1.000
-11933.641,524.529,148754.807,169767.485,-11558.922,-31380.037,-6051.397,-36476.520,0.001,0.981,-0.239,2.228,-1.801,0.061,73.333,110.000,1.000
-11623.878,-393.812,146703.678,167720.440,-11884.457,-31520.637,-6046.574,-36402.884,0.002,0.979,-0.236,2.106,-1.709,-0.061,73.333,111.000,1.000
-12181.026,-1241.991,144659.613,165584.642,-12006.885,-31856.126,-5871.723,-36411.341,0.005,0.974,-0.236,2.075,-1.587,-0.153,73.333,112.000,1.000
-13021.872,-1749.429,142679.466,163504.531,-12089.203,-32136.566,-5697.687,-36422.423,0.003,0.972,-0.234,2.075,-1.465,-0.122,73.333,113.000,1.000
-13258.661,-2096.282,140761.635,161568.663,-12304.996,-32204.093,-5673.040,-36361.267,0.004,0.969,-0.237,2.014,-1.282,-0.183,73.333,114.000,1.000
-12876.419,-2632.112,138854.072,159700.630,-12614.889,-32183.197,-5736.857,-36251.369,0.004,0.969,-0.235,2.136,-1.068,-0.244,73.333,115.000,1.000
-12648.402,-3409.471,136925.470,157772.726,-12845.522,-32288.252,-5724.003,-36170.655,0.003,0.967,-0.239,2.167,-0.916,-0.275,73.333,116.000,1.000
-13049.364,-4151.901,135001.771,155774.027,-12929.507,-32540.653,-5588.827,-36145.828,0.003,0.967,-0.240,2.289,-0.732,-0.305,73.333,117.000,1.000
-13687.523,-4646.916,133125.440,153811.209,-12977.267,-32767.377,-5445.756,-36127.987,0.004,0.968,-0.237,2.289,-0.671,-0.366,73.333,118.000,1.000
-13916.263,-5009.608,131298.691,151958.714,-13112.632,-32845.173,-5400.900,-36065.452,0.002,0.971,-0.238,2.350,-0.549,-0.366,73.333,119.000,1.000
-13688.078,-5495.473,129484.765,150166.431,-13315.687,-32847.889,-5419.454,-35966.348,0.001,0.973,-0.238,2.350,-0.336,-0.549,73.333,120.000,1.000
-13531.460,-6158.305,127658.171,148336.314,-13471.083,-32925.892,-5391.879,-35877.571,0.003,0.974,-0.238,2.258,-0.153,-0.732,73.333,121.000,1.000
-13803.353,-6807.175,125834.497,146451.512,-13528.155,-33107.315,-5283.085,-35821.619,0.001,0.977,-0.240,2.106,0.092,-0.763,73.333,122.000,1.000
-14268.003,-7277.702,124045.117,144587.880,-13553.250,-33281.244,-5163.768,-35775.832,0.002,0.979,-0.239,1.984,0.214,-0.885,73.333,123.000,1.000
-14483.174,-7633.899,122295.544,142806.807,-13627.759,-33356.487,-5105.900,-35709.530,0.002,0.980,-0.242,1.770,0.275,-0.885,73.333,124.000,1.000
-14381.226,-8056.063,120561.782,141079.359,-13746.105,-33370.155,-5094.854,-35620.308,0.000,0.979,-0.240,1.709,0.427,-1.038,73.333,125.000,1.000
-14288.670,-8600.483,118823.836,139333.490,-13839.486,-33420.429,-5062.294,-35527.918,-0.002,0.978,-0.239,1.465,0.488,-1.190,73.333,126.000,1.000
-14458.338,-9150.994,117088.919,137548.762,-13871.937,-33538.413,-4978.154,-35447.049,-0.003,0.980,-0.240,1.312,0.671,-1.312,73.333,127.000,1.000
-14777.942,-9591.795,115377.465,135773.925,-13877.020,-33665.390,-4879.227,-35375.776,-0.003,0.981,-0.239,1.190,0.763,-1.343,73.333,128.000,1.000
-14975.317,-9950.136,113695.566,134056.547,-13903.690,-33740.031,-4812.236,-35303.484,-0.004,0.981,-0.240,1.038,0.854,-1.434,73.333,129.000,1.000
-14973.080,-10339.339,112029.355,132384.003,-13957.007,-33769.862,-4777.607,-35222.295,-0.002,0.982,-0.241,0.946,0.824,-1.556,73.333,130.000,1.000
-14938.273,-10807.197,110364.229,130706.754,-14004.167,-33807.956,-4739.306,-35132.439,-0.004,0.984,-0.245,0.732,0.977,-1.709,73.333,131.000,1.000
-15036.068,-11289.060,108702.030,129003.735,-14020.620,-33882.816,-4672.689,-35041.080,-0.006,0.981,-0.244,0.549,0.885,-1.831,73.333,132.000,1.000
-15243.324,-11702.348,107056.347,127303.929,-14013.144,-33971.264,-4587.429,-34956.150,-0.005,0.979,-0.246,0.488,0.977,-1.953,73.333,133.000,1.000
-15418.944,-12044.918,105434.984,125644.318,-14003.435,-34034.020,-4508.977,-34877.324,-0.007,0.978,-0.246,0.397,1.038,-2.045,73.333,134.000,1.000
-15484.502,-12383.198,103831.695,124024.215,-14003.690,-34060.963,-4450.500,-34793.805,-0.008,0.976,-0.247,0.397,1.038,-2.197,73.333,135.000,1.000
-15489.933,-12765.981,102234.910,122411.061,-14009.522,-34076.556,-4403.660,-34695.798,-0.008,0.976,-0.248,0.305,1.099,-2.228,73.333,136.000,1.000
-15531.904,-13175.313,100640.879,120782.837,-14007.537,-34109.555,-4349.618,-34588.447,-0.008,0.975,-0.247,0.275,1.038,-2.258,73.333,137.000,1.000
-15651.531,-13560.255,99056.101,119151.586,-13987.113,-34164.365,-4277.481,-34489.009,-0.009,0.972,-0.244,0.275,1.007,-2.106,73.333,138.000,1.000
-15807.913,-13898.516,97488.211,117543.876,-13950.726,-34219.615,-4195.565,-34406.107,-0.010,0.969,-0.247,0.427,1.007,-2.197,73.333,139.000,1.000
-15926.153,-14215.760,95936.742,115967.453,-13914.808,-34252.078,-4125.094,-34327.350,-0.011,0.968,-0.248,0.458,0.946,-2.045,73.333,140.000,1.000
-15969.604,-14551.203,94394.093,114404.586,-13893.876,-34261.656,-4077.270,-34234.046,-0.012,0.967,-0.247,0.488,0.824,-2.136,73.333,141.000,1.000
-15978.947,-14913.150,92854.744,112835.696,-13881.147,-34271.931,-4036.919,-34125.607,-0.013,0.968,-0.246,0.610,0.702,-2.167,73.333,142.000,1.000
-16036.323,-15271.627,91321.411,111261.855,-13852.853,-34304.202,-3977.821,-34021.629,-0.014,0.964,-0.246,0.793,0.641,-2.075,73.333,143.000,1.000
-16172.535,-15591.523,89801.785,109701.563,-13797.250,-34350.323,-3895.295,-33935.138,-0.018,0.964,-0.245,0.824,0.580,-1.984,73.333,144.000,1.000
-16319.136,-15871.667,88299.650,108168.312,-13732.659,-34379.190,-3815.140,-33853.128,-0.020,0.963,-0.244,0.977,0.427,-1.923,73.333,145.000,1.000
-16383.821,-16149.939,86809.849,106654.992,-13686.869,-34376.456,-3764.072,-33754.789,-0.019,0.962,-0.242,1.038,0.305,-1.740,73.333,146.000,1.000
-16371.521,-16462.915,85323.702,105142.553,-13660.323,-34367.062,-3735.162,-33641.983,-0.018,0.959,-0.241,1.282,0.122,-1.648,73.333,147.000,1.000
-16390.601,-16801.915,83839.282,103622.441,-13623.049,-34385.801,-3694.016,-33537.991,-0.020,0.958,-0.239,1.373,-0.122,-1.648,73.333,148.000,1.000
-16516.725,-17120.942,82363.684,102106.216,-13554.030,-34430.683,-3621.998,-33455.060,-0.021,0.955,-0.237,1.434,-0.275,-1.495,73.333,149.000,1.000
-16684.931,-17392.214,80903.823,100610.959,-13471.542,-34461.818,-3540.889,-33375.724,-0.020,0.955,-0.237,1.495,-0.519,-1.373,73.333,150.000,1.000
-16764.621,-17641.064,79457.384,99138.232,-13410.435,-34451.138,-3483.902,-33274.956,-0.020,0.956,-0.235,1.556,-0.519,-1.312,73.333,151.000,1.000
-16732.347,-17912.629,78015.876,97672.359,-13374.420,-34419.219,-3450.553,-33153.763,-0.022,0.958,-0.236,1.801,-0.671,-1.312,73.333,152.000,1.000
-16712.167,-18211.935,76575.631,96199.895,-13329.517,-34410.070,-3408.217,-33039.636,-0.023,0.961,-0.238,1.862,-0.885,-1.282,73.333,153.000,1.000
-16815.918,-18495.572,75142.408,94726.303,-13249.952,-34434.101,-3338.129,-32951.170,-0.021,0.965,-0.240,1.831,-1.221,-1.221,73.333,154.000,1.000
-16989.668,-18727.232,73723.898,93269.177,-13154.006,-34453.151,-3260.872,-32872.223,-0.020,0.970,-0.242,1.923,-1.404,-1.007,73.333,155.000,1.000
-17080.666,-18926.702,72319.539,91835.787,-13079.854,-34430.506,-3207.071,-32772.277,-0.020,0.972,-0.246,1.801,-1.526,-0.824,73.333,156.000,1.000
-17042.627,-19145.949,70920.856,90413.241,-13033.718,-34380.524,-3174.648,-32646.564,-0.019,0.972,-0.244,1.740,-1.648,-0.793,73.333,157.000,1.000
-16999.710,-19399.630,69522.693,88985.080,-12980.912,-34348.515,-3130.286,-32520.571,-0.016,0.971,-0.244,1.617,-1.740,-0.519,73.333,158.000,1.000
-17077.861,-19643.079,68130.582,87553.315,-12892.530,-34347.618,-3053.590,-32413.796,-0.015,0.969,-0.241,1.617,-1.892,-0.336,73.333,159.000,1.000
-17234.036,-19832.568,66753.232,86135.804,-12785.011,-34341.733,-2966.260,-32315.701,-0.012,0.962,-0.243,1.831,-1.862,-0.092,73.333,160.000,1.000
-17317.146,-19987.677,65390.034,84741.933,-12698.386,-34297.612,-2905.390,-32205.360,-0.010,0.960,-0.245,1.923,-1.892,0.000,73.333,161.000,1.000
-17275.339,-20167.543,64031.262,83359.523,-12642.317,-34231.763,-2874.205,-32082.767,-0.009,0.958,-0.245,2.197,-1.709,0.000,73.333,162.000,1.000
-17227.133,-20392.967,62670.586,81970.366,-12584.001,-34188.906,-2838.173,-31969.118,-0.006,0.957,-0.243,2.625,-1.770,0.092,73.333,163.000,1.000
-17300.069,-20620.418,61312.988,80573.852,-12493.893,-34182.511,-2772.489,-31877.363,-0.005,0.958,-0.242,3.052,-1.678,0.122,73.333,164.000,1.000
-17456.914,-20801.385,59968.045,79187.788,-12385.482,-34176.983,-2694.645,-31793.084,-0.004,0.958,-0.242,3.418,-1.770,0.122,73.333,165.000,1.000
-17546.743,-20946.948,58637.575,77825.136,-12295.412,-34135.252,-2638.197,-31692.208,-0.002,0.959,-0.246,3.815,-1.587,0.244,73.333,166.000,1.000
-17510.218,-21112.303,57313.590,76477.088,-12233.100,-34068.265,-2606.591,-31572.343,-0.005,0.959,-0.241,4.181,-1.587,0.153,73.333,167.000,1.000
-17458.975,-21324.093,55988.857,75124.763,-12169.214,-34020.491,-2570.883,-31456.004,-0.007,0.958,-0.240,4.517,-1.526,0.031,73.333,168.000,1.000
-17522.650,-21547.934,54666.034,73763.976,-12076.994,-34011.132,-2511.139,-31360.798,-0.007,0.961,-0.241,4.791,-1.495,0.061,73.333,169.000,1.000
-17675.219,-21737.983,53353.436,72410.054,-11968.551,-34010.588,-2443.268,-31277.116,-0.009,0.964,-0.243,4.944,-1.495,-0.061,73.333,170.000,1.000
-17776.247,-21900.572,52053.387,71076.579,-11877.416,-33983.342,-2396.738,-31183.593,-0.010,0.967,-0.245,5.219,-1.495,-0.183,73.333,171.000,1.000
-17763.947,-22085.778,50759.007,69757.029,-11812.948,-33937.144,-2375.192,-31077.320,-0.011,0.967,-0.245,5.341,-1.617,-0.305,73.333,172.000,1.000
-17734.821,-22320.246,49463.504,68433.829,-11749.104,-33911.817,-2352.833,-30977.446,-0.013,0.965,-0.244,5.432,-1.648,-0.519,73.333,173.000,1.000
-17806.938,-22572.540,48169.326,67102.208,-11660.872,-33924.369,-2308.940,-30898.046,-0.013,0.965,-0.244,5.463,-1.770,-0.610,73.333,174.000,1.000
-17959.515,-22795.743,46884.919,65776.571,-11557.191,-33945.560,-2252.727,-30828.163,-0.013,0.965,-0.242,5.585,-1.862,-0.732,73.333,175.000,1.000
-18066.052,-22988.217,45613.583,64471.076,-11466.791,-33938.923,-2207.377,-30746.516,-0.014,0.967,-0.241,5.798,-1.953,-0.793,73.333,176.000,1.000
-18066.712,-23189.893,44349.716,63181.273,-11398.346,-33906.873,-2176.983,-30648.551,-0.011,0.971,-0.243,5.951,-2.014,-0.763,73.333,177.000,1.000
-18042.385,-23422.400,43087.078,61891.156,-11329.688,-33882.242,-2141.236,-30549.116,-0.010,0.972,-0.240,5.920,-2.014,-0.793,73.333,178.000,1.000
-18098.555,-23658.575,41826.927,60594.654,-11239.348,-33881.852,-2084.893,-30460.816,-0.008,0.973,-0.239,5.859,-2.014,-0.763,73.333,179.000,1.000
-18225.157,-23861.604,40575.291,59302.495,-11135.707,-33886.827,-2021.069,-30379.258,-0.006,0.973,-0.241,5.859,-2.014,-0.641,73.333,180.000,1.000
-18319.432,-24036.975,39334.069,58026.519,-11044.590,-33872.644,-1975.441,-30292.992,-0.006,0.973,-0.238,5.585,-2.014,-0.549,73.333,181.000,1.000
-18330.177,-24225.992,38098.167,56763.386,-10974.439,-33844.634,-1953.142,-30201.642,-0.005,0.976,-0.239,5.463,-2.075,-0.580,73.333,182.000,1.000
-18323.093,-24450.812,36862.439,55499.578,-10906.549,-33830.219,-1932.949,-30116.677,-0.006,0.980,-0.238,5.249,-2.136,-0.336,73.333,183.000,1.000
-18384.610,-24684.912,35628.985,54230.315,-10821.221,-33839.896,-1894.682,-30044.114,-0.007,0.984,-0.238,4.974,-2.136,-0.244,73.333,184.000,1.000
-18503.391,-24887.229,34404.767,52966.229,-10722.941,-33851.563,-1842.726,-29974.085,-0.008,0.990,-0.236,4.730,-2.167,-0.244,73.333,185.000,1.000
-18589.080,-25052.371,33193.062,51719.402,-10631.617,-33838.329,-1795.844,-29891.512,-0.011,0.998,-0.235,4.211,-2.228,-0.153,73.333,186.000,1.000
-18594.455,-25211.354,31990.108,50488.087,-10554.420,-33801.229,-1760.096,-29793.141,-0.010,1.004,-0.233,3.632,-2.441,-0.305,73.333,187.000,1.000
-18575.196,-25388.857,30790.200,49259.546,-10477.748,-33766.200,-1723.841,-29691.092,-0.010,1.012,-0.234,3.021,-2.563,-0.336,73.333,188.000,1.000
-18613.270,-25576.192,29592.066,48026.257,-10388.094,-33751.553,-1678.482,-29599.072,-0.012,1.019,-0.233,2.472,-2.747,-0.397,73.333,189.000,1.000
-18711.333,-25750.006,28399.050,46794.290,-10290.870,-33747.235,-1631.609,-29517.024,-0.012,1.024,-0.234,1.709,-2.869,-0.397,73.333,190.000,1.000
-18796.388,-25905.613,27213.998,45574.014,-10201.964,-33730.273,-1594.603,-29432.432,-0.012,1.027,-0.232,0.854,-3.021,-0.488,73.333,191.000,1.000
-18818.639,-26059.486,26036.041,44366.671,-10125.479,-33693.737,-1565.008,-29335.462,-0.008,1.026,-0.232,-0.031,-3.174,-0.580,73.333,192.000,1.000
-18810.735,-26222.820,24862.717,43164.090,-10048.776,-33652.447,-1529.414,-29229.585,-0.005,1.022,-0.237,-0.793,-3.265,-0.610,73.333,193.000,1.000
-18836.057,-26385.894,23693.658,41960.415,-9960.259,-33621.350,-1481.872,-29125.844,0.000,1.016,-0.232,-1.373,-3.326,-0.854,73.333,194.000,1.000
-18904.770,-26533.352,22530.680,40759.350,-9864.627,-33597.403,-1432.445,-29030.015,0.004,1.008,-0.236,-2.075,-3.387,-1.007,73.333,195.000,1.000
-18969.754,-26667.547,21374.408,39567.748,-9775.965,-33567.984,-1395.244,-28939.564,0.010,1.001,-0.230,-2.411,-3.357,-1.343,73.333,196.000,1.000
-18996.296,-26805.778,20222.861,38385.736,-9699.176,-33529.725,-1371.125,-28849.989,0.017,0.991,-0.226,-2.838,-3.204,-1.678,73.333,197.000,1.000
-19004.804,-26955.223,19074.482,37207.337,-9624.323,-33490.365,-1346.405,-28759.248,0.021,0.982,-0.228,-2.960,-2.960,-1.923,73.333,198.000,1.000
-19035.486,-27102.587,17930.951,36029.586,-9540.173,-33454.916,-1309.255,-28666.736,0.021,0.979,-0.229,-3.113,-2.686,-2.197,73.333,199.000,1.000
-19092.388,-27233.610,16795.283,34856.690,-9448.189,-33418.524,-1263.287,-28571.882,0.022,0.977,-0.229,-3.174,-2.441,-2.441,73.333,200.000,1.000
-19142.511,-27354.114,15667.879,33694.001,-9359.101,-33374.774,-1221.296,-28474.737,0.023,0.973,-0.228,-3.174,-2.197,-2.716,73.333,201.000,1.000
-19163.840,-27482.961,14546.064,32540.780,-9278.280,-33325.629,-1188.355,-28376.074,0.026,0.969,-0.227,-3.052,-1.862,-2.838,73.333,202.000,1.000
-19174.512,-27628.356,13427.285,31391.136,-9200.111,-33279.959,-1157.588,-28277.388,0.025,0.962,-0.226,-2.930,-1.617,-2.869,73.333,203.000,1.000
-19206.469,-27779.168,12311.631,30241.354,-9117.280,-33243.352,-1122.137,-28180.523,0.024,0.956,-0.227,-2.625,-1.373,-3.052,73.333,204.000,1.000
-19262.381,-27919.554,11201.186,29094.202,-9030.534,-33211.639,-1084.279,-28085.781,0.020,0.952,-0.227,-2.411,-1.099,-3.174,73.333,205.000,1.000
-19314.287,-28046.996,10097.397,27954.987,-8946.371,-33176.264,-1050.656,-27991.513,0.017,0.950,-0.226,-1.984,-0.946,-3.418,73.333,206.000,1.000
-19342.088,-28172.020,8999.541,26824.768,-8867.766,-33134.442,-1022.837,-27896.446,0.013,0.952,-0.227,-1.648,-0.946,-3.967,73.333,207.000,1.000
-19357.836,-28302.280,7905.988,25699.582,-8790.815,-33091.033,-995.738,-27801.679,0.008,0.951,-0.227,-1.221,-0.946,-4.333,73.333,208.000,1.000
-19386.108,-28432.818,6816.434,24576.129,-8710.548,-33051.019,-964.527,-27709.381,0.002,0.952,-0.223,-0.793,-1.007,-4.761,73.333,209.000,1.000
-19431.432,-28554.306,5732.151,23455.921,-8627.213,-33013.799,-930.556,-27620.203,-0.003,0.951,-0.225,-0.244,-1.129,-5.035,73.333,210.000,1.000
-19475.579,-28666.369,4654.255,22342.885,-8545.025,-32975.548,-898.677,-27532.367,-0.009,0.951,-0.225,0.153,-1.343,-5.341,73.333,211.000,1.000
-19503.157,-28777.671,3582.528,21238.293,-8466.126,-32934.523,-870.300,-27442.548,-0.010,0.952,-0.223,0.732,-1.740,-5.615,73.333,212.000,1.000
-19520.197,-28895.257,2515.817,20139.418,-8388.403,-32892.992,-842.366,-27348.710,-0.014,0.953,-0.223,1.251,-2.167,-5.890,73.333,213.000,1.000
-19543.779,-29017.829,1453.261,19043.106,-8309.172,-32854.022,-812.300,-27252.034,-0.018,0.955,-0.227,1.740,-2.441,-6.104,73.333,214.000,1.000
-19579.617,-29139.351,395.000,17949.473,-8228.813,-32817.283,-781.271,-27155.750,-0.021,0.958,-0.224,2.167,-2.747,-6.348,73.333,215.000,1.000
-19617.507,-29256.794,-658.309,16861.172,-8149.816,-32779.468,-752.213,-27062.740,-0.020,0.963,-0.222,2.655,-3.174,-6.317,73.333,216.000,1.000
-19646.686,-29371.714,-1706.250,15779.879,-8073.219,-32737.982,-725.847,-26973.476,-0.021,0.968,-0.223,2.991,-3.662,-6.439,73.333,217.000,1.000
-19668.815,-29485.442,-2748.781,14704.682,-7997.351,-32693.290,-700.092,-26886.359,-0.026,0.972,-0.220,3.296,-4.059,-6.409,73.333,218.000,1.000
-19693.264,-29595.614,-3785.873,13633.895,-7920.026,-32647.702,-672.721,-26799.466,-0.029,0.975,-0.219,3.510,-4.425,-6.348,73.333,219.000,1.000
-19723.970,-29698.552,-4817.367,12567.404,-7840.971,-32602.587,-643.356,-26711.421,-0.029,0.975,-0.220,3.784,-4.730,-6.195,73.333,220.000,1.000
-19755.898,-29794.474,-5843.333,11506.430,-7761.822,-32557.625,-613.188,-26621.577,-0.032,0.973,-0.223,3.998,-5.157,-6.104,73.333,221.000,1.000
-19782.864,-29888.259,-6864.326,10451.468,-7684.279,-32512.098,-583.520,-26529.774,-0.036,0.971,-0.220,3.967,-5.432,-6.012,73.333,222.000,1.000
-19805.067,-29984.991,-7881.078,9401.356,-7608.736,-32466.274,-555.107,-26436.735,-0.038,0.970,-0.222,3.906,-5.615,-6.042,73.333,223.000,1.000
-19827.567,-30085.539,-8893.834,8354.705,-7534.302,-32421.135,-528.085,-26344.291,-0.042,0.969,-0.218,3.967,-5.707,-5.981,73.333,224.000,1.000
-19853.655,-30186.431,-9901.984,7311.765,-7459.671,-32376.826,-501.804,-26254.345,-0.046,0.966,-0.212,4.120,-6.226,-5.646,73.333,225.000,1.000
-19882.178,-30283.942,-10904.612,6274.208,-7384.195,-32332.236,-475.396,-26167.740,-0.048,0.967,-0.214,4.700,-6.989,-5.524,73.333,226.000,1.000
-19910.006,-30377.318,-11901.402,5243.181,-7308.415,-32286.188,-449.027,-26083.578,-0.046,0.970,-0.221,5.066,-7.568,-5.096,73.333,227.000,1.000
-19935.645,-30468.329,-12892.973,4218.000,-7233.537,-32238.970,-424.213,-26000.124,-0.046,0.969,-0.224,5.341,-7.935,-4.913,73.333,228.000,1.000
-19960.198,-30558.611,-13880.240,3197.005,-7160.163,-32192.299,-401.995,-25916.251,-0.047,0.965,-0.225,5.402,-8.362,-4.639,73.333,229.000,1.000
-19985.648,-30648.021,-14863.541,2179.378,-7087.646,-32147.616,-381.249,-25831.661,-0.049,0.965,-0.227,5.554,-8.667,-4.272,73.333,230.000,1.000
-20012.725,-30735.822,-15842.533,1165.743,-7015.041,-32104.548,-359.664,-25746.233,-0.047,0.963,-0.228,5.737,-8.942,-3.998,73.333,231.000,1.000
-20039.456,-30822.107,-16816.721,157.189,-6942.422,-32060.560,-335.741,-25659.129,-0.046,0.957,-0.232,6.073,-9.064,-3.632,73.333,232.000,1.000
-20062.590,-30907.789,-17785.903,-845.911,-6870.768,-32012.824,-309.611,-25569.483,-0.041,0.948,-0.232,6.470,-9.186,-3.235,73.333,233.000,1.000
-20081.416,-30993.393,-18750.135,-1844.026,-6800.431,-31960.934,-282.227,-25477.976,-0.038,0.941,-0.231,7.111,-9.216,-2.869,73.333,234.000,1.000
-20099.730,-31078.017,-19709.468,-2837.696,-6730.358,-31907.307,-254.409,-25387.084,-0.037,0.939,-0.233,7.782,-9.216,-2.686,73.333,235.000,1.000
-20122.773,-31160.042,-20663.909,-3826.935,-6659.387,-31854.717,-227.141,-25299.572,-0.037,0.941,-0.232,8.575,-9.216,-2.533,73.333,236.000,1.000
-20151.170,-31238.457,-21613.441,-4811.253,-6587.864,-31803.444,-201.966,-25215.848,-0.037,0.949,-0.236,8.942,-9.186,-2.197,73.333,237.000,1.000
-20179.738,-31313.974,-22558.114,-5790.267,-6517.353,-31751.563,-180.044,-25133.353,-0.035,0.958,-0.242,9.369,-9.003,-1.923,73.333,238.000,1.000
-20203.238,-31388.866,-23498.083,-6764.213,-6448.645,-31697.668,-160.342,-25048.566,-0.034,0.961,-0.245,9.613,-9.003,-1.495,73.333,239.000,1.000
-20222.105,-31465.181,-24433.444,-7733.675,-6380.635,-31642.362,-139.717,-24959.387,-0.031,0.958,-0.253,9.796,-8.728,-1.007,73.333,240.000,1.000
-20241.386,-31543.842,-25364.170,-8698.951,-6311.794,-31587.172,-115.756,-24866.250,-0.028,0.944,-0.266,10.223,-8.545,-0.580,73.333,241.000,1.000
-20263.874,-31624.725,-26290.248,-9659.803,-6242.344,-31532.107,-89.072,-24771.042,-0.021,0.919,-0.268,10.803,-8.240,-0.061,73.333,242.000,1.000
-20286.724,-31706.501,-27211.812,-10615.892,-6174.135,-31475.391,-62.546,-24676.266,-0.011,0.921,-0.243,12.054,-7.538,0.305,73.333,243.000,1.000
-20305.887,-31785.866,-28128.992,-11567.235,-6108.180,-31416.117,-38.292,-24585.395,-0.020,0.956,-0.220,14.160,-7.111,0.610,73.333,244.000,1.000
-20322.054,-31857.605,-29041.609,-12514.047,-6043.088,-31355.994,-15.870,-24502.187,-0.024,0.991,-0.228,14.252,-6.897,0.824,73.333,245.000,1.000
-20340.158,-31917.931,-29949.255,-13456.279,-5976.704,-31297.364,6.250,-24427.620,-0.018,1.005,-0.256,13.000,-6.561,1.129,73.333,246.000,1.000
-20362.559,-31969.458,-30851.613,-14393.429,-5908.756,-31239.757,28.580,-24356.083,-0.012,1.012,-0.269,11.719,-6.073,1.526,73.333,247.000,1.000
-20385.785,-32023.105,-31748.768,-15325.078,-5841.096,-31180.463,50.364,-24276.761,-0.009,1.018,-0.268,10.529,-5.493,1.923,73.333,248.000,1.000
-20405.343,-32092.091,-32641.260,-16251.629,-5775.365,-31118.579,71.077,-24181.264,-0.006,1.010,-0.261,9.705,-5.005,1.984,73.333,249.000,1.000
-20421.730,-32180.527,-33529.693,-17174.147,-5711.137,-31056.909,91.382,-24071.203,-0.008,0.983,-0.260,8.942,-4.517,2.167,73.333,250.000,1.000
-20439.677,-32278.075,-34414.261,-18093.310,-5646.853,-30999.562,112.063,-23959.155,-0.011,0.956,-0.263,8.667,-3.784,2.502,73.333,251.000,1.000
-20461.292,-32366.711,-35294.643,-19008.682,-5582.079,-30947.827,132.713,-23861.072,-0.012,0.939,-0.269,8.636,-3.326,2.838,73.333,252.000,1.000
-20482.985,-32433.650,-36170.522,-19919.360,-5518.095,-30899.143,151.951,-23786.342,-0.012,0.942,-0.275,8.881,-2.869,2.960,73.333,253.000,1.000
-20500.557,-32478.950,-37041.998,-20825.149,-5456.070,-30850.035,168.923,-23732.507,-0.011,0.955,-0.274,9.033,-2.472,2.960,73.333,254.000,1.000
-20515.428,-32513.396,-37909.310,-21726.649,-5395.307,-30799.167,183.972,-23687.386,-0.007,0.971,-0.274,9.003,-2.014,3.113,73.333,255.000,1.000
-20533.661,-32551.752,-38772.361,-22624.309,-5334.100,-30747.727,197.486,-23636.652,-0.006,0.978,-0.278,8.575,-1.556,3.387,73.333,256.000,1.000
-20558.070,-32605.759,-39630.741,-23517.715,-5271.976,-30697.267,209.269,-23570.695,-0.005,0.979,-0.278,8.209,-1.038,3.662,73.333,257.000,1.000
-20583.973,-32679.552,-40484.166,-24406.052,-5210.183,-30647.901,219.690,-23487.853,-0.004,0.977,-0.278,7.812,-0.488,3.998,73.333,258.000,1.000
-20604.570,-32768.938,-41332.718,-25289.061,-5149.825,-30598.574,230.808,-23393.869,-0.001,0.977,-0.280,7.355,0.061,4.364,73.333,259.000,1.000
-20619.149,-32864.067,-42176.675,-26167.296,-5090.315,-30548.346,245.072,-23298.489,-0.001,0.978,-0.280,6.958,0.610,4.608,73.333,260.000,1.000
-20633.647,-32953.765,-43016.234,-27041.451,-5030.290,-30496.948,262.816,-23210.568,0.003,0.979,-0.280,6.531,1.038,4.730,73.333,261.000,1.000
-20652.510,-33028.968,-43851.346,-27911.530,-4969.504,-30443.885,281.999,-23133.037,0.003,0.979,-0.282,6.073,1.648,4.852,73.333,262.000,1.000
-20673.383,-33085.649,-44681.883,-28776.969,-4909.154,-30388.395,300.081,-23061.951,0.003,0.978,-0.285,5.493,2.197,4.883,73.333,263.000,1.000
-20691.396,-33126.849,-45507.958,-29637.549,-4850.334,-30330.962,315.971,-22990.411,0.003,0.979,-0.280,5.035,2.625,4.944,73.333,264.000,1.000
-20706.257,-33161.329,-46329.953,-30493.848,-4792.749,-30274.069,330.348,-22913.506,0.002,0.979,-0.281,4.578,3.082,4.974,73.333,265.000,1.000
-20722.608,-33199.490,-47148.196,-31346.638,-4735.380,-30220.776,344.176,-22830.751,0.001,0.979,-0.283,4.181,3.479,4.822,73.333,266.000,1.000
-20743.097,-33248.732,-47962.510,-32195.821,-4677.868,-30171.792,357.725,-22744.666,0.001,0.979,-0.282,3.784,3.876,4.608,73.333,267.000,1.000
-20764.233,-33310.871,-48772.241,-33040.362,-4620.709,-30124.537,371.143,-22658.653,0.005,0.976,-0.284,3.052,4.425,4.242,73.333,268.000,1.000
-20780.389,-33381.964,-49576.748,-33879.306,-4564.117,-30075.331,385.496,-22575.628,0.006,0.973,-0.284,2.594,4.700,4.028,73.333,269.000,1.000
-20790.165,-33453.780,-50375.682,-34712.518,-4507.197,-30021.881,402.475,-22496.707,0.008,0.974,-0.281,2.228,5.219,3.754,73.333,270.000,1.000
-20797.308,-33517.475,-51168.998,-35540.418,-4448.755,-29963.957,422.503,-22420.798,0.010,0.973,-0.280,1.892,5.554,3.448,73.333,271.000,1.000
-20805.417,-33567.934,-51956.982,-36363.402,-4388.870,-29902.541,443.482,-22345.272,0.011,0.971,-0.281,1.587,5.798,3.204,73.333,272.000,1.000
-20814.401,-33606.658,-52740.404,-37181.870,-4329.237,-29839.560,461.663,-22267.937,0.010,0.971,-0.278,1.160,6.195,2.899,73.333,273.000,1.000
-20822.585,-33640.539,-53520.248,-37996.453,-4271.567,-29777.749,474.656,-22188.269,0.010,0.968,-0.277,0.793,6.592,2.563,73.333,274.000,1.000
-20830.031,-33676.426,-54296.967,-38807.688,-4215.856,-29719.042,483.955,-22106.637,0.010,0.964,-0.274,0.549,6.897,2.167,73.333,275.000,1.000
-20838.633,-33716.933,-55070.174,-39615.527,-4160.728,-29663.169,493.680,-22023.672,0.010,0.960,-0.276,0.397,7.141,1.892,73.333,276.000,1.000
-20848.841,-33760.603,-55839.018,-40419.233,-4105.129,-29607.940,506.867,-21940.223,0.010,0.955,-0.276,0.275,7.355,1.556,73.333,277.000,1.000
-20858.133,-33804.795,-56602.846,-41217.928,-4049.192,-29551.115,523.217,-21857.622,0.009,0.953,-0.281,0.336,7.721,1.251,73.333,278.000,1.000
-20863.922,-33847.783,-57361.673,-42011.406,-3993.608,-29492.105,540.307,-21777.172,0.007,0.951,-0.278,0.336,7.843,0.854,73.333,279.000,1.000
-20867.163,-33888.710,-58116.073,-42800.331,-3938.660,-29431.946,556.195,-21698.993,0.005,0.948,-0.273,0.549,7.782,0.519,73.333,280.000,1.000
-20871.698,-33927.004,-58866.655,-43585.576,-3884.160,-29371.991,570.457,-21622.005,0.002,0.950,-0.276,0.793,7.751,0.122,73.333,281.000,1.000
-20879.531,-33962.083,-59613.562,-44367.358,-3830.015,-29312.500,583.622,-21544.597,-0.002,0.953,-0.271,0.977,7.751,-0.153,73.333,282.000,1.000
-20888.809,-33994.322,-60356.507,-45145.177,-3776.473,-29252.925,596.223,-21465.847,-0.006,0.951,-0.269,1.038,7.721,-0.305,73.333,283.000,1.000
-20896.902,-34026.116,-61095.251,-45918.585,-3723.789,-29193.312,608.615,-21386.162,-0.010,0.951,-0.267,1.190,7.599,-0.519,73.333,284.000,1.000
-20903.870,-34060.795,-61829.892,-46687.754,-3671.862,-29134.675,621.215,-21306.555,-0.014,0.949,-0.270,1.282,7.355,-0.671,73.333,285.000,1.000
-20912.180,-34100.416,-62560.652,-47453.165,-3620.346,-29078.063,634.099,-21227.814,-0.018,0.951,-0.268,1.404,7.019,-0.854,73.333,286.000,1.000
-20922.960,-34144.024,-63287.485,-48214.872,-3569.035,-29023.141,646.837,-21149.773,-0.019,0.952,-0.271,1.587,6.561,-1.038,73.333,287.000,1.000
-20934.126,-34188.062,-64010.125,-48972.437,-3518.073,-28968.168,658.966,-21071.631,-0.019,0.953,-0.268,1.709,6.073,-1.312,73.333,288.000,1.000
-20942.703,-34228.489,-64728.359,-49725.460,-3467.628,-28911.506,670.556,-20992.849,-0.021,0.952,-0.268,1.862,5.676,-1.312,73.333,289.000,1.000
-20948.189,-34262.588,-65442.094,-50473.890,-3417.444,-28852.840,682.152,-20913.641,-0.022,0.955,-0.267,2.075,5.219,-1.617,73.333,290.000,1.000
-20953.114,-34290.073,-66151.382,-51217.960,-3367.105,-28793.365,693.973,-20835.257,-0.020,0.958,-0.268,2.136,4.761,-1.892,73.333,291.000,1.000
-20960.009,-34313.104,-66856.409,-51957.918,-3316.639,-28734.701,705.658,-20759.047,-0.021,0.962,-0.275,2.075,4.425,-2.167,73.333,292.000,1.000
-20969.224,-34335.746,-67557.422,-52693.866,-3266.590,-28677.723,716.823,-20685.251,-0.021,0.964,-0.273,2.014,4.303,-2.289,73.333,293.000,1.000
-20979.531,-34362.477,-68254.586,-53425.797,-3217.402,-28622.123,727.811,-20612.380,-0.024,0.966,-0.271,1.862,3.876,-2.411,73.333,294.000,1.000
-20989.687,-34395.902,-68947.874,-54153.700,-3168.945,-28566.866,739.563,-20537.778,-0.026,0.968,-0.271,1.740,3.357,-2.441,73.333,295.000,1.000
-20999.383,-34436.001,-69637.174,-54877.652,-3120.810,-28511.392,752.349,-20459.814,-0.029,0.967,-0.271,1.709,2.869,-2.411,73.333,296.000,1.000
-21008.546,-34480.642,-70322.410,-55597.708,-3072.835,-28455.959,765.157,-20379.222,-0.029,0.965,-0.271,1.678,2.411,-2.411,73.333,297.000,1.000
-21016.965,-34526.747,-71003.652,-56313.863,-3025.269,-28401.207,776.393,-20298.802,-0.029,0.961,-0.271,1.465,1.953,-2.411,73.333,298.000,1.000
-21024.911,-34571.461,-71681.136,-57026.196,-2978.495,-28347.820,785.062,-20221.887,-0.031,0.961,-0.272,1.495,1.495,-2.380,73.333,299.000,1.000
-21033.280,-34612.501,-72355.043,-57734.857,-2932.595,-28296.177,791.442,-20150.476,-0.033,0.962,-0.276,1.465,1.099,-2.350,73.333,300.000,1.000
-21042.951,-34648.492,-73025.283,-58439.864,-2887.264,-28246.148,796.705,-20084.508,-0.031,0.963,-0.276,1.465,0.580,-2.258,73.333,301.000,1.000
-21053.549,-34679.275,-73691.508,-59140.949,-2842.085,-28196.839,802.135,-20021.645,-0.032,0.962,-0.272,1.465,0.183,-2.197,73.333,302.000,1.000
-21063.356,-34706.252,-74353.343,-59837.684,-2796.823,-28146.764,808.545,-19958.018,-0.034,0.964,-0.274,1.312,-0.305,-2.075,73.333,303.000,1.000
-21070.422,-34732.008,-75010.558,-60529.742,-2751.418,-28094.304,816.452,-19889.822,-0.035,0.961,-0.273,1.343,-0.671,-1.831,73.333,304.000,1.000
-21073.758,-34758.826,-75663.157,-61217.117,-2705.890,-28038.250,826.216,-19815.147,-0.035,0.962,-0.275,1.434,-1.038,-1.770,73.333,305.000,1.000
-21074.192,-34787.701,-76311.433,-61900.170,-2660.412,-27978.684,837.450,-19735.460,-0.033,0.960,-0.274,1.373,-1.343,-1.495,73.333,306.000,1.000
-21073.636,-34817.841,-76955.762,-62579.303,-2615.239,-27917.007,849.031,-19654.604,-0.035,0.961,-0.273,1.221,-1.770,-1.404,73.333,307.000,1.000
-21073.744,-34846.963,-77596.367,-63254.679,-2570.550,-27855.018,859.947,-19576.201,-0.036,0.962,-0.275,1.160,-2.289,-1.251,73.333,308.000,1.000
-21075.167,-34872.468,-78233.239,-63926.233,-2526.354,-27793.908,869.884,-19501.581,-0.036,0.961,-0.276,1.160,-2.533,-1.099,73.333,309.000,1.000
-21077.655,-34892.622,-78866.167,-64593.790,-2482.461,-27733.919,878.713,-19429.925,-0.037,0.961,-0.273,1.038,-2.930,-0.946,73.333,310.000,1.000
-21080.749,-34907.560,-79494.872,-65257.177,-2438.591,-27674.835,885.931,-19360.075,-0.037,0.959,-0.274,1.038,-3.326,-0.824,73.333,311.000,1.000
-21083.612,-34918.971,-80119.128,-65916.233,-2394.511,-27616.005,891.609,-19290.656,-0.038,0.957,-0.275,0.885,-3.693,-0.671,73.333,312.000,1.000
-21085.053,-34929.158,-80738.906,-66570.883,-2350.205,-27556.489,896.938,-19219.715,-0.037,0.959,-0.276,0.946,-4.181,-0.671,73.333,313.000,1.000
-21084.292,-34940.149,-81354.426,-67221.258,-2305.924,-27495.737,903.247,-19145.710,-0.037,0.955,-0.278,0.854,-4.517,-0.610,73.333,314.000,1.000
-21081.590,-34952.780,-81966.043,-67867.676,-2262.035,-27433.913,910.993,-19068.716,-0.037,0.956,-0.278,0.854,-4.944,-0.549,73.333,315.000,1.000
-21078.370,-34966.673,-82574.125,-68510.542,-2218.856,-27371.767,919.752,-18990.693,-0.035,0.958,-0.276,1.007,-5.249,-0.519,73.333,316.000,1.000
-21076.211,-34980.645,-83178.904,-69150.132,-2176.532,-27309.968,928.876,-18914.040,-0.032,0.957,-0.278,1.068,-5.554,-0.397,73.333,317.000,1.000
-21075.999,-34993.542,-83780.445,-69786.518,-2135.064,-27248.808,937.666,-18840.379,-0.030,0.958,-0.277,1.099,-5.829,-0.397,73.333,318.000,1.000
-21077.438,-35004.622,-84378.636,-70419.565,-2094.351,-27188.179,945.427,-18770.000,-0.028,0.958,-0.277,1.038,-5.829,-0.519,73.333,319.000,1.000
-21078.933,-35013.128,-84973.117,-71048.889,-2054.099,-27127.322,952.014,-18701.478,-0.026,0.959,-0.282,0.824,-6.073,-0.549,73.333,320.000,1.000
-21078.944,-35018.951,-85563.470,-71674.074,-2013.935,-27065.365,957.953,-18632.636,-0.022,0.962,-0.282,0.641,-6.165,-0.580,73.333,321.000,1.000
-21077.191,-35023.351,-86149.503,-72294.942,-1973.638,-27002.116,963.953,-18561.925,-0.020,0.963,-0.283,0.519,-6.165,-0.763,73.333,322.000,1.000
-21074.782,-35028.539,-86731.359,-72911.633,-1933.267,-26938.316,970.145,-18489.441,-0.017,0.966,-0.286,0.397,-6.165,-0.946,73.333,323.000,1.000
-21073.104,-35036.369,-87309.384,-73524.474,-1893.123,-26875.043,975.993,-18416.624,-0.014,0.967,-0.286,0.153,-6.165,-1.068,73.333,324.000,1.000
-21072.565,-35046.982,-87883.859,-74133.705,-1853.500,-26812.708,981.018,-18344.788,-0.011,0.969,-0.287,-0.061,-5.829,-1.160,73.333,325.000,1.000
-21072.801,-35058.991,-88454.867,-74739.363,-1814.489,-26750.994,985.366,-18274.379,-0.009,0.972,-0.284,-0.244,-5.585,-1.373,73.333,326.000,1.000
-21073.279,-35070.489,-89022.293,-75341.345,-1775.940,-26689.307,989.921,-18204.842,-0.008,0.972,-0.283,-0.702,-5.310,-1.526,73.333,327.000,1.000
-21073.880,-35080.412,-89585.945,-75939.536,-1737.611,-26627.388,995.473,-18135.422,-0.009,0.972,-0.280,-1.007,-5.005,-1.831,73.333,328.000,1.000
-21074.946,-35089.389,-90145.651,-76533.847,-1699.340,-26565.624,1001.767,-18065.936,-0.010,0.974,-0.280,-1.373,-4.639,-2.075,73.333,329.000,1.000
-21076.498,-35098.881,-90701.299,-77124.195,-1661.074,-26504.651,1007.761,-17996.550,-0.009,0.974,-0.281,-1.709,-4.333,-2.319,73.333,330.000,1.000
-21078.040,-35110.032,-91252.893,-77710.563,-1622.855,-26445.027,1012.634,-17927.552,-0.008,0.974,-0.279,-2.075,-4.028,-2.502,73.333,331.000,1.000
-21078.854,-35122.862,-91800.485,-78292.978,-1584.700,-26386.893,1016.517,-17858.942,-0.009,0.978,-0.280,-2.533,-3.632,-2.869,73.333,332.000,1.000
-21078.522,-35136.156,-92344.072,-78871.410,-1546.508,-26329.697,1020.376,-17790.377,-0.010,0.978,-0.280,-2.899,-3.265,-3.082,73.333,333.000,1.000
-21076.784,-35147.778,-92883.608,-79445.778,-1508.171,-26271.936,1025.790,-17720.967,-0.008,0.978,-0.280,-3.265,-2.960,-3.113,73.333,334.000,1.000
-21073.113,-35155.260,-93419.158,-80016.124,-1469.802,-26211.431,1034.321,-17649.172,-0.006,0.977,-0.275,-3.723,-2.472,-3.357,73.333,335.000,1.000
-21067.476,-35157.322,-93951.062,-80582.795,-1431.847,-26146.902,1045.718,-17574.277,-0.008,0.976,-0.274,-4.181,-2.136,-3.387,73.333,336.000,1.000
-21060.713,-35154.415,-94479.761,-81146.253,-1394.763,-26078.932,1057.247,-17497.416,-0.007,0.971,-0.273,-4.547,-1.678,-3.510,73.333,337.000,1.000
-21054.126,-35147.943,-95005.418,-81706.672,-1358.619,-26009.382,1065.454,-17421.150,-0.006,0.966,-0.268,-4.852,-1.221,-3.723,73.333,338.000,1.000
-21048.530,-35139.278,-95527.786,-82263.798,-1323.073,-25940.136,1068.588,-17347.986,-0.008,0.966,-0.266,-4.974,-0.824,-3.784,73.333,339.000,1.000
-21043.486,-35129.209,-96046.373,-82817.116,-1287.619,-25872.114,1067.558,-17278.823,-0.011,0.964,-0.266,-5.280,-0.305,-3.845,73.333,340.000,1.000
-21037.951,-35118.509,-96560.750,-83366.162,-1251.851,-25805.353,1065.067,-17212.767,-0.014,0.965,-0.268,-5.463,0.092,-3.845,73.333,341.000,1.000
-21031.155,-35108.063,-97070.726,-83910.736,-1215.559,-25739.407,1064.161,-17147.587,-0.014,0.965,-0.264,-5.524,0.397,-3.754,73.333,342.000,1.000
-21023.147,-35098.434,-97576.428,-84450.998,-1178.804,-25673.839,1066.647,-17080.975,-0.019,0.964,-0.264,-5.524,0.763,-3.754,73.333,343.000,1.000
-21014.693,-35089.729,-98078.226,-84987.374,-1141.952,-25608.540,1072.180,-17011.907,-0.024,0.965,-0.262,-5.493,0.946,-3.754,73.333,344.000,1.000
-21006.726,-35081.768,-98576.550,-85520.323,-1105.524,-25543.611,1078.775,-16941.005,-0.026,0.961,-0.263,-5.524,1.251,-3.784,73.333,345.000,1.000
-21000.005,-35074.343,-99071.781,-86050.218,-1069.989,-25479.211,1084.460,-16869.937,-0.029,0.960,-0.262,-5.493,1.465,-3.754,73.333,346.000,1.000
-20994.297,-35066.603,-99564.066,-86577.177,-1035.466,-25415.088,1088.848,-16799.716,-0.031,0.957,-0.256,-5.432,1.587,-3.662,73.333,347.000,1.000
-20988.532,-35057.193,-100053.226,-87100.999,-1001.661,-25350.662,1092.715,-16730.225,-0.035,0.956,-0.255,-5.310,1.617,-3.632,73.333,348.000,1.000
-20981.741,-35045.524,-100538.918,-87621.326,-968.167,-25285.684,1096.592,-16661.031,-0.041,0.957,-0.252,-5.219,1.709,-3.601,73.333,349.000,1.000
-20973.374,-35032.133,-101020.873,-88137.864,-934.746,-25220.390,1100.387,-16591.771,-0.044,0.961,-0.248,-5.219,1.587,-3.510,73.333,350.000,1.000
-20963.476,-35018.151,-101499.002,-88650.507,-901.356,-25155.150,1103.873,-16522.319,-0.049,0.963,-0.250,-5.249,1.556,-3.479,73.333,351.000,1.000
-20952.361,-35004.148,-101973.282,-89159.268,-867.933,-25089.727,1107.395,-16452.418,-0.049,0.966,-0.251,-5.219,1.404,-3.296,73.333,352.000,1.000
-20940.475,-34989.894,-102443.778,-89664.263,-834.420,-25023.446,1111.595,-16381.894,-0.049,0.967,-0.249,-5.188,1.282,-3.296,73.333,353.000,1.000
-20928.430,-34975.153,-102910.707,-90165.723,-800.961,-24956.115,1116.558,-16311.210,-0.046,0.968,-0.249,-5.157,1.221,-3.082,73.333,354.000,1.000
-20916.650,-34959.800,-103374.326,-90663.871,-767.865,-24888.160,1121.758,-16241.192,-0.045,0.969,-0.246,-5.249,1.129,-2.869,73.333,355.000,1.000
-20905.246,-34943.693,-103834.770,-91158.798,-735.355,-24820.331,1126.604,-16172.708,-0.040,0.970,-0.247,-5.310,1.099,-2.716,73.333,356.000,1.000
-20893.880,-34926.555,-104291.908,-91650.391,-703.331,-24753.303,1130.895,-16106.150,-0.040,0.972,-0.248,-5.402,1.007,-2.472,73.333,357.000,1.000
-20882.139,-34908.303,-104745.444,-92138.425,-671.470,-24687.489,1134.686,-16041.521,-0.037,0.974,-0.250,-5.554,1.068,-2.014,73.333,358.000,1.000
-20869.836,-34889.202,-105195.118,-92622.704,-639.502,-24622.912,1138.079,-15978.642,-0.035,0.974,-0.247,-5.707,1.068,-1.678,73.333,359.000,1.000
-20856.881,-34869.522,-105640.871,-93103.137,-607.380,-24559.119,1141.217,-15917.024,-0.031,0.977,-0.241,-5.829,1.190,-1.373,73.333,360.000,1.000
-20843.602,-34849.873,-106082.960,-93579.875,-575.363,-24495.698,1144.056,-15856.332,-0.033,0.977,-0.243,-5.890,1.251,-0.946,73.333,361.000,1.000
-20830.692,-34830.946,-106521.807,-94053.256,-543.826,-24432.454,1146.397,-15796.491,-0.031,0.974,-0.243,-6.165,1.434,-0.580,73.333,362.000,1.000
-20818.950,-34812.658,-106957.670,-94523.547,-512.953,-24369.244,1148.291,-15737.489,-0.028,0.975,-0.241,-6.256,1.617,-0.336,73.333,363.000,1.000
-20808.759,-34793.945,-107390.467,-94990.723,-482.601,-24305.777,1150.425,-15678.996,-0.026,0.976,-0.242,-6.317,1.526,-0.061,73.333,364.000,1.000
-20799.701,-34773.401,-107819.890,-95454.524,-452.464,-24241.634,1153.666,-15620.178,-0.024,0.977,-0.241,-6.500,1.678,0.244,73.333,365.000,1.000
-20791.083,-34750.426,-108245.686,-95914.720,-422.347,-24176.677,1158.010,-15560.238,-0.022,0.976,-0.244,-6.683,1.892,0.549,73.333,366.000,1.000
-20782.053,-34725.232,-108667.708,-96371.184,-392.148,-24110.835,1162.473,-15498.545,-0.023,0.975,-0.242,-6.805,1.923,0.824,73.333,367.000,1.000
-20771.871,-34698.603,-109085.962,-96823.919,-361.852,-24043.999,1165.716,-15435.098,-0.022,0.972,-0.241,-6.775,2.075,1.007,73.333,368.000,1.000
-20760.343,-34671.946,-109500.680,-97273.127,-331.630,-23976.350,1166.822,-15370.792,-0.019,0.972,-0.241,-6.897,2.136,1.038,73.333,369.000,1.000
-20747.700,-34646.650,-109912.155,-97719.055,-301.711,-23908.257,1165.864,-15306.730,-0.018,0.970,-0.240,-6.744,2.258,1.068,73.333,370.000,1.000
-20734.436,-34623.330,-110320.495,-98161.800,-272.169,-23840.081,1163.870,-15243.659,-0.017,0.968,-0.240,-6.714,2.350,1.251,73.333,371.000,1.000
-20720.767,-34601.117,-110725.542,-98601.233,-242.853,-23771.738,1162.483,-15181.173,-0.017,0.968,-0.239,-6.531,2.563,1.312,73.333,372.000,1.000
-20706.709,-34578.304,-111127.075,-99037.164,-213.575,-23702.747,1162.983,-15117.894,-0.015,0.965,-0.240,-6.317,2.686,1.221,73.333,373.000,1.000
-20692.558,-34554.191,-111525.089,-99469.590,-184.369,-23632.970,1165.398,-15052.748,-0.014,0.964,-0.240,-6.104,2.808,1.221,73.333,374.000,1.000
-20678.855,-34529.788,-111919.838,-99898.748,-155.521,-23563.119,1168.617,-14985.892,-0.016,0.961,-0.240,-5.829,2.930,1.282,73.333,375.000,1.000
-20666.036,-34506.847,-112311.663,-100324.962,-127.383,-23494.572,1171.189,-14918.815,-0.015,0.959,-0.240,-5.371,2.930,1.251,73.333,376.000,1.000
-20653.684,-34485.939,-112700.749,-100748.404,-100.098,-23428.280,1172.323,-14852.981,-0.016,0.959,-0.242,-5.066,3.174,1.221,73.333,377.000,1.000
-20640.869,-34466.199,-113087.037,-101169.010,-73.513,-23364.202,1172.079,-14788.957,-0.018,0.960,-0.238,-4.700,3.113,1.221,73.333,378.000,1.000
-20627.089,-34446.748,-113470.197,-101586.467,-47.202,-23301.639,1171.081,-14726.434,-0.019,0.961,-0.238,-4.303,3.052,1.160,73.333,379.000,1.000
-20612.524,-34427.599,-113849.729,-102000.280,-20.629,-23239.718,1170.256,-14664.337,-0.020,0.963,-0.239,-3.937,3.052,1.129,73.333,380.000,1.000
-20597.908,-34409.473,-114225.348,-102410.137,6.473,-23177.918,1170.410,-14601.399,-0.022,0.963,-0.237,-3.418,2.899,0.977,73.333,381.000,1.000
-20583.410,-34391.893,-114597.083,-102816.045,34.016,-23115.561,1171.985,-14536.187,-0.022,0.962,-0.236,-3.052,2.716,0.885,73.333,382.000,1.000
-20568.109,-34372.290,-114965.105,-103218.190,61.769,-23051.340,1174.686,-14467.645,-0.027,0.964,-0.239,-2.594,2.380,0.854,73.333,383.000,1.000
-20550.815,-34347.894,-115329.658,-103616.845,89.473,-22984.034,1177.493,-14396.047,-0.031,0.965,-0.238,-2.136,2.228,0.793,73.333,384.000,1.000
-20531.020,-34317.875,-115691.029,-104012.322,116.859,-22913.332,1179.517,-14322.877,-0.037,0.964,-0.241,-1.648,1.892,0.610,73.333,385.000,1.000
-20509.383,-34283.771,-116049.445,-104404.878,143.723,-22840.071,1180.631,-14250.017,-0.044,0.965,-0.239,-1.312,1.495,0.580,73.333,386.000,1.000
-20486.997,-34247.852,-116404.906,-104794.536,170.083,-22765.592,1181.579,-14178.414,-0.047,0.961,-0.239,-0.854,1.038,0.458,73.333,387.000,1.000
-20464.913,-34211.902,-116757.273,-105181.158,196.110,-22691.370,1183.257,-14107.968,-0.050,0.959,-0.238,-0.458,0.488,0.397,73.333,388.000,1.000
-20444.074,-34177.193,-117106.462,-105564.623,221.935,-22618.855,1185.853,-14038.486,-0.055,0.958,-0.239,0.000,-0.061,0.488,73.333,389.000,1.000
-20424.792,-34144.160,-117452.424,-105944.833,247.642,-22548.712,1188.759,-13970.122,-0.057,0.959,-0.239,0.458,-0.793,0.397,73.333,390.000,1.000
-20406.578,-34112.397,-117795.173,-106321.768,273.226,-22480.385,1191.139,-13903.286,-0.056,0.961,-0.241,0.946,-1.434,0.549,73.333,391.000,1.000
-20388.286,-34080.880,-118134.765,-106695.477,298.627,-22412.160,1192.850,-13837.676,-0.053,0.961,-0.242,1.556,-1.953,0.732,73.333,392.000,1.000
-20369.102,-34048.726,-118471.208,-107065.982,323.828,-22342.180,1194.492,-13772.221,-0.050,0.959,-0.243,2.045,-2.563,1.038,73.333,393.000,1.000
-20349.435,-34016.054,-118804.491,-107433.289,348.837,-22269.841,1196.470,-13706.174,-0.049,0.957,-0.240,2.533,-3.082,1.312,73.333,394.000,1.000
-20330.286,-33983.518,-119134.631,-107797.428,373.643,-22195.958,1198.466,-13639.732,-0.048,0.955,-0.244,2.899,-3.448,1.740,73.333,395.000,1.000
-20311.966,-33951.193,-119461.620,-108158.403,398.280,-22121.763,1199.980,-13573.805,-0.046,0.955,-0.244,3.387,-3.967,2.106,73.333,396.000,1.000
-20293.280,-33917.593,-119785.359,-108516.114,422.881,-22047.575,1201.295,-13508.860,-0.042,0.958,-0.252,3.784,-4.333,2.533,73.333,397.000,1.000
-20272.769,-33880.573,-120105.873,-108870.586,447.432,-21972.993,1203.071,-13444.803,-0.038,0.961,-0.252,4.181,-4.608,3.021,73.333,398.000,1.000
-20250.572,-33839.613,-120423.502,-109222.161,471.570,-21898.329,1204.992,-13381.882,-0.034,0.965,-0.254,4.578,-4.913,3.540,73.333,399.000,1.000
-20228.397,-33796.660,-120738.676,-109571.266,494.850,-21825.016,1205.571,-13320.754,-0.033,0.963,-0.254,4.883,-5.096,3.937,73.333,400.000,1.000
-20208.145,-33755.097,-121051.559,-109918.068,517.119,-21754.645,1203.406,-13261.831,-0.033,0.958,-0.252,5.157,-5.280,4.425,73.333,401.000,1.000
-20190.495,-33717.591,-121361.938,-110262.365,538.625,-21687.711,1198.444,-13204.440,-0.031,0.955,-0.252,5.402,-5.432,4.913,73.333,402.000,1.000
-20174.972,-33684.788,-121669.474,-110603.817,559.743,-21623.556,1191.784,-13147.425,-0.030,0.956,-0.254,5.737,-5.432,5.371,73.333,403.000,1.000
-20160.428,-33655.081,-121973.898,-110942.128,580.774,-21560.847,1184.907,-13090.113,-0.029,0.960,-0.258,5.981,-5.524,5.737,73.333,404.000,1.000
-20145.243,-33625.062,-122274.941,-111277.008,601.997,-21497.802,1179.163,-13032.289,-0.027,0.964,-0.261,6.165,-5.707,6.073,73.333,405.000,1.000
-20128.397,-33591.644,-122572.423,-111608.297,623.573,-21433.098,1175.135,-12974.209,-0.024,0.965,-0.262,6.378,-5.707,6.378,73.333,406.000,1.000
-20110.035,-33553.935,-122866.406,-111936.098,645.400,-21366.604,1172.327,-12916.210,-0.022,0.962,-0.260,6.500,-5.890,6.714,73.333,407.000,1.000
-20091.096,-33513.370,-123157.158,-112260.709,667.193,-21299.314,1169.441,-12858.589,-0.019,0.956,-0.258,6.531,-5.920,6.958,73.333,408.000,1.000
-20072.417,-33472.337,-123444.919,-112582.369,688.742,-21232.460,1165.346,-12801.563,-0.014,0.951,-0.260,6.561,-5.829,7.080,73.333,409.000,1.000
-20054.157,-33432.522,-123729.720,-112901.088,710.056,-21166.427,1160.011,-12744.856,-0.008,0.948,-0.263,6.775,-5.768,7.172,73.333,410.000,1.000
-20036.281,-33394.541,-124011.440,-113216.719,731.273,-21100.643,1154.380,-12687.831,-0.008,0.950,-0.265,6.805,-5.676,7.233,73.333,411.000,1.000
-20018.545,-33357.671,-124289.846,-113529.009,752.638,-21033.713,1149.894,-12629.491,-0.004,0.951,-0.266,7.141,-5.493,7.263,73.333,412.000,1.000
-20000.510,-33320.124,-124564.770,-113837.758,774.359,-20964.068,1147.783,-12569.104,-0.004,0.953,-0.267,7.233,-5.219,7.233,73.333,413.000,1.000
-19981.889,-33280.476,-124836.326,-114143.050,796.360,-20891.169,1148.301,-12506.969,-0.003,0.955,-0.267,7.141,-5.066,7.019,73.333,414.000,1.000
-19962.421,-33238.578,-125104.858,-114445.221,818.303,-20815.943,1150.508,-12444.006,-0.001,0.956,-0.268,7.141,-4.883,6.805,73.333,415.000,1.000
-19941.930,-33195.563,-125370.787,-114744.734,839.741,-20740.395,1152.543,-12381.274,0.002,0.956,-0.271,7.141,-4.700,6.531,73.333,416.000,1.000
-19920.268,-33152.745,-125634.373,-115041.898,860.400,-20666.435,1152.622,-12319.434,0.003,0.956,-0.273,7.080,-4.456,6.317,73.333,417.000,1.000
-19897.433,-33110.637,-125895.514,-115336.627,880.394,-20594.850,1150.185,-12258.518,0.006,0.959,-0.272,6.958,-4.242,5.859,73.333,418.000,1.000
-19873.642,-33069.011,-126153.787,-115628.495,900.160,-20525.270,1146.292,-12197.992,0.007,0.959,-0.276,6.805,-3.998,5.554,73.333,419.000,1.000
-19849.209,-33027.396,-126408.754,-115917.053,920.139,-20456.779,1142.825,-12136.995,0.008,0.964,-0.278,6.622,-3.662,5.310,73.333,420.000,1.000
-19824.630,-32985.704,-126660.273,-116202.146,940.480,-20388.603,1141.070,-12075.033,0.009,0.966,-0.278,6.439,-3.448,4.974,73.333,421.000,1.000
-19800.140,-32944.020,-126908.444,-116483.859,961.095,-20320.112,1141.058,-12012.089,0.008,0.969,-0.274,6.134,-3.265,4.639,73.333,422.000,1.000
-19775.724,-32902.399,-127153.499,-116762.418,981.780,-20251.079,1141.640,-11948.938,0.010,0.971,-0.277,5.737,-2.960,4.272,73.333,423.000,1.000
-19751.483,-32860.941,-127395.773,-117038.181,1002.234,-20182.105,1141.267,-11887.160,0.011,0.973,-0.279,5.402,-2.747,3.998,73.333,424.000,1.000
-19727.651,-32819.510,-127635.569,-117311.486,1022.164,-20114.224,1139.023,-11828.108,0.009,0.973,-0.280,4.883,-2.533,3.540,73.333,425.000,1.000
-19704.567,-32777.917,-127873.001,-117582.455,1041.433,-20048.174,1134.989,-11772.094,0.008,0.978,-0.279,4.364,-2.167,3.143,73.333,426.000,1.000
-19681.882,-32735.697,-128107.895,-117850.907,1060.189,-19983.540,1130.388,-11717.680,0.008,0.980,-0.282,3.784,-2.014,2.808,73.333,427.000,1.000
-19658.408,-32692.007,-128339.931,-118116.517,1078.765,-19918.780,1127.153,-11662.293,0.007,0.982,-0.279,3.235,-1.770,2.472,73.333,428.000,1.000
-19633.128,-32646.407,-128568.873,-118379.042,1097.422,-19852.372,1126.722,-11603.965,0.008,0.983,-0.282,2.594,-1.465,2.136,73.333,429.000,1.000
-19605.953,-32599.434,-128794.700,-118638.426,1116.211,-19783.810,1128.991,-11542.441,0.008,0.983,-0.281,1.984,-1.160,1.709,73.333,430.000,1.000
-19577.917,-32552.540,-129017.630,-118894.842,1134.940,-19713.929,1132.408,-11479.222,0.006,0.983,-0.281,1.282,-0.885,1.526,73.333,431.000,1.000
-19550.296,-32506.786,-129237.926,-119148.520,1153.370,-19644.045,1135.547,-11415.996,0.007,0.982,-0.280,0.641,-0.732,1.221,73.333,432.000,1.000
-19523.755,-32461.916,-129455.676,-119399.553,1171.406,-19575.022,1138.116,-11353.372,0.006,0.981,-0.276,-0.061,-0.488,1.038,73.333,433.000,1.000
-19498.124,-32417.050,-129670.781,-119647.893,1189.115,-19507.198,1140.076,-11291.273,0.005,0.980,-0.279,-0.763,-0.214,0.854,73.333,434.000,1.000
-19472.649,-32371.573,-129883.065,-119893.429,1206.659,-19440.646,1140.311,-11230.174,0.005,0.979,-0.275,-1.282,-0.092,0.641,73.333,435.000,1.000
-19446.692,-32325.396,-130092.439,-120136.104,1224.164,-19375.352,1136.975,-11171.760,0.005,0.978,-0.273,-1.831,0.153,0.458,73.333,436.000,1.000
-19419.705,-32278.238,-130298.913,-120375.892,1241.695,-19310.817,1129.595,-11117.333,0.003,0.978,-0.273,-2.289,0.336,0.305,73.333,437.000,1.000
-19391.431,-32229.561,-130502.540,-120612.788,1259.272,-19246.114,1120.069,-11066.329,0.002,0.975,-0.272,-2.747,0.488,0.122,73.333,438.000,1.000
-19362.430,-32179.466,-130703.380,-120846.838,1276.835,-19180.669,1111.495,-11016.546,-0.001,0.973,-0.271,-3.204,0.641,0.000,73.333,439.000,1.000
-19333.779,-32128.902,-130901.452,-121078.089,1294.292,-19114.571,1106.392,-10965.125,-0.002,0.972,-0.268,-3.632,0.763,-0.153,73.333,440.000,1.000
-19306.509,-32079.342,-131096.836,-121306.640,1311.498,-19048.606,1105.197,-10910.148,-0.004,0.969,-0.269,-3.967,0.916,-0.397,73.333,441.000,1.000
-19280.930,-32031.834,-131289.708,-121532.653,1328.260,-18984.017,1105.822,-10851.593,-0.007,0.966,-0.268,-4.303,0.885,-0.488,73.333,442.000,1.000
-19256.588,-31986.165,-131480.194,-121756.230,1344.488,-18921.777,1105.044,-10791.230,-0.009,0.963,-0.268,-4.486,0.793,-0.702,73.333,443.000,1.000
-19232.462,-31940.835,-131668.154,-121977.223,1360.386,-18861.455,1101.308,-10731.144,-0.010,0.963,-0.265,-4.669,0.702,-0.946,73.333,444.000,1.000
-19207.137,-31893.710,-131853.199,-122195.252,1376.410,-18800.959,1096.155,-10672.034,-0.011,0.969,-0.262,-4.761,0.641,-1.068,73.333,445.000,1.000
-19179.689,-31843.530,-132035.021,-122410.035,1392.895,-18738.158,1092.598,-10613.335,-0.015,0.972,-0.263,-4.913,0.610,-1.190,73.333,446.000,1.000
-19150.183,-31790.729,-132213.669,-122621.645,1409.773,-18672.408,1092.489,-10554.176,-0.015,0.964,-0.262,-5.249,0.610,-1.160,73.333,447.000,1.000
-19119.707,-31737.344,-132389.571,-122830.525,1426.567,-18604.844,1094.962,-10494.517,-0.014,0.955,-0.263,-5.157,0.397,-1.068,73.333,448.000,1.000
-19089.603,-31685.882,-132563.212,-123037.143,1442.773,-18537.297,1097.324,-10435.171,-0.012,0.951,-0.260,-5.066,0.244,-1.160,73.333,449.000,1.000
-19060.285,-31637.198,-132734.708,-123241.588,1458.292,-18470.589,1097.557,-10376.669,-0.014,0.949,-0.260,-4.852,0.214,-1.373,73.333,450.000,1.000
-19031.511,-31589.852,-132903.847,-123443.642,1473.371,-18404.369,1095.329,-10319.336,-0.014,0.951,-0.267,-4.395,0.061,-1.465,73.333,451.000,1.000
-19003.243,-31541.348,-133070.359,-123643.044,1488.298,-18338.101,1091.145,-10263.761,-0.012,0.953,-0.265,-4.181,0.031,-1.526,73.333,452.000,1.000
-18975.876,-31489.927,-133234.011,-123839.591,1503.302,-18271.533,1085.680,-10210.415,-0.012,0.955,-0.261,-3.967,0.092,-1.404,73.333,453.000,1.000
-18949.450,-31435.379,-133394.567,-124033.077,1518.621,-18204.242,1080.184,-10158.283,-0.014,0.956,-0.259,-3.662,-0.122,-1.373,73.333,454.000,1.000
-18923.177,-31378.746,-133551.875,-124223.350,1534.453,-18135.657,1076.181,-10104.475,-0.013,0.957,-0.259,-3.510,-0.031,-1.251,73.333,455.000,1.000
-18896.529,-31322.280,-133706.128,-124410.565,1550.669,-18066.265,1073.943,-10046.572,-0.012,0.958,-0.258,-3.265,-0.031,-1.160,73.333,456.000,1.000
-18869.725,-31268.691,-133857.835,-124595.184,1566.788,-17997.647,1072.290,-9984.641,-0.015,0.955,-0.251,-3.143,-0.061,-1.007,73.333,457.000,1.000
-18843.281,-31219.618,-134007.486,-124777.672,1582.297,-17931.089,1069.864,-9921.110,-0.013,0.953,-0.252,-2.899,-0.061,-0.793,73.333,458.000,1.000
-18817.287,-31174.236,-134155.280,-124958.231,1596.947,-17866.479,1066.200,-9859.028,-0.014,0.954,-0.255,-2.777,-0.092,-0.732,73.333,459.000,1.000
-18791.021,-31129.089,-134301.117,-125136.771,1610.824,-17802.373,1061.939,-9800.199,-0.014,0.958,-0.253,-2.350,-0.122,-0.610,73.333,460.000,1.000
-18763.619,-31080.335,-134444.687,-125312.990,1624.270,-17737.027,1058.356,-9744.718,-0.012,0.958,-0.255,-2.075,-0.061,-0.397,73.333,461.000,1.000
-18734.584,-31026.160,-134585.487,-125486.394,1637.815,-17669.171,1056.679,-9691.170,-0.013,0.964,-0.254,-1.923,-0.183,-0.275,73.333,462.000,1.000
-18704.241,-30967.596,-134723.110,-125656.582,1651.878,-17598.767,1057.029,-9637.822,-0.015,0.966,-0.253,-1.740,-0.244,-0.061,73.333,463.000,1.000
-18673.553,-30907.401,-134857.552,-125823.561,1666.467,-17527.238,1058.085,-9583.679,-0.014,0.966,-0.255,-1.617,-0.305,-0.031,73.333,464.000,1.000
-18643.182,-30848.031,-134989.093,-125987.645,1681.291,-17456.413,1058.186,-9528.341,-0.015,0.965,-0.254,-1.434,-0.519,0.092,73.333,465.000,1.000
-18613.288,-30791.004,-135118.050,-126149.180,1696.025,-17387.419,1056.692,-9471.819,-0.014,0.961,-0.256,-1.282,-0.549,0.153,73.333,466.000,1.000
-18583.557,-30736.843,-135244.623,-126308.359,1710.477,-17320.125,1054.350,-9414.366,-0.016,0.958,-0.253,-1.007,-0.671,0.305,73.333,467.000,1.000
-18553.695,-30685.043,-135368.951,-126465.284,1724.536,-17253.744,1051.922,-9357.024,-0.017,0.955,-0.254,-0.702,-0.793,0.244,73.333,468.000,1.000
-18523.822,-30634.056,-135491.168,-126620.034,1738.111,-17187.677,1049.089,-9301.717,-0.016,0.955,-0.253,-0.488,-0.916,0.305,73.333,469.000,1.000
-18493.968,-30581.430,-135611.283,-126772.589,1751.222,-17121.427,1045.180,-9249.870,-0.016,0.953,-0.255,-0.031,-1.038,0.305,73.333,470.000,1.000
-18463.953,-30525.371,-135729.187,-126922.858,1763.992,-17054.590,1040.027,-9201.531,-0.016,0.957,-0.254,0.244,-1.129,0.397,73.333,471.000,1.000
-18433.384,-30466.147,-135844.710,-127070.740,1776.569,-16986.972,1034.063,-9155.047,-0.015,0.961,-0.256,0.488,-1.160,0.488,73.333,472.000,1.000
-18401.738,-30405.917,-135957.678,-127216.123,1789.081,-16918.668,1028.040,-9107.618,-0.013,0.963,-0.256,0.763,-1.068,0.641,73.333,473.000,1.000
-18368.556,-30347.307,-136068.013,-127358.936,1801.591,-16850.031,1022.835,-9056.639,-0.011,0.963,-0.256,0.977,-1.373,0.671,73.333,474.000,1.000
-18333.711,-30291.635,-136175.780,-127499.197,1814.079,-16781.332,1019.242,-9000.951,-0.009,0.963,-0.254,1.068,-1.343,0.824,73.333,475.000,1.000
-18297.823,-30238.364,-136281.125,-127636.973,1826.468,-16712.729,1017.419,-8941.671,-0.010,0.961,-0.256,1.221,-1.282,0.916,73.333,476.000,1.000
-18261.779,-30185.452,-136384.092,-127772.245,1838.747,-16644.357,1016.631,-8881.351,-0.009,0.960,-0.260,1.343,-1.312,1.038,73.333,477.000,1.000
-18226.315,-30130.603,-136484.641,-127904.976,1850.943,-16576.497,1015.566,-8822.601,-0.008,0.960,-0.260,1.495,-1.282,1.190,73.333,478.000,1.000
-18191.889,-30072.473,-136582.776,-128035.220,1863.032,-16509.291,1013.222,-8766.903,-0.007,0.963,-0.257,1.770,-1.251,1.343,73.333,479.000,1.000
-18158.471,-30010.719,-136678.463,-128163.001,1875.049,-16442.127,1009.647,-8713.869,-0.005,0.964,-0.262,1.801,-1.099,1.434,73.333,480.000,1.000
-18125.910,-29946.122,-136771.579,-128288.234,1887.139,-16374.072,1005.726,-8662.010,-0.004,0.969,-0.261,1.892,-1.068,1.526,73.333,481.000,1.000
-18093.925,-29880.489,-136861.989,-128410.785,1899.464,-16304.614,1002.480,-8609.739,-0.002,0.971,-0.264,1.892,-0.946,1.709,73.333,482.000,1.000
-18062.059,-29816.072,-136949.671,-128530.600,1912.066,-16233.947,1000.351,-8556.157,-0.002,0.972,-0.263,1.984,-0.885,1.831,73.333,483.000,1.000
-18029.968,-29754.766,-137034.782,-128647.791,1924.795,-16162.891,998.960,-8501.407,-0.003,0.972,-0.263,1.862,-0.793,1.892,73.333,484.000,1.000
-17997.661,-29697.140,-137117.600,-128762.613,1937.365,-16092.500,997.349,-8446.507,-0.001,0.973,-0.261,1.770,-0.702,2.014,73.333,485.000,1.000
-17965.534,-29642.127,-137198.354,-128875.308,1949.520,-16023.576,994.551,-8393.004,0.002,0.973,-0.259,1.678,-0.641,1.953,73.333,486.000,1.000
-17933.746,-29587.268,-137277.067,-128985.949,1961.204,-15956.079,990.410,-8341.788,0.002,0.973,-0.261,1.495,-0.671,1.892,73.333,487.000,1.000
-17902.353,-29530.274,-137353.709,-129094.568,1972.440,-15889.527,985.436,-8292.681,0.004,0.973,-0.263,1.282,-0.519,1.831,73.333,488.000,1.000
-17871.518,-29470.583,-137428.301,-129201.208,1983.247,-15823.536,980.274,-8244.655,0.005,0.973,-0.264,1.099,-0.275,1.923,73.333,489.000,1.000
-17840.822,-29408.797,-137500.718,-129305.702,1993.807,-15757.405,975.712,-8195.862,0.004,0.972,-0.263,1.099,-0.183,1.862,73.333,490.000,1.000
-17809.499,-29346.010,-137570.804,-129407.798,2004.335,-15690.408,972.241,-8144.926,0.005,0.971,-0.263,0.916,0.000,1.709,73.333,491.000,1.000
-17777.118,-29283.594,-137638.574,-129507.431,2014.852,-15622.462,969.542,-8091.962,0.010,0.971,-0.263,0.793,0.092,1.678,73.333,492.000,1.000
-17743.796,-29222.671,-137704.095,-129604.660,2025.288,-15554.074,966.832,-8038.252,0.009,0.971,-0.263,0.610,0.336,1.648,73.333,493.000,1.000
-17709.823,-29163.397,-137767.296,-129699.497,2035.664,-15485.825,963.680,-7985.152,0.009,0.971,-0.267,0.305,0.519,1.556,73.333,494.000,1.000
-17675.387,-29104.734,-137828.044,-129791.930,2046.051,-15418.026,960.094,-7933.365,0.010,0.973,-0.264,0.153,0.732,1.465,73.333,495.000,1.000
-17640.861,-29045.337,-137886.326,-129882.021,2056.443,-15350.831,956.009,-7883.205,0.009,0.975,-0.264,-0.122,0.916,1.343,73.333,496.000,1.000
-17606.355,-28983.948,-137942.183,-129969.794,2066.838,-15283.926,951.606,-7834.300,0.013,0.977,-0.264,-0.366,1.129,1.190,73.333,497.000,1.000
-17571.449,-28919.591,-137995.632,-130055.172,2077.305,-15216.486,947.689,-7785.463,0.013,0.978,-0.262,-0.549,1.373,1.007,73.333,498.000,1.000
-17535.857,-28852.562,-138046.808,-130138.189,2087.769,-15148.100,945.141,-7735.404,0.015,0.977,-0.263,-0.824,1.495,1.068,73.333,499.000,1.000
-17499.976,-28784.797,-138096.065,-130219.139,2097.883,-15079.415,944.253,-7683.320,0.015,0.978,-0.260,-1.221,1.740,0.885,73.333,500.000,1.000
-17464.632,-28718.880,-138143.698,-130298.313,2107.322,-15011.518,944.591,-7629.181,0.016,0.977,-0.267,-1.526,1.953,0.793,73.333,501.000,1.000
-17429.981,-28656.117,-138189.542,-130375.577,2116.226,-14944.613,945.216,-7573.509,0.016,0.976,-0.264,-1.892,2.197,0.671,73.333,502.000,1.000
-17395.519,-28595.857,-138233.136,-130450.522,2125.042,-14878.056,944.875,-7517.568,0.014,0.974,-0.262,-2.167,2.502,0.610,73.333,503.000,1.000
-17360.860,-28536.391,-138274.299,-130523.025,2133.956,-14811.424,942.539,-7463.187,0.014,0.971,-0.259,-2.411,2.625,0.580,73.333,504.000,1.000
-17326.024,-28476.044,-138313.307,-130593.401,2142.727,-14744.974,937.787,-7411.701,0.013,0.970,-0.259,-2.563,2.747,0.458,73.333,505.000,1.000
-17291.470,-28414.118,-138350.481,-130661.992,2151.084,-14679.555,930.632,-7363.309,0.014,0.968,-0.257,-2.594,2.838,0.305,73.333,506.000,1.000
-17257.304,-28350.448,-138385.668,-130728.635,2159.205,-14615.736,921.784,-7316.591,0.013,0.968,-0.258,-2.686,3.082,0.183,73.333,507.000,1.000
-17223.086,-28284.898,-138418.335,-130792.761,2167.605,-14553.102,912.665,-7269.392,0.013,0.969,-0.259,-2.808,3.235,0.031,73.333,508.000,1.000
-17188.440,-28217.836,-138448.022,-130853.865,2176.714,-14490.471,904.651,-7220.469,0.011,0.970,-0.257,-2.991,3.326,-0.031,73.333,509.000,1.000
-17153.182,-28150.103,-138474.593,-130911.783,2186.650,-14426.573,898.342,-7169.968,0.010,0.968,-0.258,-3.113,3.418,-0.153,73.333,510.000,1.000
-17117.423,-28082.637,-138498.372,-130966.847,2197.084,-14360.946,893.505,-7119.004,0.009,0.968,-0.258,-3.265,3.510,-0.153,73.333,511.000,1.000
-17081.338,-28015.941,-138520.015,-131019.739,2207.381,-14293.986,889.836,-7068.356,0.007,0.967,-0.256,-3.265,3.540,-0.122,73.333,512.000,1.000
-17045.140,-27950.054,-138540.128,-131071.082,2216.977,-14226.529,887.222,-7017.848,0.006,0.965,-0.256,-3.265,3.632,-0.183,73.333,513.000,1.000
-17009.012,-27884.585,-138558.917,-131121.083,2225.709,-14159.366,885.445,-6966.717,0.005,0.964,-0.255,-3.265,3.540,-0.244,73.333,514.000,1.000
-16972.713,-27818.383,-138576.096,-131169.441,2233.887,-14092.586,884.136,-6914.165,0.004,0.965,-0.255,-3.326,3.510,-0.214,73.333,515.000,1.000
-16936.050,-27750.551,-138591.201,-131215.685,2241.975,-14025.900,882.733,-6860.428,0.002,0.962,-0.252,-3.357,3.418,-0.275,73.333,516.000,1.000
-16899.303,-27681.623,-138604.035,-131259.619,2250.169,-13959.366,880.640,-6806.984,0.002,0.961,-0.251,-3.357,3.418,-0.397,73.333,517.000,1.000
-16863.110,-27613.247,-138614.776,-131301.441,2258.274,-13893.443,877.311,-6755.823,0.004,0.963,-0.250,-3.357,3.357,-0.580,73.333,518.000,1.000
-16827.620,-27546.469,-138623.551,-131341.286,2266.148,-13828.129,872.501,-6708.073,0.005,0.962,-0.250,-3.326,3.235,-0.458,73.333,519.000,1.000
-16791.787,-27480.298,-138630.049,-131378.844,2274.086,-13762.277,866.819,-6662.801,0.006,0.962,-0.250,-3.082,3.113,-0.488,73.333,520.000,1.000
-16754.386,-27412.890,-138633.941,-131413.782,2282.422,-13694.660,861.547,-6617.883,0.004,0.960,-0.247,-2.960,3.143,-0.671,73.333,521.000,1.000
-16715.266,-27343.675,-138635.426,-131446.278,2290.998,-13625.441,857.589,-6571.603,0.004,0.960,-0.252,-2.808,2.930,-0.763,73.333,522.000,1.000
-16675.629,-27274.147,-138635.151,-131476.936,2299.226,-13556.393,854.593,-6523.648,0.002,0.960,-0.254,-2.716,2.930,-0.671,73.333,523.000,1.000
-16637.034,-27206.621,-138633.677,-131506.295,2306.585,-13489.524,851.393,-6474.673,0.006,0.959,-0.251,-2.563,2.808,-0.793,73.333,524.000,1.000
-16600.132,-27142.078,-138631.084,-131534.457,2312.980,-13425.458,847.117,-6425.227,0.007,0.959,-0.252,-2.533,2.716,-0.854,73.333,525.000,1.000
-16564.550,-27079.443,-138627.003,-131561.099,2318.733,-13363.275,841.692,-6375.771,0.008,0.959,-0.250,-2.258,2.686,-0.946,73.333,526.000,1.000
-16529.010,-27015.958,-138620.815,-131585.641,2324.434,-13301.077,836.002,-6326.598,0.009,0.958,-0.250,-2.045,2.686,-0.916,73.333,527.000,1.000
-16492.411,-26949.027,-138612.066,-131607.636,2330.571,-13237.294,831.143,-6278.057,0.011,0.961,-0.251,-1.801,2.716,-1.099,73.333,528.000,1.000
-16455.029,-26878.535,-138600.822,-131627.133,2337.149,-13171.994,827.196,-6230.765,0.010,0.964,-0.255,-1.770,2.686,-1.251,73.333,529.000,1.000
-16417.922,-26806.755,-138587.457,-131644.487,2343.827,-13106.380,823.106,-6184.816,0.010,0.969,-0.255,-1.678,2.808,-1.312,73.333,530.000,1.000
-16381.726,-26736.613,-138572.228,-131659.938,2350.331,-13041.489,817.785,-6139.466,0.010,0.971,-0.254,-1.556,2.869,-1.465,73.333,531.000,1.000
-16345.800,-26669.590,-138555.069,-131673.401,2356.708,-12977.302,811.433,-6093.324,0.010,0.973,-0.256,-1.587,2.838,-1.495,73.333,532.000,1.000
-16308.706,-26604.898,-138535.726,-131684.609,2363.216,-12913.146,805.358,-6045.297,0.010,0.969,-0.254,-1.434,2.869,-1.404,73.333,533.000,1.000
-16269.490,-26540.605,-138514.009,-131693.375,2370.043,-12848.738,800.625,-5995.405,0.010,0.965,-0.253,-1.526,2.960,-1.404,73.333,534.000,1.000
-16228.442,-26475.265,-138489.938,-131699.735,2377.157,-12784.390,797.256,-5944.593,0.008,0.966,-0.254,-1.465,2.991,-1.587,73.333,535.000,1.000
-16187.280,-26409.107,-138463.823,-131704.018,2384.232,-12720.861,794.190,-5894.647,0.010,0.968,-0.256,-1.190,3.052,-1.770,73.333,536.000,1.000
-16147.850,-26343.218,-138436.111,-131706.684,2390.837,-12658.755,790.133,-5847.351,0.009,0.968,-0.253,-1.129,3.082,-2.075,73.333,537.000,1.000
-16110.691,-26277.813,-138407.080,-131708.027,2396.727,-12597.923,784.662,-5803.361,0.009,0.967,-0.256,-1.251,3.174,-2.319,73.333,538.000,1.000
-16074.928,-26211.893,-138376.713,-131708.029,2401.962,-12537.595,778.600,-5761.794,0.006,0.967,-0.254,-1.160,3.235,-2.655,73.333,539.000,1.000
-16039.140,-26144.343,-138344.797,-131706.446,2406.796,-12476.962,773.386,-5720.660,0.006,0.969,-0.259,-1.221,3.326,-2.960,73.333,540.000,1.000
-16002.534,-26075.628,-138311.120,-131703.031,2411.461,-12415.874,769.886,-5678.126,0.009,0.969,-0.259,-1.251,3.357,-3.052,73.333,541.000,1.000
-15964.994,-26007.759,-138275.477,-131697.575,2416.147,-12354.620,767.960,-5633.094,0.010,0.967,-0.260,-1.282,3.387,-3.113,73.333,542.000,1.000
-15926.796,-25942.816,-138237.666,-131689.900,2421.030,-12293.440,766.758,-5585.599,0.010,0.967,-0.255,-1.282,3.571,-3.387,73.333,543.000,1.000
-15888.427,-25881.545,-138197.581,-131679.935,2426.207,-12232.502,765.198,-5537.008,0.010,0.968,-0.251,-1.282,3.723,-3.510,73.333,544.000,1.000
-15850.157,-25822.531,-138155.159,-131667.639,2431.738,-12171.959,762.335,-5489.429,0.010,0.968,-0.258,-1.251,3.998,-3.540,73.333,545.000,1.000
-15812.138,-25763.159,-138110.414,-131653.026,2437.617,-12112.249,757.543,-5445.132,0.012,0.969,-0.256,-1.312,4.181,-3.662,73.333,546.000,1.000
-15774.402,-25701.062,-138063.538,-131636.302,2443.655,-12053.890,750.976,-5405.349,0.010,0.976,-0.255,-1.373,4.333,-3.845,73.333,547.000,1.000
-15736.815,-25634.843,-138014.826,-131617.772,2449.552,-11996.884,743.735,-5369.356,0.012,0.980,-0.255,-1.526,4.547,-4.028,73.333,548.000,1.000
-15698.898,-25564.108,-137964.392,-131597.522,2455.209,-11940.333,737.415,-5334.617,0.013,0.980,-0.255,-1.770,4.944,-4.120,73.333,549.000,1.000
-15659.807,-25489.282,-137912.099,-131575.362,2460.805,-11882.744,733.171,-5297.968,0.012,0.979,-0.253,-1.923,5.249,-4.211,73.333,550.000,1.000
-15619.379,-25412.068,-137857.907,-131551.210,2466.429,-11823.329,730.714,-5257.796,0.012,0.975,-0.251,-2.075,5.493,-4.395,73.333,551.000,1.000
-15578.413,-25335.005,-137801.992,-131525.249,2471.929,-11762.521,728.610,-5214.642,0.014,0.974,-0.250,-2.319,5.829,-4.578,73.333,552.000,1.000
-15537.869,-25260.030,-137744.491,-131497.640,2477.181,-11701.212,725.604,-5170.178,0.014,0.975,-0.250,-2.350,6.165,-4.639,73.333,553.000,1.000
-15497.931,-25187.392,-137685.298,-131468.289,2482.283,-11639.739,721.625,-5125.745,0.014,0.973,-0.247,-2.502,6.531,-4.852,73.333,554.000,1.000
-15457.800,-25115.667,-137624.181,-131436.966,2487.433,-11577.658,717.502,-5081.545,0.014,0.970,-0.252,-2.716,6.805,-4.913,73.333,555.000,1.000
-15416.862,-25043.374,-137561.073,-131403.610,2492.657,-11514.756,713.685,-5037.464,0.017,0.969,-0.250,-2.747,7.172,-5.005,73.333,556.000,1.000
-15375.269,-24970.197,-137496.106,-131368.370,2497.808,-11451.519,709.830,-4993.487,0.018,0.969,-0.250,-2.838,7.690,-5.188,73.333,557.000,1.000
-15333.579,-24896.825,-137429.421,-131331.407,2502.757,-11388.520,705.366,-4949.464,0.017,0.975,-0.247,-2.838,8.148,-5.463,73.333,558.000,1.000
-15292.133,-24823.879,-137361.004,-131292.701,2507.563,-11325.728,700.249,-4904.903,0.014,0.979,-0.247,-2.838,8.606,-5.493,73.333,559.000,1.000
-15250.958,-24751.149,-137290.801,-131252.178,2512.347,-11262.702,695.054,-4859.167,0.009,0.977,-0.246,-2.960,8.972,-5.432,73.333,560.000,1.000
-15210.452,-24678.581,-137219.039,-131210.049,2516.938,-11199.754,690.135,-4812.332,0.008,0.974,-0.247,-3.113,9.369,-5.280,73.333,561.000,1.000
-15171.052,-24606.898,-137146.034,-131166.618,2521.027,-11137.820,685.349,-4764.810,0.008,0.968,-0.248,-3.143,9.705,-5.341,73.333,562.000,1.000
-15132.560,-24536.970,-137071.757,-131121.839,2524.606,-11077.193,680.499,-4716.663,0.004,0.966,-0.248,-3.143,10.254,-5.463,73.333,563.000,1.000
-15094.132,-24468.801,-136995.869,-131075.371,2527.975,-11017.019,675.597,-4667.898,0.003,0.966,-0.250,-3.082,10.498,-5.524,73.333,564.000,1.000
-15054.617,-24400.671,-136918.064,-131026.926,2531.434,-10955.857,670.794,-4619.102,0.005,0.969,-0.250,-3.052,10.956,-5.829,73.333,565.000,1.000
-15013.337,-24329.996,-136838.258,-130976.454,2535.081,-10892.915,666.101,-4571.787,0.005,0.968,-0.251,-2.991,11.230,-6.073,73.333,566.000,1.000
-14970.171,-24254.940,-136756.445,-130923.974,2538.917,-10828.515,661.415,-4527.197,0.004,0.970,-0.249,-2.960,11.597,-6.165,73.333,567.000,1.000
-14925.471,-24175.731,-136672.599,-130869.458,2542.953,-10763.668,656.668,-4484.963,0.000,0.968,-0.252,-2.899,11.932,-6.134,73.333,568.000,1.000
-14880.057,-24094.919,-136586.744,-130812.908,2547.193,-10699.175,652.037,-4442.786,0.002,0.967,-0.251,-2.869,12.238,-6.134,73.333,569.000,1.000
-14834.863,-24016.076,-136498.941,-130754.368,2551.635,-10634.840,648.029,-4397.383,0.001,0.969,-0.248,-2.838,12.573,-6.165,73.333,570.000,1.000
-14790.877,-23942.400,-136409.316,-130693.966,2556.199,-10570.073,644.912,-4347.075,-0.001,0.968,-0.250,-2.899,12.817,-5.981,73.333,571.000,1.000
-14748.723,-23875.129,-136318.120,-130631.960,2560.666,-10504.833,642.309,-4293.380,-0.002,0.968,-0.252,-2.899,13.153,-6.042,73.333,572.000,1.000
-14708.365,-23812.565,-136225.685,-130568.673,2564.704,-10439.798,639.398,-4240.351,-0.005,0.967,-0.248,-2.808,13.367,-5.920,73.333,573.000,1.000
-14669.129,-23750.786,-136132.205,-130504.292,2568.069,-10375.778,635.606,-4192.023,-0.007,0.965,-0.251,-2.747,13.641,-5.798,73.333,574.000,1.000
-14629.852,-23685.376,-136037.552,-130438.686,2570.832,-10312.889,631.195,-4149.768,-0.008,0.962,-0.253,-2.747,13.855,-5.737,73.333,575.000,1.000
-14589.551,-23613.493,-135941.359,-130371.488,2573.353,-10250.510,626.969,-4111.987,-0.009,0.962,-0.251,-2.655,14.008,-5.707,73.333,576.000,1.000
-14547.702,-23534.900,-135843.218,-130302.291,2576.098,-10187.886,623.357,-4075.430,-0.011,0.963,-0.249,-2.594,14.313,-5.768,73.333,577.000,1.000
-14504.654,-23452.253,-135742.926,-130230.902,2579.338,-10125.116,619.656,-4037.361,-0.012,0.967,-0.248,-2.502,14.435,-5.798,73.333,578.000,1.000
-14461.476,-23370.020,-135640.571,-130157.420,2583.025,-10062.948,614.946,-3996.419,-0.014,0.968,-0.249,-2.441,14.709,-5.707,73.333,579.000,1.000
-14418.740,-23291.631,-135536.285,-130081.990,2587.011,-10001.253,609.556,-3951.831,-0.014,0.968,-0.254,-2.411,14.862,-5.615,73.333,580.000,1.000
-14376.283,-23218.092,-135430.160,-130004.715,2591.140,-9939.069,604.482,-3903.833,-0.014,0.969,-0.255,-2.472,14.984,-5.524,73.333,581.000,1.000
-14333.772,-23148.586,-135322.431,-129925.831,2595.115,-9875.971,600.137,-3854.259,-0.015,0.974,-0.258,-2.533,15.076,-5.371,73.333,582.000,1.000
-14291.146,-23081.435,-135213.535,-129845.777,2598.474,-9812.620,596.250,-3805.832,-0.018,0.977,-0.256,-2.380,15.198,-5.280,73.333,583.000,1.000
-14248.175,-23014.054,-135103.702,-129764.779,2601.016,-9749.684,592.780,-3760.176,-0.021,0.977,-0.255,-2.533,15.259,-5.280,73.333,584.000,1.000
-14203.920,-22942.724,-134992.479,-129682.365,2603.264,-9686.684,590.270,-3716.495,-0.023,0.978,-0.254,-2.625,15.259,-5.035,73.333,585.000,1.000
-14157.710,-22864.597,-134878.988,-129597.627,2606.171,-9622.885,588.849,-3673.115,-0.023,0.974,-0.253,-2.686,15.167,-4.852,73.333,586.000,1.000
-14110.077,-22780.111,-134762.664,-129509.980,2610.349,-9558.658,587.644,-3629.416,-0.025,0.974,-0.250,-2.777,15.167,-4.852,73.333,587.000,1.000
-14062.774,-22693.352,-134643.791,-129419.718,2615.516,-9495.624,585.211,-3586.371,-0.026,0.976,-0.247,-2.899,15.137,-4.730,73.333,588.000,1.000
-14017.516,-22609.452,-134523.275,-129327.776,2620.753,-9435.193,580.494,-3545.297,-0.024,0.974,-0.244,-2.960,15.076,-4.669,73.333,589.000,1.000
-13974.286,-22530.627,-134401.834,-129234.892,2625.337,-9376.781,573.819,-3506.063,-0.021,0.973,-0.246,-2.930,14.984,-4.761,73.333,590.000,1.000
-13931.515,-22455.215,-134279.529,-129141.131,2629.200,-9318.063,567.007,-3467.168,-0.021,0.972,-0.248,-2.899,14.832,-4.608,73.333,591.000,1.000
-13887.306,-22379.639,-134155.873,-129045.995,2632.810,-9256.437,562.575,-3426.637,-0.021,0.969,-0.251,-2.930,14.893,-4.578,73.333,592.000,1.000
-13840.906,-22301.324,-134030.341,-128948.933,2636.671,-9190.799,561.945,-3383.329,-0.022,0.967,-0.250,-2.869,14.801,-4.425,73.333,593.000,1.000
-13793.343,-22220.362,-133902.920,-128849.903,2640.789,-9122.629,564.033,-3337.802,-0.020,0.964,-0.247,-2.747,14.709,-4.395,73.333,594.000,1.000
-13746.328,-22138.429,-133774.123,-128749.414,2644.674,-9054.781,566.038,-3291.554,-0.018,0.964,-0.245,-2.625,14.740,-4.333,73.333,595.000,1.000
-13701.114,-22057.428,-133644.529,-128648.059,2647.788,-8989.537,565.377,-3246.116,-0.017,0.962,-0.242,-2.472,14.771,-4.120,73.333,596.000,1.000
-13657.941,-21978.759,-133514.381,-128546.111,2649.911,-8927.608,561.212,-3202.244,-0.019,0.956,-0.239,-2.197,14.862,-3.906,73.333,597.000,1.000
-13616.158,-21902.736,-133383.536,-128443.459,2651.190,-8868.098,554.797,-3159.661,-0.021,0.954,-0.240,-1.953,14.923,-3.723,73.333,598.000,1.000
-13574.535,-21828.211,-133251.522,-128339.642,2652.106,-8808.827,548.693,-3117.264,-0.021,0.954,-0.242,-1.740,14.801,-3.662,73.333,599.000,1.000
-13531.864,-21753.238,-133117.714,-128234.007,2653.320,-8747.496,544.923,-3073.873,-0.024,0.957,-0.241,-1.587,14.771,-3.754,73.333,600.000,1.000
-13488.073,-21676.914,-132981.771,-128126.182,2655.215,-8683.552,543.345,-3029.544,-0.023,0.961,-0.241,-1.221,14.618,-3.723,73.333,601.000,1.000
-13443.776,-21599.344,-132843.794,-128016.257,2657.706,-8618.092,542.409,-2985.114,-0.025,0.960,-0.240,-1.160,14.465,-3.754,73.333,602.000,1.000
-13399.498,-21520.672,-132704.108,-127904.581,2660.449,-8552.576,540.736,-2941.241,-0.027,0.966,-0.238,-0.885,14.313,-3.693,73.333,603.000,1.000
-13355.985,-21441.487,-132563.074,-127791.547,2663.038,-8488.481,537.494,-2898.420,-0.027,0.967,-0.238,-0.732,14.099,-3.662,73.333,604.000,1.000
-13314.029,-21362.954,-132420.970,-127677.447,2665.136,-8427.028,532.317,-2856.876,-0.025,0.970,-0.239,-0.641,14.038,-3.662,73.333,605.000,1.000
-13273.682,-21286.231,-132277.899,-127562.365,2666.602,-8368.615,525.456,-2816.505,-0.026,0.974,-0.242,-0.702,13.885,-3.693,73.333,606.000,1.000
-13233.876,-21211.874,-132133.731,-127446.149,2667.574,-8312.474,517.797,-2776.858,-0.027,0.976,-0.243,-0.671,13.702,-3.632,73.333,607.000,1.000
-13193.426,-21139.879,-131988.231,-127328.565,2668.339,-8257.260,510.264,-2737.688,-0.026,0.979,-0.243,-0.824,13.428,-3.571,73.333,608.000,1.000
-13151.868,-21069.509,-131841.205,-127209.419,2669.149,-8201.742,503.545,-2699.048,-0.024,0.976,-0.242,-0.885,13.397,-3.540,73.333,609.000,1.000
-13109.103,-20998.857,-131692.481,-127088.527,2670.214,-8144.896,498.268,-2660.646,-0.027,0.978,-0.241,-0.885,13.153,-3.540,73.333,610.000,1.000
-13065.222,-20925.804,-131541.979,-126965.779,2671.659,-8086.223,494.822,-2622.107,-0.025,0.976,-0.242,-0.977,12.970,-3.571,73.333,611.000,1.000
-13020.285,-20849.082,-131389.781,-126841.231,2673.452,-8025.852,493.142,-2583.131,-0.023,0.975,-0.240,-1.068,12.909,-3.479,73.333,612.000,1.000
-12974.479,-20768.865,-131236.150,-126715.169,2675.333,-7964.500,492.594,-2543.572,-0.023,0.977,-0.240,-1.099,12.756,-3.326,73.333,613.000,1.000
-12928.213,-20686.797,-131081.431,-126588.002,2676.887,-7903.083,492.474,-2503.313,-0.023,0.974,-0.242,-1.129,12.665,-3.235,73.333,614.000,1.000
-12881.726,-20604.997,-130925.779,-126459.934,2677.873,-7842.027,492.767,-2461.916,-0.020,0.974,-0.240,-1.190,12.665,-3.174,73.333,615.000,1.000
-12835.314,-20525.298,-130769.080,-126330.846,2678.380,-7781.573,493.772,-2419.228,-0.021,0.974,-0.240,-1.251,12.604,-3.143,73.333,616.000,1.000
-12789.393,-20448.423,-130611.084,-126200.453,2678.716,-7722.307,495.107,-2375.835,-0.020,0.976,-0.244,-1.312,12.573,-2.991,73.333,617.000,1.000
-12744.276,-20373.582,-130451.576,-126068.502,2679.188,-7665.051,495.367,-2333.025,-0.017,0.977,-0.245,-1.129,12.695,-2.838,73.333,618.000,1.000
-12699.872,-20298.997,-130290.428,-125934.845,2679.954,-7610.058,493.244,-2292.025,-0.020,0.982,-0.252,-1.068,12.604,-2.716,73.333,619.000,1.000
-12655.674,-20222.830,-130127.676,-125799.517,2680.932,-7556.389,488.738,-2253.052,-0.019,0.987,-0.254,-1.038,12.604,-2.655,73.333,620.000,1.000
-12611.347,-20144.324,-129963.561,-125662.764,2681.842,-7502.464,483.021,-2215.440,-0.020,0.988,-0.253,-1.099,12.604,-2.625,73.333,621.000,1.000
-12566.353,-20063.339,-129798.190,-125524.704,2682.595,-7446.411,477.964,-2177.540,-0.021,0.985,-0.254,-1.129,12.512,-2.563,73.333,622.000,1.000
-12519.879,-19979.694,-129631.381,-125385.184,2683.419,-7386.662,475.100,-2137.542,-0.022,0.981,-0.252,-1.190,12.451,-2.563,73.333,623.000,1.000
-12471.793,-19893.970,-129462.972,-125244.064,2684.505,-7323.176,474.371,-2095.125,-0.020,0.976,-0.252,-1.190,12.360,-2.655,73.333,624.000,1.000
-12423.004,-19807.962,-129293.049,-125101.429,2685.752,-7257.686,474.355,-2051.684,-0.023,0.968,-0.251,-1.099,12.329,-2.686,73.333,625.000,1.000
-12374.957,-19724.000,-129121.946,-124957.582,2686.805,-7192.767,473.437,-2009.406,-0.023,0.963,-0.247,-0.946,12.299,-2.808,73.333,626.000,1.000
-12328.498,-19643.405,-128950.028,-124812.847,2687.311,-7130.261,470.546,-1969.715,-0.020,0.959,-0.245,-0.671,12.177,-2.960,73.333,627.000,1.000
-12283.755,-19566.222,-128777.527,-124667.430,2687.081,-7070.720,465.034,-1932.917,-0.022,0.958,-0.247,-0.458,12.146,-2.991,73.333,628.000,1.000
-12240.509,-19491.992,-128604.464,-124521.350,2686.147,-7013.762,456.756,-1898.609,-0.022,0.960,-0.245,-0.214,12.146,-3.204,73.333,629.000,1.000
-12197.785,-19419.487,-128430.528,-124374.325,2684.840,-6958.042,446.680,-1865.419,-0.024,0.960,-0.243,0.061,11.932,-3.265,73.333,630.000,1.000
-12154.118,-19347.071,-128255.217,-124225.895,2683.627,-6901.873,436.769,-1831.399,-0.023,0.961,-0.244,0.122,11.810,-3.387,73.333,631.000,1.000
-12108.166,-19273.315,-128078.045,-124075.602,2682.923,-6844.060,429.316,-1794.355,-0.026,0.966,-0.248,0.122,11.627,-3.448,73.333,632.000,1.000
-12059.283,-19197.189,-127898.618,-123923.070,2683.061,-6784.156,426.124,-1752.434,-0.027,0.966,-0.248,0.092,11.414,-3.448,73.333,633.000,1.000
-12008.567,-19119.275,-127717.064,-123768.415,2683.937,-6723.100,427.160,-1705.975,-0.027,0.966,-0.246,0.122,11.230,-3.448,73.333,634.000,1.000
-11959.366,-19042.674,-127534.423,-123612.636,2684.592,-6663.732,429.488,-1658.754,-0.027,0.964,-0.244,0.000,11.017,-3.235,73.333,635.000,1.000
-11915.197,-18970.674,-127351.969,-123456.951,2683.823,-6608.866,428.976,-1615.808,-0.030,0.962,-0.241,0.061,10.803,-3.204,73.333,636.000,1.000
-11876.023,-18902.552,-127169.898,-123301.534,2681.437,-6557.864,424.184,-1578.673,-0.035,0.962,-0.241,0.092,10.468,-3.174,73.333,637.000,1.000
-11838.039,-18833.491,-126987.145,-123145.338,2678.472,-6506.684,417.324,-1544.397,-0.036,0.963,-0.236,-0.031,10.162,-3.174,73.333,638.000,1.000
-11796.948,-18758.621,-126802.316,-122987.022,2676.311,-6451.401,411.353,-1509.131,-0.035,0.966,-0.235,-0.183,9.735,-3.235,73.333,639.000,1.000
-11750.947,-18676.533,-126614.669,-122825.902,2675.701,-6391.136,407.119,-1471.403,-0.032,0.972,-0.233,-0.244,9.430,-3.235,73.333,640.000,1.000
-11702.033,-18590.696,-126424.656,-122662.454,2676.205,-6328.753,402.996,-1432.825,-0.033,0.977,-0.228,-0.336,9.094,-3.052,73.333,641.000,1.000
-11654.113,-18507.067,-126233.536,-122497.915,2676.573,-6268.418,397.028,-1395.682,-0.035,0.977,-0.222,-0.641,8.789,-2.899,73.333,642.000,1.000
-11609.508,-18429.380,-126042.248,-122333.162,2675.869,-6211.992,389.325,-1360.170,-0.039,0.978,-0.225,-1.038,8.514,-2.838,73.333,643.000,1.000
-11567.358,-18356.722,-125850.657,-122168.008,2674.238,-6157.844,382.427,-1324.015,-0.042,0.976,-0.222,-1.465,8.118,-2.655,73.333,644.000,1.000
-11524.972,-18285.078,-125657.899,-122001.568,2672.551,-6102.834,379.423,-1284.407,-0.040,0.979,-0.222,-1.923,7.690,-2.441,73.333,645.000,1.000
-11480.305,-18210.662,-125463.259,-121833.165,2671.530,-6045.080,381.602,-1240.449,-0.037,0.981,-0.223,-2.289,7.233,-2.167,73.333,646.000,1.000
-11432.791,-18131.359,-125266.537,-121662.670,2671.383,-5984.553,387.574,-1193.616,-0.036,0.984,-0.223,-2.625,6.805,-1.801,73.333,647.000,1.000
-11383.397,-18047.196,-125068.019,-121490.398,2671.847,-5922.678,393.583,-1147.425,-0.033,0.984,-0.219,-3.265,6.531,-1.404,73.333,648.000,1.000
-11334.258,-17960.650,-124868.313,-121316.918,2672.339,-5861.799,395.518,-1105.920,-0.032,0.988,-0.216,-3.632,6.256,-1.007,73.333,649.000,1.000
-11286.916,-17874.838,-124667.880,-121142.639,2672.402,-5803.358,392.110,-1070.309,-0.032,0.989,-0.211,-4.150,5.890,-0.702,73.333,650.000,1.000
-11240.976,-17791.284,-124466.642,-120967.470,2672.077,-5746.556,385.722,-1037.722,-0.030,0.990,-0.212,-4.700,5.676,-0.275,73.333,651.000,1.000
-11194.756,-17709.720,-124264.196,-120791.043,2671.714,-5689.433,379.671,-1003.770,-0.029,0.993,-0.216,-5.157,5.432,0.061,73.333,652.000,1.000
-11147.522,-17629.826,-124060.474,-120613.342,2671.343,-5631.303,375.179,-966.683,-0.029,0.992,-0.212,-5.798,5.127,0.366,73.333,653.000,1.000
-11100.119,-17551.802,-123855.908,-120434.833,2670.540,-5573.211,371.376,-928.359,-0.027,0.990,-0.210,-6.348,4.913,0.763,73.333,654.000,1.000
-11053.298,-17474.777,-123650.818,-120255.831,2669.055,-5516.070,367.314,-891.687,-0.025,0.987,-0.209,-6.775,4.669,1.099,73.333,655.000,1.000
-11006.651,-17396.230,-123444.900,-120075.995,2667.294,-5459.470,362.956,-858.076,-0.023,0.985,-0.208,-7.202,4.486,1.343,73.333,656.000,1.000
-10958.929,-17313.291,-123237.435,-119894.541,2666.058,-5401.993,358.896,-826.611,-0.021,0.985,-0.209,-7.538,4.303,1.709,73.333,657.000,1.000
-10909.699,-17225.481,-123028.098,-119711.076,2665.692,-5342.926,355.413,-795.411,-0.018,0.987,-0.207,-7.904,4.059,1.953,73.333,658.000,1.000
-10860.381,-17136.284,-122817.388,-119526.077,2665.654,-5283.547,351.941,-763.412,-0.015,0.989,-0.207,-8.179,3.937,2.228,73.333,659.000,1.000
-10813.115,-17051.098,-122606.191,-119340.479,2664.990,-5226.239,347.356,-730.617,-0.016,0.992,-0.204,-8.514,3.754,2.411,73.333,660.000,1.000
-10769.064,-16973.610,-122395.117,-119154.984,2663.033,-5172.781,340.681,-697.606,-0.014,0.994,-0.203,-8.850,3.723,2.808,73.333,661.000,1.000
-10727.207,-16902.977,-122183.990,-118969.471,2659.934,-5122.788,332.193,-664.190,-0.009,0.995,-0.207,-9.064,3.723,3.082,73.333,662.000,1.000
-10684.946,-16834.360,-121971.814,-118782.927,2656.702,-5073.612,323.533,-629.301,-0.008,0.991,-0.203,-9.430,3.632,3.296,73.333,663.000,1.000
-10639.978,-16762.385,-121757.367,-118594.069,2654.597,-5022.069,316.601,-592.346,-0.005,0.986,-0.205,-9.735,3.540,3.571,73.333,664.000,1.000
-10591.881,-16684.426,-121540.115,-118402.342,2654.179,-4966.834,312.009,-554.283,-0.002,0.985,-0.204,-9.827,3.479,3.784,73.333,665.000,1.000
-10542.819,-16602.059,-121320.827,-118208.536,2654.705,-4909.780,308.154,-517.952,0.001,0.984,-0.202,-9.979,3.662,3.845,73.333,666.000,1.000
-10495.723,-16518.705,-121100.977,-118014.136,2654.736,-4853.852,302.864,-485.962,0.000,0.982,-0.201,-9.979,3.723,3.967,73.333,667.000,1.000
-10451.724,-16436.216,-120881.488,-117820.026,2653.381,-4800.098,295.731,-458.310,0.004,0.983,-0.202,-9.827,3.784,4.089,73.333,668.000,1.000
-10409.597,-16354.494,-120662.151,-117625.957,2650.862,-4747.659,288.136,-432.453,0.005,0.985,-0.202,-9.674,3.815,4.242,73.333,669.000,1.000
-10367.218,-16273.199,-120442.046,-117431.017,2648.090,-4695.538,281.334,-405.256,0.005,0.985,-0.199,-9.521,3.845,4.333,73.333,670.000,1.000
-10323.416,-16192.928,-120220.363,-117234.434,2645.868,-4643.510,275.187,-375.118,0.008,0.983,-0.201,-9.521,3.967,4.395,73.333,671.000,1.000
-10278.105,-16114.358,-119996.871,-117036.003,2644.413,-4591.376,269.055,-342.024,0.010,0.979,-0.199,-9.399,4.028,4.272,73.333,672.000,1.000
-10231.883,-16037.337,-119771.910,-116836.073,2643.350,-4538.645,262.971,-306.865,0.014,0.976,-0.196,-9.125,4.211,4.242,73.333,673.000,1.000
-10185.490,-15960.794,-119545.939,-116635.107,2642.176,-4484.714,258.149,-270.685,0.016,0.976,-0.199,-8.759,4.364,4.120,73.333,674.000,1.000
-10139.023,-15882.840,-119319.101,-116433.247,2640.759,-4428.955,256.374,-233.860,0.016,0.973,-0.197,-8.392,4.425,4.059,73.333,675.000,1.000
-10092.382,-15802.149,-119091.363,-116230.440,2639.196,-4371.877,257.669,-196.855,0.015,0.969,-0.197,-7.965,4.608,3.815,73.333,676.000,1.000
-10045.849,-15719.084,-118862.773,-116026.726,2637.503,-4315.367,259.316,-160.651,0.017,0.968,-0.198,-7.355,4.730,3.784,73.333,677.000,1.000
-10000.232,-15635.817,-118633.511,-115822.316,2635.525,-4261.462,257.735,-126.322,0.019,0.965,-0.199,-6.866,4.761,3.510,73.333,678.000,1.000
-9956.157,-15555.210,-118403.731,-115617.424,2633.098,-4211.114,251.057,-94.292,0.018,0.964,-0.197,-6.226,4.852,3.357,73.333,679.000,1.000
-9912.804,-15478.378,-118173.253,-115411.896,2630.379,-4163.213,240.420,-63.587,0.017,0.962,-0.200,-5.646,5.066,3.174,73.333,680.000,1.000
-9868.454,-15404.030,-117941.564,-115205.195,2627.840,-4114.972,229.242,-32.552,0.016,0.963,-0.198,-4.852,5.005,2.991,73.333,681.000,1.000
-9822.026,-15329.775,-117708.204,-114996.798,2625.919,-4063.621,221.195,0.115,0.017,0.961,-0.191,-4.242,5.005,2.655,73.333,682.000,1.000
-9773.895,-15253.747,-117473.176,-114786.637,2624.638,-4008.479,217.756,34.375,0.012,0.964,-0.194,-3.632,4.913,2.441,73.333,683.000,1.000
-9725.306,-15175.411,-117236.985,-114575.149,2623.559,-3951.572,217.268,68.716,0.010,0.967,-0.192,-2.869,4.974,2.197,73.333,684.000,1.000
-9677.209,-15095.365,-117000.251,-114362.934,2622.110,-3895.869,216.743,101.593,0.007,0.968,-0.190,-2.228,4.944,2.014,73.333,685.000,1.000
-9629.804,-15014.969,-116763.302,-114150.360,2619.955,-3842.937,214.617,132.859,0.003,0.968,-0.187,-1.648,4.700,1.862,73.333,686.000,1.000
-9582.141,-14934.998,-116525.841,-113937.199,2617.356,-3791.606,211.858,164.556,0.001,0.968,-0.192,-1.007,4.364,1.678,73.333,687.000,1.000
-9533.133,-14855.402,-116287.198,-113722.843,2614.965,-3739.536,209.929,199.108,-0.001,0.969,-0.190,-0.488,4.120,1.587,73.333,688.000,1.000
-9483.409,-14777.086,-116047.125,-113507.092,2613.031,-3686.232,208.324,236.444,-0.005,0.971,-0.190,0.031,3.723,1.404,73.333,689.000,1.000
-9434.829,-14701.947,-115806.042,-113290.380,2611.137,-3633.114,205.332,274.239,-0.007,0.971,-0.195,0.458,3.296,1.190,73.333,690.000,1.000
-9388.509,-14630.736,-115564.458,-113073.205,2608.770,-3581.187,200.503,310.346,-0.009,0.967,-0.197,0.793,2.869,1.038,73.333,691.000,1.000
-9344.096,-14561.831,-115322.510,-112855.683,2605.777,-3530.079,195.120,344.243,-0.008,0.969,-0.194,1.282,2.472,0.946,73.333,692.000,1.000
-9301.063,-14492.781,-115080.186,-112637.768,2602.188,-3479.499,190.258,376.031,-0.007,0.972,-0.198,1.984,1.984,0.854,73.333,693.000,1.000
-9258.974,-14421.736,-114837.366,-112419.296,2598.194,-3429.552,186.104,406.090,-0.008,0.976,-0.202,2.533,1.526,0.824,73.333,694.000,1.000
-9216.418,-14347.273,-114593.469,-112199.634,2594.463,-3379.126,183.238,436.198,-0.012,0.977,-0.199,2.838,1.068,0.854,73.333,695.000,1.000
-9171.854,-14269.476,-114347.784,-111978.049,2591.750,-3326.374,182.457,468.404,-0.014,0.976,-0.201,3.235,0.488,0.702,73.333,696.000,1.000
-9125.186,-14190.777,-114100.273,-111754.536,2590.064,-3270.955,183.193,502.908,-0.015,0.973,-0.204,3.418,0.061,0.732,73.333,697.000,1.000
-9078.038,-14114.538,-113851.755,-111529.977,2588.516,-3214.929,183.139,537.444,-0.016,0.969,-0.205,3.784,-0.458,0.580,73.333,698.000,1.000
-9032.206,-14042.250,-113603.104,-111305.279,2586.177,-3160.792,180.359,569.316,-0.017,0.971,-0.208,4.089,-0.977,0.366,73.333,699.000,1.000
-8987.808,-13971.815,-113354.370,-111080.482,2582.960,-3108.924,175.361,598.151,-0.015,0.969,-0.212,4.425,-1.465,0.366,73.333,700.000,1.000
-8944.022,-13899.863,-113105.077,-110855.069,2579.334,-3058.389,169.796,625.340,-0.014,0.971,-0.215,4.700,-1.892,0.275,73.333,701.000,1.000
-8900.537,-13824.676,-112854.957,-110628.733,2575.605,-3008.611,164.507,652.474,-0.014,0.971,-0.214,5.035,-2.319,0.061,73.333,702.000,1.000
-8857.043,-13745.935,-112603.817,-110401.287,2572.014,-2958.329,160.506,681.604,-0.014,0.974,-0.219,5.310,-2.869,-0.061,73.333,703.000,1.000
-8812.191,-13663.617,-112351.191,-110172.309,2569.057,-2904.894,159.795,715.350,-0.011,0.970,-0.226,5.432,-3.204,-0.183,73.333,704.000,1.000
-8764.902,-13579.054,-112096.863,-109941.623,2566.965,-2847.410,162.418,754.353,-0.009,0.967,-0.229,5.646,-3.662,-0.336,73.333,705.000,1.000
-8716.343,-13495.777,-111841.385,-109709.814,2565.179,-2788.913,164.976,795.247,-0.009,0.963,-0.230,5.829,-4.059,-0.336,73.333,706.000,1.000
-8668.405,-13416.327,-111585.415,-109477.554,2563.026,-2732.567,164.911,833.874,-0.009,0.958,-0.232,6.348,-4.456,-0.366,73.333,707.000,1.000
-8621.833,-13339.942,-111329.147,-109244.999,2560.301,-2678.861,162.793,868.497,-0.010,0.954,-0.233,6.775,-4.730,-0.427,73.333,708.000,1.000
-8576.669,-13264.523,-111072.634,-109012.121,2556.990,-2627.751,159.427,899.194,-0.010,0.953,-0.237,7.172,-4.944,-0.336,73.333,709.000,1.000
-8532.245,-13188.214,-110815.811,-108778.790,2553.222,-2579.450,154.844,927.374,-0.015,0.948,-0.231,7.904,-5.554,-0.061,73.333,710.000,1.000
-8487.019,-13109.858,-110558.278,-108544.579,2549.466,-2533.443,149.824,955.578,-0.013,0.949,-0.234,8.728,-6.073,0.122,73.333,711.000,1.000
-8439.807,-13030.052,-110299.691,-108309.167,2546.087,-2489.594,145.376,985.823,-0.011,0.952,-0.246,9.186,-6.012,0.275,73.333,712.000,1.000
-8391.250,-12951.505,-110040.279,-108072.856,2542.789,-2449.670,141.196,1017.700,-0.016,0.959,-0.251,9.399,-5.554,0.427,73.333,713.000,1.000
-8343.163,-12876.849,-109780.547,-107836.247,2538.934,-2415.782,136.565,1049.323,-0.021,0.962,-0.250,9.308,-5.585,0.336,73.333,714.000,1.000
-8296.813,-12806.090,-109520.693,-107599.592,2534.219,-2388.183,131.930,1079.823,-0.022,0.969,-0.248,9.460,-5.768,0.488,73.333,715.000,1.000
-8251.951,-12736.414,-109260.351,-107362.506,2529.021,-2365.668,128.842,1110.227,-0.023,0.975,-0.248,9.430,-6.012,0.580,73.333,716.000,1.000
-8206.067,-12662.816,-108998.485,-107123.883,2524.481,-2346.560,129.330,1143.459,-0.026,0.982,-0.250,9.125,-6.378,0.854,73.333,717.000,1.000
-8156.269,-12580.767,-108734.051,-106882.611,2521.774,-2329.435,133.989,1181.793,-0.026,0.986,-0.250,8.698,-6.653,1.221,73.333,718.000,1.000
-8102.687,-12490.083,-108467.172,-106638.786,2520.869,-2312.790,140.113,1223.437,-0.027,0.988,-0.249,8.331,-7.019,1.617,73.333,719.000,1.000
-8048.421,-12394.726,-108199.188,-106393.784,2520.436,-2292.795,143.366,1263.493,-0.027,0.989,-0.248,7.751,-7.599,2.167,73.333,720.000,1.000
-7996.663,-12299.082,-107931.439,-106149.003,2519.054,-2262.435,141.400,1298.088,-0.026,0.989,-0.247,7.263,-8.087,2.502,73.333,721.000,1.000
-7947.986,-12204.473,-107664.119,-105904.646,2516.445,-2213.601,135.666,1327.721,-0.023,0.995,-0.255,6.805,-8.392,2.594,73.333,722.000,1.000
-7900.103,-12108.949,-107396.306,-105659.749,2513.520,-2141.396,129.934,1356.389,-0.018,1.002,-0.262,5.981,-8.484,2.716,73.333,723.000,1.000
-7849.864,-12010.093,-107127.027,-105413.297,2511.287,-2048.098,127.291,1387.681,-0.014,1.003,-0.263,5.035,-8.514,2.808,73.333,724.000,1.000
-7795.523,-11907.321,-106856.175,-105165.186,2509.864,-1943.009,128.546,1422.303,-0.008,1.003,-0.259,4.120,-8.514,2.747,73.333,725.000,1.000
-7737.980,-11802.179,-106584.484,-104916.171,2508.517,-1837.826,132.826,1458.592,-0.007,1.003,-0.258,3.235,-8.453,2.625,73.333,726.000,1.000
-7679.927,-11696.934,-106312.749,-104667.053,2506.467,-1740.928,138.790,1494.939,-0.006,1.005,-0.258,2.319,-8.240,2.533,73.333,727.000,1.000
-7624.220,-11593.516,-106041.293,-104418.148,2503.424,-1655.237,144.515,1530.632,-0.006,1.004,-0.255,1.343,-8.118,2.441,73.333,728.000,1.000
-7572.312,-11493.059,-105769.890,-104169.231,2499.650,-1579.689,147.386,1565.246,-0.006,1.005,-0.258,0.397,-7.904,2.563,73.333,729.000,1.000
-7523.136,-11395.111,-105497.804,-103919.595,2495.897,-1511.063,145.705,1598.717,-0.008,1.000,-0.256,-0.519,-7.721,2.502,73.333,730.000,1.000
-7474.163,-11298.284,-105224.206,-103668.444,2492.980,-1445.622,140.184,1631.114,-0.008,0.997,-0.256,-1.221,-7.690,2.380,73.333,731.000,1.000
-7423.851,-11201.917,-104948.845,-103415.537,2491.110,-1380.663,133.395,1662.127,-0.009,0.996,-0.253,-1.923,-7.629,2.136,73.333,732.000,1.000
-7373.131,-11107.065,-104672.305,-103161.452,2489.661,-1315.601,127.980,1690.833,-0.006,0.998,-0.252,-2.594,-7.446,1.953,73.333,733.000,1.000
-7324.355,-11016.078,-104395.516,-102907.085,2487.711,-1252.035,125.282,1716.366,-0.006,0.996,-0.255,-3.204,-7.477,1.709,73.333,734.000,1.000
-7279.468,-10931.428,-104119.139,-102653.054,2484.649,-1193.145,124.343,1738.468,-0.005,0.987,-0.250,-3.754,-7.263,1.526,73.333,735.000,1.000
-7239.407,-10854.882,-103843.435,-102399.588,2480.272,-1142.332,122.282,1757.207,-0.003,0.975,-0.246,-4.333,-7.141,1.373,73.333,736.000,1.000
-7203.371,-10786.202,-103568.145,-102146.440,2474.869,-1100.236,117.036,1773.849,0.000,0.963,-0.243,-4.547,-6.927,1.160,73.333,737.000,1.000
-7168.973,-10723.256,-103292.518,-101892.902,2469.174,-1063.686,108.913,1790.575,0.003,0.956,-0.242,-4.547,-6.714,0.854,73.333,738.000,1.000
-7134.077,-10664.258,-103015.870,-101638.323,2463.829,-1028.622,99.659,1808.311,0.002,0.959,-0.242,-4.517,-6.348,0.824,73.333,739.000,1.000
-7098.143,-10608.727,-102738.119,-101382.618,2458.891,-993.303,91.184,1825.955,0.002,0.963,-0.241,-4.395,-5.920,0.702,73.333,740.000,1.000
-7062.220,-10556.817,-102459.757,-101126.274,2453.857,-959.081,84.120,1841.262,0.002,0.966,-0.238,-4.303,-5.768,0.824,73.333,741.000,1.000
-7027.492,-10508.253,-102181.326,-100869.850,2448.193,-928.311,77.402,1852.981,0.000,0.963,-0.235,-4.364,-5.463,0.977,73.333,742.000,1.000
-6993.746,-10461.844,-101902.874,-100613.423,2441.862,-901.402,69.828,1862.525,0.000,0.958,-0.232,-4.272,-5.219,1.007,73.333,743.000,1.000
-6958.936,-10415.515,-101623.848,-100356.437,2435.444,-875.748,62.104,1873.752,0.000,0.958,-0.231,-4.272,-4.913,1.129,73.333,744.000,1.000
-6920.447,-10366.640,-101343.551,-100098.127,2429.691,-847.492,56.702,1890.698,-0.002,0.963,-0.227,-4.242,-4.791,1.129,73.333,745.000,1.000
-6877.518,-10313.191,-101061.753,-99838.186,2424.887,-814.717,54.950,1914.109,-0.007,0.971,-0.225,-4.272,-4.486,1.190,73.333,746.000,1.000
-6831.666,-10254.177,-100778.760,-99576.908,2420.731,-778.351,55.124,1940.816,-0.006,0.975,-0.228,-4.181,-4.425,1.465,73.333,747.000,1.000
-6785.269,-10189.778,-100495.056,-99314.833,2416.699,-740.611,54.098,1966.564,-0.007,0.978,-0.226,-4.211,-4.333,1.770,73.333,748.000,1.000
-6740.203,-10121.846,-100211.034,-99052.418,2412.377,-703.407,50.250,1989.324,-0.009,0.982,-0.223,-4.364,-4.333,1.984,73.333,749.000,1.000
-6697.260,-10053.498,-99926.902,-98789.899,2407.571,-667.658,44.119,2010.263,-0.011,0.984,-0.219,-4.608,-4.272,2.136,73.333,750.000,1.000
-6656.506,-9987.971,-99642.719,-98527.310,2402.242,-633.527,36.946,2031.666,-0.013,0.988,-0.222,-4.883,-4.364,2.319,73.333,751.000,1.000
-6617.297,-9926.753,-99358.426,-98264.542,2396.437,-600.472,29.842,2054.960,-0.013,0.990,-0.223,-5.188,-4.456,2.533,73.333,752.000,1.000
-6578.438,-9868.620,-99073.942,-98001.482,2390.202,-567.473,23.579,2079.803,-0.010,0.993,-0.221,-5.432,-4.395,2.808,73.333,753.000,1.000
-6538.657,-9810.660,-98789.116,-97738.004,2383.656,-533.546,18.340,2104.525,-0.009,0.995,-0.220,-5.768,-4.547,3.052,73.333,754.000,1.000
-6496.955,-9749.989,-98503.589,-97473.796,2377.162,-497.942,13.784,2127.752,-0.010,0.997,-0.218,-6.042,-4.578,3.235,73.333,755.000,1.000
-6453.320,-9685.571,-98216.965,-97208.487,2371.160,-460.623,9.167,2149.151,-0.011,0.994,-0.219,-6.348,-4.608,3.510,73.333,756.000,1.000
-6408.627,-9618.543,-97929.126,-96941.931,2365.833,-422.370,3.759,2169.646,-0.012,0.990,-0.216,-6.592,-4.730,3.815,73.333,757.000,1.000
-6363.914,-9551.105,-97640.367,-96674.375,2360.934,-384.339,-2.595,2190.804,-0.011,0.980,-0.214,-6.653,-4.761,4.089,73.333,758.000,1.000
-6319.779,-9485.074,-97351.169,-96406.259,2356.005,-347.315,-9.220,2213.835,-0.013,0.974,-0.212,-6.653,-4.913,4.456,73.333,759.000,1.000
-6276.225,-9420.781,-97061.787,-96137.841,2350.762,-310.974,-15.090,2239.223,-0.010,0.974,-0.212,-6.378,-5.066,4.730,73.333,760.000,1.000
-6233.347,-9357.558,-96772.244,-95869.179,2345.133,-274.278,-19.734,2266.280,-0.008,0.970,-0.217,-6.042,-5.219,5.066,73.333,761.000,1.000
-6191.396,-9294.229,-96482.493,-95600.281,2339.113,-236.117,-23.192,2293.624,-0.009,0.958,-0.213,-5.707,-5.371,5.280,73.333,762.000,1.000
-6150.367,-9229.088,-96192.374,-95331.022,2332.839,-195.622,-25.489,2320.110,-0.009,0.946,-0.209,-5.096,-5.463,5.432,73.333,763.000,1.000
-6109.644,-9160.388,-95901.488,-95060.998,2326.709,-152.253,-26.611,2345.535,-0.009,0.941,-0.201,-4.333,-5.646,5.310,73.333,764.000,1.000
-6068.062,-9087.407,-95609.389,-94789.743,2321.195,-106.011,-27.021,2370.675,-0.009,0.948,-0.205,-3.723,-5.768,5.157,73.333,765.000,1.000
-6024.982,-9011.698,-95316.034,-94517.212,2316.394,-58.138,-28.046,2396.131,-0.012,0.962,-0.211,-3.143,-6.134,5.127,73.333,766.000,1.000
-5980.595,-8936.411,-95021.778,-94243.762,2312.020,-10.639,-31.110,2422.321,-0.014,0.976,-0.214,-2.869,-6.378,5.280,73.333,767.000,1.000
-5935.577,-8864.657,-94727.028,-93969.782,2307.707,34.905,-36.786,2450.020,-0.011,0.986,-0.213,-2.747,-6.683,5.524,73.333,768.000,1.000
-5890.733,-8798.696,-94432.086,-93695.553,2303.144,77.881,-44.400,2480.175,-0.008,0.987,-0.215,-2.808,-6.866,5.676,73.333,769.000,1.000
-5846.303,-8738.945,-94137.078,-93421.198,2298.149,118.954,-52.148,2513.421,-0.003,0.979,-0.211,-2.960,-7.172,5.615,73.333,770.000,1.000
-5801.964,-8683.282,-93841.961,-93146.691,2292.704,159.829,-58.131,2548.803,0.003,0.969,-0.214,-2.991,-7.294,5.402,73.333,771.000,1.000
-5757.210,-8627.138,-93546.575,-92871.892,2286.954,202.653,-61.337,2583.427,0.008,0.962,-0.218,-2.533,-7.385,5.280,73.333,772.000,1.000
-5711.837,-8565.018,-93250.732,-92596.628,2281.110,249.055,-61.846,2613.573,0.013,0.959,-0.221,-2.258,-7.324,5.157,73.333,773.000,1.000
-5666.177,-8493.175,-92954.337,-92320.796,2275.294,298.885,-60.755,2636.407,0.013,0.968,-0.217,-1.617,-7.263,4.913,73.333,774.000,1.000
-5620.741,-8411.625,-92657.398,-92044.385,2269.524,349.891,-60.013,2651.556,0.014,0.984,-0.206,-1.099,-7.111,4.791,73.333,775.000,1.000
-5575.519,-8324.558,-92359.866,-91767.298,2263.902,399.277,-61.199,2662.002,0.015,0.995,-0.209,-1.190,-7.019,4.578,73.333,776.000,1.000
-5529.271,-8238.612,-92061.459,-91489.187,2258.769,446.278,-63.722,2674.131,0.019,1.006,-0.219,-1.740,-6.958,4.364,73.333,777.000,1.000
-5480.898,-8160.798,-91761.977,-91209.831,2254.346,492.043,-65.732,2694.278,0.022,1.008,-0.225,-2.228,-6.653,4.395,73.333,778.000,1.000
-5431.349,-8096.314,-91461.714,-90929.582,2250.310,537.227,-66.660,2724.100,0.026,1.003,-0.224,-2.869,-6.439,4.395,73.333,779.000,1.000
-5382.889,-8045.438,-91161.234,-90649.088,2246.061,581.273,-67.489,2759.925,0.032,0.996,-0.220,-3.235,-6.256,4.272,73.333,780.000,1.000
-5337.189,-8002.361,-90860.848,-90368.712,2241.257,623.444,-69.080,2795.525,0.032,0.991,-0.215,-3.601,-5.920,4.120,73.333,781.000,1.000
-5293.975,-7957.319,-90560.357,-90088.248,2236.077,664.013,-70.745,2826.147,0.029,0.997,-0.214,-3.723,-5.615,4.059,73.333,782.000,1.000
-5251.541,-7901.632,-90259.333,-89807.227,2230.942,703.913,-71.274,2850.349,0.025,1.006,-0.214,-3.906,-5.402,4.089,73.333,783.000,1.000
-5208.480,-7832.726,-89957.604,-89525.442,2226.041,743.253,-71.287,2868.842,0.023,1.012,-0.214,-4.303,-5.127,4.181,73.333,784.000,1.000
-5164.581,-7755.099,-89655.409,-89243.135,2221.163,781.052,-73.204,2883.380,0.021,1.013,-0.211,-4.913,-5.035,4.364,73.333,785.000,1.000
-5120.565,-7677.414,-89353.181,-88960.763,2215.886,816.352,-78.846,2896.636,0.019,1.004,-0.208,-5.463,-5.005,4.639,73.333,786.000,1.000
-5076.808,-7607.432,-89051.050,-88678.463,2210.091,849.558,-87.679,2912.121,0.018,0.993,-0.209,-5.524,-5.005,4.700,73.333,787.000,1.000
-5033.023,-7548.164,-88748.746,-88395.936,2204.063,882.214,-97.463,2932.056,0.020,0.982,-0.208,-5.646,-5.005,4.517,73.333,788.000,1.000
-4988.790,-7496.741,-88446.008,-88112.881,2198.070,916.214,-105.477,2955.505,0.022,0.972,-0.206,-5.707,-5.035,4.242,73.333,789.000,1.000
-4943.326,-7445.159,-88142.707,-87829.155,2192.219,953.919,-109.243,2979.720,0.025,0.968,-0.206,-5.493,-5.035,3.937,73.333,790.000,1.000
-4895.937,-7384.309,-87838.788,-87544.733,2186.532,996.905,-108.230,3002.117,0.024,0.964,-0.203,-5.249,-5.066,3.571,73.333,791.000,1.000
-4847.002,-7309.381,-87534.243,-87259.676,2181.007,1044.110,-105.020,3021.708,0.021,0.959,-0.201,-4.730,-5.127,3.235,73.333,792.000,1.000
-4798.001,-7222.260,-87228.980,-86973.956,2175.767,1092.393,-103.557,3039.964,0.018,0.950,-0.205,-4.364,-5.127,3.052,73.333,793.000,1.000
-4750.150,-7129.909,-86922.755,-86687.322,2171.114,1138.975,-106.016,3060.497,0.014,0.944,-0.203,-3.662,-5.188,2.960,73.333,794.000,1.000
-4703.530,-7041.035,-86615.506,-86399.656,2167.144,1182.762,-111.838,3086.899,0.012,0.940,-0.199,-2.930,-5.493,2.869,73.333,795.000,1.000
-4658.150,-6963.193,-86307.795,-86111.466,2163.286,1223.554,-119.552,3119.386,0.012,0.939,-0.199,-2.106,-5.585,2.777,73.333,796.000,1.000
-4614.459,-6899.526,-86000.617,-85823.721,2158.539,1261.602,-128.257,3153.967,0.012,0.941,-0.194,-1.282,-5.951,2.441,73.333,797.000,1.000
-4572.702,-6846.769,-85694.687,-85537.120,2152.211,1298.054,-137.351,3184.755,0.012,0.948,-0.192,-0.488,-6.104,2.350,73.333,798.000,1.000
-4532.152,-6796.484,-85389.770,-85251.427,2144.548,1335.232,-145.708,3207.846,0.011,0.958,-0.194,0.092,-6.287,2.319,73.333,799.000,1.000
-4490.934,-6738.732,-85084.599,-84965.400,2136.794,1376.129,-151.694,3224.271,0.010,0.970,-0.193,0.549,-6.470,2.472,73.333,800.000,1.000
-4447.272,-6667.308,-84777.705,-84677.607,2130.380,1422.629,-154.232,3239.089,0.010,0.986,-0.195,0.702,-6.653,2.594,73.333,801.000,1.000
-4400.719,-6583.339,-84468.473,-84387.461,2125.901,1474.017,-153.589,3258.169,0.010,1.004,-0.200,0.580,-6.897,2.777,73.333,802.000,1.000
-4352.468,-6494.478,-84157.482,-84095.552,2122.783,1527.124,-151.365,3284.924,0.005,1.023,-0.209,0.183,-7.233,2.960,73.333,803.000,1.000
-4304.482,-6409.986,-83845.858,-83802.992,2119.926,1578.084,-149.477,3318.891,0.001,1.020,-0.207,-0.366,-7.599,3.418,73.333,804.000,1.000
-4258.117,-6335.246,-83534.437,-83510.588,2116.523,1624.473,-148.991,3356.542,-0.001,1.002,-0.202,-1.068,-7.904,3.723,73.333,805.000,1.000
-4213.733,-6269.952,-83223.596,-83218.696,2112.222,1665.979,-150.107,3392.691,0.001,0.981,-0.196,-1.343,-8.209,3.876,73.333,806.000,1.000
-4170.646,-6209.044,-82913.351,-82927.331,2107.012,1704.190,-152.575,3422.843,0.001,0.970,-0.199,-1.465,-8.545,3.998,73.333,807.000,1.000
-4127.629,-6144.831,-82603.325,-82636.127,2101.258,1741.878,-155.788,3445.023,0.002,0.970,-0.201,-1.373,-8.850,3.815,73.333,808.000,1.000
-4083.685,-6070.168,-82292.849,-82344.426,2095.621,1781.706,-158.663,3459.877,0.002,0.979,-0.205,-1.068,-9.064,3.876,73.333,809.000,1.000
-4038.654,-5982.138,-81981.435,-82051.738,2090.606,1824.574,-160.490,3469.809,0.005,0.985,-0.203,-0.977,-9.460,4.089,73.333,810.000,1.000
-3993.640,-5884.830,-81669.211,-81758.174,2086.110,1868.570,-162.275,3477.907,0.006,0.992,-0.204,-1.190,-9.583,4.333,73.333,811.000,1.000
-3949.548,-5787.569,-81356.539,-81464.098,2081.766,1911.074,-165.562,3488.336,0.009,0.999,-0.203,-1.556,-9.857,4.639,73.333,812.000,1.000
-3905.838,-5700.103,-81043.501,-81169.631,2077.452,1951.379,-170.404,3505.623,0.009,1.006,-0.208,-2.136,-9.979,5.219,73.333,813.000,1.000
-3861.787,-5629.040,-80730.225,-80874.929,2073.026,1989.975,-175.914,3531.416,0.008,1.007,-0.208,-2.655,-10.193,5.707,73.333,814.000,1.000
-3817.498,-5574.979,-80417.117,-80580.385,2068.116,2027.239,-181.332,3563.009,0.008,1.008,-0.207,-3.387,-10.284,6.256,73.333,815.000,1.000
-3772.992,-5530.699,-80104.307,-80286.102,2062.624,2064.037,-185.388,3595.552,0.006,1.003,-0.205,-3.815,-10.468,6.836,73.333,816.000,1.000
-3727.348,-5483.325,-79791.321,-79991.576,2057.036,2102.181,-185.994,3625.263,0.008,0.997,-0.204,-4.456,-10.681,7.385,73.333,817.000,1.000
-3679.980,-5421.101,-79477.660,-79696.296,2051.833,2142.743,-182.162,3650.269,0.009,0.990,-0.206,-4.822,-10.803,7.904,73.333,818.000,1.000
-3631.884,-5339.691,-79163.377,-79400.309,2046.950,2184.611,-175.689,3670.303,0.012,0.982,-0.211,-5.219,-10.986,8.209,73.333,819.000,1.000
-3584.768,-5243.124,-78848.857,-79103.989,2042.025,2225.675,-170.098,3686.872,0.013,0.977,-0.207,-5.249,-11.078,8.331,73.333,820.000,1.000
-3539.581,-5140.340,-78534.326,-78807.557,2036.872,2264.961,-168.047,3702.424,0.015,0.979,-0.211,-5.524,-10.956,8.484,73.333,821.000,1.000
-3495.622,-5040.150,-78219.653,-78510.895,2031.644,2303.493,-169.723,3719.130,0.016,0.978,-0.213,-5.585,-11.200,8.606,73.333,822.000,1.000
-3451.516,-4948.306,-77904.609,-78213.799,2026.565,2342.884,-173.766,3737.651,0.019,0.973,-0.212,-5.676,-11.292,8.728,73.333,823.000,1.000
-3406.919,-4867.451,-77589.155,-77916.271,2021.645,2383.572,-179.140,3756.778,0.018,0.970,-0.213,-5.524,-11.230,8.698,73.333,824.000,1.000
-3362.760,-4797.372,-77273.425,-77618.497,2016.709,2424.695,-185.564,3774.707,0.022,0.967,-0.210,-5.493,-11.322,8.636,73.333,825.000,1.000
-3320.585,-4735.262,-76957.666,-77320.742,2011.494,2464.670,-192.865,3790.218,0.024,0.971,-0.208,-5.371,-11.353,8.514,73.333,826.000,1.000
-3281.159,-4675.706,-76642.041,-77023.114,2005.869,2502.346,-200.209,3803.693,0.029,0.974,-0.205,-5.127,-11.353,8.423,73.333,827.000,1.000
-3243.501,-4611.549,-76326.381,-76725.334,2000.103,2538.111,-205.811,3817.436,0.032,0.980,-0.201,-5.249,-11.230,8.301,73.333,828.000,1.000
-3205.452,-4537.317,-76010.309,-76426.923,1994.693,2573.614,-207.696,3834.611,0.036,0.984,-0.201,-5.035,-11.169,8.118,73.333,829.000,1.000
-3165.129,-4452.897,-75693.623,-76127.680,1989.874,2610.356,-205.520,3857.329,0.041,0.991,-0.201,-5.249,-11.047,8.057,73.333,830.000,1.000
